SpectraSuite Data File
++++++++++++++++++++++++++++++++++++
Date: Fri Oct 25 12:11:32 EDT 2013
User: price-jones
Dark Spectrum Present: No
Reference Spectrum Present: No
Number of Sampled Component Spectra: 1
Spectrometers: USB2+H05261
Integration Time (usec): 100000 (USB2+H05261)
Spectra Averaged: 1 (USB2+H05261)
Boxcar Smoothing: 0 (USB2+H05261)
Correct for Electrical Dark: No (USB2+H05261)
Strobe/Lamp Enabled: No (USB2+H05261)
Correct for Detector Non-linearity: No (USB2+H05261)
Correct for Stray Light: No (USB2+H05261)
Number of Pixels in Processed Spectrum: 2048
>>>>>Begin Processed Spectral Data<<<<<
365.73	414.27
365.92	414.27
366.12	414.27
366.32	222.35
366.52	322.99
366.72	231.71
366.91	255.12
367.11	278.52
367.31	187.24
367.51	229.37
367.70	227.03
367.90	248.10
368.10	292.57
368.30	322.99
368.49	273.84
368.69	217.67
368.89	278.52
369.09	243.42
369.28	227.03
369.48	224.69
369.68	299.59
369.87	266.82
370.07	278.52
370.27	374.49
370.47	330.02
370.66	283.20
370.86	376.83
371.06	411.93
371.25	416.62
371.45	362.78
371.65	383.85
371.84	355.76
372.04	383.85
372.24	381.51
372.44	388.53
372.63	383.85
372.83	390.87
373.03	372.15
373.22	416.62
373.42	327.68
373.62	442.36
373.81	369.80
374.01	414.27
374.21	465.77
374.40	447.04
374.60	444.70
374.79	381.51
374.99	456.40
375.19	379.17
375.38	409.59
375.58	475.13
375.78	362.78
375.97	379.17
376.17	437.68
376.37	351.08
376.56	425.98
376.76	411.93
376.95	430.66
377.15	456.40
377.35	404.91
377.54	442.36
377.74	365.12
377.93	479.81
378.13	449.38
378.33	451.72
378.52	395.55
378.72	437.68
378.91	414.27
379.11	428.32
379.31	400.23
379.50	362.78
379.70	411.93
379.89	388.53
380.09	313.63
380.28	402.57
380.48	374.49
380.68	428.32
380.87	409.59
381.07	369.80
381.26	395.55
381.46	465.77
381.65	397.89
381.85	416.62
382.04	442.36
382.24	388.53
382.43	360.44
382.63	402.57
382.83	402.57
383.02	404.91
383.22	430.66
383.41	374.49
383.61	360.44
383.80	374.49
384.00	428.32
384.19	332.36
384.39	451.72
384.58	440.02
384.78	334.70
384.97	430.66
385.17	400.23
385.36	414.27
385.56	369.80
385.75	451.72
385.95	451.72
386.14	404.91
386.34	327.68
386.53	360.44
386.72	390.87
386.92	454.06
387.11	428.32
387.31	388.53
387.50	425.98
387.70	458.74
387.89	404.91
388.09	409.59
388.28	388.53
388.48	454.06
388.67	402.57
388.86	400.23
389.06	454.06
389.25	477.47
389.45	404.91
389.64	327.68
389.84	421.30
390.03	498.53
390.22	402.57
390.42	355.76
390.61	376.83
390.81	442.36
391.00	440.02
391.19	440.02
391.39	449.38
391.58	416.62
391.78	379.17
391.97	381.51
392.16	402.57
392.36	397.89
392.55	423.64
392.75	388.53
392.94	411.93
393.13	524.28
393.33	400.23
393.52	315.97
393.71	404.91
393.91	440.02
394.10	334.70
394.29	402.57
394.49	388.53
394.68	526.62
394.88	454.06
395.07	442.36
395.26	411.93
395.46	376.83
395.65	411.93
395.84	390.87
396.04	463.43
396.23	383.85
396.42	416.62
396.62	435.34
396.81	470.45
397.00	500.87
397.19	402.57
397.39	407.25
397.58	463.43
397.77	344.06
397.97	416.62
398.16	383.85
398.35	395.55
398.55	360.44
398.74	388.53
398.93	440.02
399.12	423.64
399.32	423.64
399.51	395.55
399.70	355.76
399.90	346.40
400.09	458.74
400.28	465.77
400.47	390.87
400.67	430.66
400.86	386.19
401.05	472.79
401.24	404.91
401.44	414.27
401.63	400.23
401.82	564.07
402.01	404.91
402.21	374.49
402.40	367.46
402.59	365.12
402.78	376.83
402.97	414.27
403.17	433.00
403.36	449.38
403.55	409.59
403.74	362.78
403.93	390.87
404.13	435.34
404.32	409.59
404.51	397.89
404.70	433.00
404.89	421.30
405.09	442.36
405.28	447.04
405.47	390.87
405.66	379.17
405.85	444.70
406.05	376.83
406.24	463.43
406.43	402.57
406.62	383.85
406.81	482.15
407.00	514.92
407.20	360.44
407.39	386.19
407.58	416.62
407.77	465.77
407.96	449.38
408.15	409.59
408.34	409.59
408.54	407.25
408.73	430.66
408.92	388.53
409.11	423.64
409.30	477.47
409.49	456.40
409.68	428.32
409.87	390.87
410.07	423.64
410.26	353.42
410.45	425.98
410.64	362.78
410.83	386.19
411.02	409.59
411.21	444.70
411.40	458.74
411.59	369.80
411.78	411.93
411.98	449.38
412.17	381.51
412.36	430.66
412.55	440.02
412.74	421.30
412.93	416.62
413.12	388.53
413.31	444.70
413.50	437.68
413.69	416.62
413.88	383.85
414.07	435.34
414.26	348.74
414.45	362.78
414.64	451.72
414.83	440.02
415.02	435.34
415.22	449.38
415.41	486.83
415.60	418.96
415.79	442.36
415.98	428.32
416.17	407.25
416.36	430.66
416.55	397.89
416.74	430.66
416.93	421.30
417.12	414.27
417.31	421.30
417.50	397.89
417.69	402.57
417.88	388.53
418.07	397.89
418.26	430.66
418.45	465.77
418.64	468.11
418.83	393.21
419.02	348.74
419.21	381.51
419.39	414.27
419.58	416.62
419.77	355.76
419.96	411.93
420.15	418.96
420.34	372.15
420.53	437.68
420.72	423.64
420.91	461.09
421.10	411.93
421.29	390.87
421.48	409.59
421.67	461.09
421.86	379.17
422.05	425.98
422.24	411.93
422.43	482.15
422.61	435.34
422.80	355.76
422.99	428.32
423.18	437.68
423.37	421.30
423.56	447.04
423.75	383.85
423.94	407.25
424.13	393.21
424.32	393.21
424.50	400.23
424.69	395.55
424.88	388.53
425.07	463.43
425.26	404.91
425.45	433.00
425.64	409.59
425.83	360.44
426.01	472.79
426.20	425.98
426.39	376.83
426.58	383.85
426.77	421.30
426.96	414.27
427.15	440.02
427.33	423.64
427.52	411.93
427.71	418.96
427.90	407.25
428.09	397.89
428.28	416.62
428.46	395.55
428.65	428.32
428.84	411.93
429.03	472.79
429.22	447.04
429.40	470.45
429.59	416.62
429.78	470.45
429.97	416.62
430.16	451.72
430.34	372.15
430.53	407.25
430.72	418.96
430.91	477.47
431.10	454.06
431.28	414.27
431.47	355.76
431.66	395.55
431.85	367.46
432.03	442.36
432.22	463.43
432.41	421.30
432.60	421.30
432.79	428.32
432.97	386.19
433.16	367.46
433.35	397.89
433.54	376.83
433.72	421.30
433.91	440.02
434.10	383.85
434.28	379.17
434.47	372.15
434.66	461.09
434.85	421.30
435.03	425.98
435.22	404.91
435.41	402.57
435.59	444.70
435.78	379.17
435.97	383.85
436.16	458.74
436.34	379.17
436.53	458.74
436.72	372.15
436.90	425.98
437.09	489.17
437.28	365.12
437.46	435.34
437.65	330.02
437.84	358.10
438.02	437.68
438.21	395.55
438.40	404.91
438.58	332.36
438.77	320.65
438.96	362.78
439.14	458.74
439.33	428.32
439.52	383.85
439.70	428.32
439.89	456.40
440.08	423.64
440.26	435.34
440.45	491.51
440.63	477.47
440.82	425.98
441.01	465.77
441.19	400.23
441.38	433.00
441.57	400.23
441.75	433.00
441.94	461.09
442.12	442.36
442.31	423.64
442.50	435.34
442.68	383.85
442.87	414.27
443.05	381.51
443.24	433.00
443.43	362.78
443.61	390.87
443.80	411.93
443.98	421.30
444.17	414.27
444.35	423.64
444.54	395.55
444.73	344.06
444.91	428.32
445.10	386.19
445.28	458.74
445.47	369.80
445.65	500.87
445.84	428.32
446.02	423.64
446.21	374.49
446.39	407.25
446.58	397.89
446.77	428.32
446.95	414.27
447.14	463.43
447.32	479.81
447.51	367.46
447.69	456.40
447.88	372.15
448.06	435.34
448.25	449.38
448.43	421.30
448.62	414.27
448.80	425.98
448.99	423.64
449.17	421.30
449.36	393.21
449.54	489.17
449.73	454.06
449.91	470.45
450.10	409.59
450.28	503.22
450.46	456.40
450.65	414.27
450.83	362.78
451.02	449.38
451.20	381.51
451.39	400.23
451.57	372.15
451.76	430.66
451.94	472.79
452.13	337.04
452.31	440.02
452.49	454.06
452.68	425.98
452.86	444.70
453.05	447.04
453.23	369.80
453.42	348.74
453.60	430.66
453.78	390.87
453.97	374.49
454.15	449.38
454.34	383.85
454.52	451.72
454.70	447.04
454.89	402.57
455.07	376.83
455.26	411.93
455.44	440.02
455.62	409.59
455.81	430.66
455.99	393.21
456.17	430.66
456.36	454.06
456.54	409.59
456.73	355.76
456.91	386.19
457.09	418.96
457.28	409.59
457.46	437.68
457.64	461.09
457.83	402.57
458.01	498.53
458.19	461.09
458.38	433.00
458.56	411.93
458.74	404.91
458.93	411.93
459.11	360.44
459.29	484.49
459.48	386.19
459.66	407.25
459.84	355.76
460.03	510.24
460.21	458.74
460.39	425.98
460.57	486.83
460.76	461.09
460.94	442.36
461.12	449.38
461.31	449.38
461.49	411.93
461.67	454.06
461.85	407.25
462.04	395.55
462.22	746.63
462.40	437.68
462.59	437.68
462.77	381.51
462.95	360.44
463.13	442.36
463.32	472.79
463.50	461.09
463.68	355.76
463.86	402.57
464.05	362.78
464.23	379.17
464.41	393.21
464.59	449.38
464.78	397.89
464.96	416.62
465.14	400.23
465.32	376.83
465.50	430.66
465.69	414.27
465.87	458.74
466.05	447.04
466.23	411.93
466.41	465.77
466.60	421.30
466.78	435.34
466.96	404.91
467.14	442.36
467.32	472.79
467.51	454.06
467.69	433.00
467.87	519.60
468.05	388.53
468.23	456.40
468.41	468.11
468.60	435.34
468.78	479.81
468.96	423.64
469.14	472.79
469.32	404.91
469.50	475.13
469.69	461.09
469.87	477.47
470.05	458.74
470.23	404.91
470.41	425.98
470.59	376.83
470.77	393.21
470.95	374.49
471.14	362.78
471.32	348.74
471.50	470.45
471.68	397.89
471.86	402.57
472.04	510.24
472.22	470.45
472.40	346.40
472.58	433.00
472.77	353.42
472.95	407.25
473.13	510.24
473.31	456.40
473.49	355.76
473.67	374.49
473.85	390.87
474.03	414.27
474.21	376.83
474.39	435.34
474.57	444.70
474.75	461.09
474.93	447.04
475.12	379.17
475.30	418.96
475.48	365.12
475.66	393.21
475.84	390.87
476.02	435.34
476.20	414.27
476.38	397.89
476.56	404.91
476.74	397.89
476.92	447.04
477.10	428.32
477.28	376.83
477.46	339.38
477.64	430.66
477.82	468.11
478.00	430.66
478.18	461.09
478.36	346.40
478.54	374.49
478.72	423.64
478.90	381.51
479.08	411.93
479.26	386.19
479.44	341.72
479.62	358.10
479.80	395.55
479.98	407.25
480.16	379.17
480.34	440.02
480.52	355.76
480.70	346.40
480.88	404.91
481.06	404.91
481.24	393.21
481.41	409.59
481.59	475.13
481.77	386.19
481.95	379.17
482.13	461.09
482.31	479.81
482.49	376.83
482.67	358.10
482.85	381.51
483.03	437.68
483.21	430.66
483.39	362.78
483.57	355.76
483.74	381.51
483.92	404.91
484.10	376.83
484.28	435.34
484.46	524.28
484.64	435.34
484.82	451.72
485.00	463.43
485.18	421.30
485.35	390.87
485.53	447.04
485.71	435.34
485.89	386.19
486.07	383.85
486.25	470.45
486.43	414.27
486.61	444.70
486.78	524.28
486.96	433.00
487.14	416.62
487.32	395.55
487.50	458.74
487.68	400.23
487.85	379.17
488.03	465.77
488.21	482.15
488.39	388.53
488.57	386.19
488.75	404.91
488.92	528.96
489.10	451.72
489.28	454.06
489.46	437.68
489.64	444.70
489.81	411.93
489.99	416.62
490.17	465.77
490.35	456.40
490.53	435.34
490.70	395.55
490.88	433.00
491.06	383.85
491.24	400.23
491.41	411.93
491.59	440.02
491.77	416.62
491.95	437.68
492.13	440.02
492.30	395.55
492.48	411.93
492.66	402.57
492.84	411.93
493.01	355.76
493.19	395.55
493.37	376.83
493.54	362.78
493.72	421.30
493.90	407.25
494.08	451.72
494.25	395.55
494.43	437.68
494.61	358.10
494.79	353.42
494.96	344.06
495.14	435.34
495.32	367.46
495.49	372.15
495.67	482.15
495.85	503.22
496.02	407.25
496.20	475.13
496.38	468.11
496.55	369.80
496.73	383.85
496.91	465.77
497.09	435.34
497.26	402.57
497.44	362.78
497.62	404.91
497.79	482.15
497.97	374.49
498.14	433.00
498.32	414.27
498.50	440.02
498.67	437.68
498.85	421.30
499.03	456.40
499.20	374.49
499.38	390.87
499.56	306.61
499.73	395.55
499.91	386.19
500.08	444.70
500.26	440.02
500.44	411.93
500.61	418.96
500.79	461.09
500.97	444.70
501.14	425.98
501.32	440.02
501.49	386.19
501.67	479.81
501.84	372.15
502.02	444.70
502.20	472.79
502.37	407.25
502.55	386.19
502.72	365.12
502.90	444.70
503.07	421.30
503.25	440.02
503.43	428.32
503.60	444.70
503.78	339.38
503.95	449.38
504.13	423.64
504.30	440.02
504.48	489.17
504.65	416.62
504.83	458.74
505.01	365.12
505.18	486.83
505.36	458.74
505.53	400.23
505.71	418.96
505.88	465.77
506.06	395.55
506.23	421.30
506.41	477.47
506.58	447.04
506.76	395.55
506.93	484.49
507.11	397.89
507.28	470.45
507.46	444.70
507.63	440.02
507.81	404.91
507.98	454.06
508.16	454.06
508.33	409.59
508.50	416.62
508.68	425.98
508.85	482.15
509.03	414.27
509.20	393.21
509.38	397.89
509.55	418.96
509.73	468.11
509.90	411.93
510.08	444.70
510.25	456.40
510.42	407.25
510.60	388.53
510.77	470.45
510.95	400.23
511.12	397.89
511.30	351.08
511.47	416.62
511.64	411.93
511.82	461.09
511.99	402.57
512.17	404.91
512.34	383.85
512.51	416.62
512.69	376.83
512.86	461.09
513.04	407.25
513.21	465.77
513.38	461.09
513.56	411.93
513.73	411.93
513.90	442.36
514.08	390.87
514.25	379.17
514.43	390.87
514.60	379.17
514.77	386.19
514.95	351.08
515.12	454.06
515.29	430.66
515.47	402.57
515.64	355.76
515.81	442.36
515.99	440.02
516.16	456.40
516.33	456.40
516.51	397.89
516.68	430.66
516.85	447.04
517.03	318.31
517.20	479.81
517.37	468.11
517.54	388.53
517.72	423.64
517.89	379.17
518.06	404.91
518.24	418.96
518.41	472.79
518.58	376.83
518.75	365.12
518.93	407.25
519.10	418.96
519.27	425.98
519.45	444.70
519.62	449.38
519.79	496.19
519.96	454.06
520.14	482.15
520.31	444.70
520.48	411.93
520.65	454.06
520.83	449.38
521.00	463.43
521.17	418.96
521.34	386.19
521.52	414.27
521.69	423.64
521.86	428.32
522.03	423.64
522.20	454.06
522.38	437.68
522.55	421.30
522.72	358.10
522.89	456.40
523.07	374.49
523.24	388.53
523.41	397.89
523.58	437.68
523.75	430.66
523.92	360.44
524.10	341.72
524.27	404.91
524.44	447.04
524.61	397.89
524.78	461.09
524.96	355.76
525.13	353.42
525.30	369.80
525.47	414.27
525.64	475.13
525.81	437.68
525.98	397.89
526.16	425.98
526.33	365.12
526.50	435.34
526.67	444.70
526.84	334.70
527.01	514.92
527.18	479.81
527.36	444.70
527.53	383.85
527.70	470.45
527.87	383.85
528.04	416.62
528.21	451.72
528.38	486.83
528.55	433.00
528.72	393.21
528.89	393.21
529.07	463.43
529.24	409.59
529.41	414.27
529.58	418.96
529.75	402.57
529.92	388.53
530.09	425.98
530.26	414.27
530.43	451.72
530.60	477.47
530.77	430.66
530.94	472.79
531.11	428.32
531.28	383.85
531.46	416.62
531.63	407.25
531.80	423.64
531.97	447.04
532.14	433.00
532.31	440.02
532.48	369.80
532.65	430.66
532.82	397.89
532.99	393.21
533.16	472.79
533.33	416.62
533.50	367.46
533.67	437.68
533.84	362.78
534.01	437.68
534.18	390.87
534.35	447.04
534.52	456.40
534.69	461.09
534.86	409.59
535.03	468.11
535.20	393.21
535.37	388.53
535.54	472.79
535.71	451.72
535.88	423.64
536.05	393.21
536.22	454.06
536.38	442.36
536.55	461.09
536.72	489.17
536.89	325.33
537.06	360.44
537.23	362.78
537.40	388.53
537.57	428.32
537.74	505.56
537.91	423.64
538.08	383.85
538.25	358.10
538.42	421.30
538.59	355.76
538.75	393.21
538.92	449.38
539.09	421.30
539.26	404.91
539.43	421.30
539.60	414.27
539.77	386.19
539.94	395.55
540.11	538.32
540.28	355.76
540.44	456.40
540.61	444.70
540.78	447.04
540.95	430.66
541.12	463.43
541.29	442.36
541.46	468.11
541.62	369.80
541.79	428.32
541.96	402.57
542.13	414.27
542.30	418.96
542.47	440.02
542.63	458.74
542.80	407.25
542.97	367.46
543.14	383.85
543.31	444.70
543.48	402.57
543.64	430.66
543.81	428.32
543.98	458.74
544.15	421.30
544.32	374.49
544.48	425.98
544.65	468.11
544.82	346.40
544.99	402.57
545.16	425.98
545.32	400.23
545.49	411.93
545.66	531.30
545.83	376.83
546.00	351.08
546.16	416.62
546.33	372.15
546.50	416.62
546.67	430.66
546.83	456.40
547.00	409.59
547.17	381.51
547.34	409.59
547.50	423.64
547.67	437.68
547.84	418.96
548.00	379.17
548.17	440.02
548.34	416.62
548.51	428.32
548.67	416.62
548.84	404.91
549.01	367.46
549.18	440.02
549.34	440.02
549.51	456.40
549.68	477.47
549.84	397.89
550.01	416.62
550.18	449.38
550.34	444.70
550.51	425.98
550.68	409.59
550.84	362.78
551.01	418.96
551.18	449.38
551.34	456.40
551.51	344.06
551.68	447.04
551.84	351.08
552.01	447.04
552.18	381.51
552.34	444.70
552.51	390.87
552.68	374.49
552.84	404.91
553.01	430.66
553.18	428.32
553.34	465.77
553.51	414.27
553.67	344.06
553.84	407.25
554.01	421.30
554.17	400.23
554.34	442.36
554.51	451.72
554.67	454.06
554.84	390.87
555.00	388.53
555.17	418.96
555.33	458.74
555.50	421.30
555.67	461.09
555.83	416.62
556.00	365.12
556.16	533.64
556.33	449.38
556.50	447.04
556.66	433.00
556.83	393.21
556.99	409.59
557.16	402.57
557.32	454.06
557.49	386.19
557.65	383.85
557.82	435.34
557.98	416.62
558.15	404.91
558.32	395.55
558.48	383.85
558.65	444.70
558.81	365.12
558.98	367.46
559.14	388.53
559.31	379.17
559.47	397.89
559.64	421.30
559.80	407.25
559.97	475.13
560.13	484.49
560.30	421.30
560.46	409.59
560.63	428.32
560.79	435.34
560.96	472.79
561.12	430.66
561.29	442.36
561.45	430.66
561.61	437.68
561.78	521.94
561.94	383.85
562.11	390.87
562.27	388.53
562.44	425.98
562.60	442.36
562.77	524.28
562.93	456.40
563.10	365.12
563.26	407.25
563.42	484.49
563.59	470.45
563.75	437.68
563.92	510.24
564.08	421.30
564.24	414.27
564.41	461.09
564.57	390.87
564.74	456.40
564.90	381.51
565.07	442.36
565.23	465.77
565.39	437.68
565.56	484.49
565.72	433.00
565.88	372.15
566.05	416.62
566.21	425.98
566.38	372.15
566.54	355.76
566.70	362.78
566.87	327.68
567.03	325.33
567.19	376.83
567.36	444.70
567.52	418.96
567.68	404.91
567.85	374.49
568.01	369.80
568.17	451.72
568.34	428.32
568.50	524.28
568.66	397.89
568.83	477.47
568.99	418.96
569.15	344.06
569.32	472.79
569.48	449.38
569.64	395.55
569.81	320.65
569.97	475.13
570.13	425.98
570.30	543.00
570.46	416.62
570.62	425.98
570.78	425.98
570.95	393.21
571.11	507.90
571.27	414.27
571.43	369.80
571.60	458.74
571.76	428.32
571.92	353.42
572.09	423.64
572.25	395.55
572.41	433.00
572.57	454.06
572.74	486.83
572.90	425.98
573.06	475.13
573.22	407.25
573.38	465.77
573.55	477.47
573.71	395.55
573.87	449.38
574.03	315.97
574.20	379.17
574.36	451.72
574.52	442.36
574.68	362.78
574.84	416.62
575.01	451.72
575.17	407.25
575.33	397.89
575.49	407.25
575.65	463.43
575.82	440.02
575.98	393.21
576.14	454.06
576.30	433.00
576.46	437.68
576.62	437.68
576.79	337.04
576.95	423.64
577.11	404.91
577.27	418.96
577.43	482.15
577.59	411.93
577.75	440.02
577.92	433.00
578.08	414.27
578.24	449.38
578.40	482.15
578.56	435.34
578.72	458.74
578.88	433.00
579.04	386.19
579.21	416.62
579.37	346.40
579.53	418.96
579.69	449.38
579.85	362.78
580.01	430.66
580.17	409.59
580.33	430.66
580.49	440.02
580.65	414.27
580.82	472.79
580.98	463.43
581.14	411.93
581.30	388.53
581.46	423.64
581.62	449.38
581.78	454.06
581.94	465.77
582.10	360.44
582.26	407.25
582.42	390.87
582.58	355.76
582.74	379.17
582.90	379.17
583.06	390.87
583.22	440.02
583.38	407.25
583.54	395.55
583.70	409.59
583.86	367.46
584.02	437.68
584.18	440.02
584.34	411.93
584.50	400.23
584.66	346.40
584.82	437.68
584.98	425.98
585.14	383.85
585.30	430.66
585.46	447.04
585.62	435.34
585.78	430.66
585.94	461.09
586.10	437.68
586.26	418.96
586.42	435.34
586.58	475.13
586.74	409.59
586.90	393.21
587.06	402.57
587.22	454.06
587.38	355.76
587.54	489.17
587.70	458.74
587.86	454.06
588.02	381.51
588.18	437.68
588.34	486.83
588.49	454.06
588.65	458.74
588.81	454.06
588.97	397.89
589.13	477.47
589.29	409.59
589.45	454.06
589.61	400.23
589.77	444.70
589.93	437.68
590.08	381.51
590.24	430.66
590.40	489.17
590.56	393.21
590.72	416.62
590.88	451.72
591.04	437.68
591.20	465.77
591.35	428.32
591.51	465.77
591.67	414.27
591.83	411.93
591.99	390.87
592.15	468.11
592.31	440.02
592.46	400.23
592.62	456.40
592.78	404.91
592.94	369.80
593.10	458.74
593.26	358.10
593.41	461.09
593.57	442.36
593.73	360.44
593.89	379.17
594.05	416.62
594.20	489.17
594.36	458.74
594.52	444.70
594.68	390.87
594.84	397.89
594.99	416.62
595.15	421.30
595.31	421.30
595.47	381.51
595.62	461.09
595.78	444.70
595.94	465.77
596.10	512.58
596.25	393.21
596.41	390.87
596.57	451.72
596.73	407.25
596.88	372.15
597.04	447.04
597.20	456.40
597.36	442.36
597.51	468.11
597.67	414.27
597.83	458.74
597.99	449.38
598.14	421.30
598.30	390.87
598.46	374.49
598.61	475.13
598.77	454.06
598.93	449.38
599.09	442.36
599.24	440.02
599.40	369.80
599.56	388.53
599.71	397.89
599.87	465.77
600.03	402.57
600.18	404.91
600.34	465.77
600.50	423.64
600.65	400.23
600.81	414.27
600.97	393.21
601.12	437.68
601.28	435.34
601.44	386.19
601.59	409.59
601.75	442.36
601.91	395.55
602.06	381.51
602.22	531.30
602.37	421.30
602.53	437.68
602.69	381.51
602.84	355.76
603.00	418.96
603.16	428.32
603.31	425.98
603.47	433.00
603.62	388.53
603.78	346.40
603.94	435.34
604.09	379.17
604.25	425.98
604.40	435.34
604.56	409.59
604.71	447.04
604.87	489.17
605.03	428.32
605.18	440.02
605.34	454.06
605.49	409.59
605.65	372.15
605.80	435.34
605.96	428.32
606.12	402.57
606.27	404.91
606.43	414.27
606.58	472.79
606.74	418.96
606.89	379.17
607.05	442.36
607.20	411.93
607.36	430.66
607.51	386.19
607.67	493.85
607.82	383.85
607.98	390.87
608.13	442.36
608.29	428.32
608.44	456.40
608.60	421.30
608.75	482.15
608.91	444.70
609.06	447.04
609.22	423.64
609.37	351.08
609.53	379.17
609.68	407.25
609.84	369.80
609.99	428.32
610.15	402.57
610.30	414.27
610.46	475.13
610.61	489.17
610.76	425.98
610.92	505.56
611.07	390.87
611.23	489.17
611.38	449.38
611.54	400.23
611.69	409.59
611.84	390.87
612.00	428.32
612.15	409.59
612.31	425.98
612.46	374.49
612.62	447.04
612.77	447.04
612.92	479.81
613.08	510.24
613.23	435.34
613.39	365.12
613.54	402.57
613.69	358.10
613.85	444.70
614.00	402.57
614.15	365.12
614.31	381.51
614.46	418.96
614.62	376.83
614.77	423.64
614.92	308.95
615.08	421.30
615.23	440.02
615.38	423.64
615.54	381.51
615.69	414.27
615.84	388.53
616.00	454.06
616.15	353.42
616.30	379.17
616.46	433.00
616.61	435.34
616.76	425.98
616.92	489.17
617.07	440.02
617.22	416.62
617.37	341.72
617.53	409.59
617.68	484.49
617.83	444.70
617.99	433.00
618.14	440.02
618.29	451.72
618.45	388.53
618.60	353.42
618.75	402.57
618.90	435.34
619.06	397.89
619.21	444.70
619.36	397.89
619.51	414.27
619.67	437.68
619.82	393.21
619.97	393.21
620.12	414.27
620.28	454.06
620.43	388.53
620.58	344.06
620.73	409.59
620.89	411.93
621.04	402.57
621.19	386.19
621.34	402.57
621.49	440.02
621.65	486.83
621.80	407.25
621.95	414.27
622.10	517.26
622.25	407.25
622.41	442.36
622.56	404.91
622.71	433.00
622.86	437.68
623.01	397.89
623.16	383.85
623.32	437.68
623.47	416.62
623.62	435.34
623.77	435.34
623.92	397.89
624.07	390.87
624.23	390.87
624.38	383.85
624.53	360.44
624.68	458.74
624.83	449.38
624.98	454.06
625.13	369.80
625.29	421.30
625.44	433.00
625.59	442.36
625.74	444.70
625.89	388.53
626.04	348.74
626.19	430.66
626.34	411.93
626.49	454.06
626.65	496.19
626.80	386.19
626.95	435.34
627.10	458.74
627.25	339.38
627.40	411.93
627.55	402.57
627.70	395.55
627.85	374.49
628.00	470.45
628.15	365.12
628.30	400.23
628.45	414.27
628.60	393.21
628.76	437.68
628.91	353.42
629.06	440.02
629.21	442.36
629.36	409.59
629.51	381.51
629.66	397.89
629.81	433.00
629.96	421.30
630.11	428.32
630.26	374.49
630.41	390.87
630.56	435.34
630.71	379.17
630.86	442.36
631.01	411.93
631.16	411.93
631.31	451.72
631.46	407.25
631.61	416.62
631.76	418.96
631.91	416.62
632.06	475.13
632.21	383.85
632.36	433.00
632.51	411.93
632.66	479.81
632.81	475.13
632.96	306.61
633.10	388.53
633.25	461.09
633.40	411.93
633.55	407.25
633.70	447.04
633.85	456.40
634.00	400.23
634.15	402.57
634.30	416.62
634.45	411.93
634.60	379.17
634.75	461.09
634.90	418.96
635.05	397.89
635.19	362.78
635.34	400.23
635.49	479.81
635.64	351.08
635.79	346.40
635.94	393.21
636.09	379.17
636.24	430.66
636.39	449.38
636.53	376.83
636.68	418.96
636.83	367.46
636.98	409.59
637.13	425.98
637.28	402.57
637.43	498.53
637.57	374.49
637.72	435.34
637.87	433.00
638.02	381.51
638.17	440.02
638.32	435.34
638.46	463.43
638.61	372.15
638.76	411.93
638.91	435.34
639.06	409.59
639.20	411.93
639.35	442.36
639.50	404.91
639.65	449.38
639.80	362.78
639.94	454.06
640.09	456.40
640.24	411.93
640.39	505.56
640.54	386.19
640.68	435.34
640.83	444.70
640.98	379.17
641.13	458.74
641.27	416.62
641.42	411.93
641.57	470.45
641.72	456.40
641.86	418.96
642.01	397.89
642.16	390.87
642.31	458.74
642.45	435.34
642.60	435.34
642.75	409.59
642.90	397.89
643.04	360.44
643.19	353.42
643.34	407.25
643.48	454.06
643.63	393.21
643.78	454.06
643.93	451.72
644.07	362.78
644.22	402.57
644.37	400.23
644.51	388.53
644.66	400.23
644.81	407.25
644.95	449.38
645.10	306.61
645.25	372.15
645.39	416.62
645.54	414.27
645.69	489.17
645.83	416.62
645.98	477.47
646.13	479.81
646.27	465.77
646.42	367.46
646.57	397.89
646.71	322.99
646.86	400.23
647.00	472.79
647.15	463.43
647.30	395.55
647.44	393.21
647.59	400.23
647.74	425.98
647.88	463.43
648.03	414.27
648.17	407.25
648.32	400.23
648.47	386.19
648.61	393.21
648.76	482.15
648.90	400.23
649.05	461.09
649.20	442.36
649.34	430.66
649.49	433.00
649.63	433.00
649.78	393.21
649.92	428.32
650.07	447.04
650.21	402.57
650.36	428.32
650.51	423.64
650.65	404.91
650.80	437.68
650.94	444.70
651.09	388.53
651.23	404.91
651.38	433.00
651.52	402.57
651.67	376.83
651.81	425.98
651.96	477.47
652.10	470.45
652.25	458.74
652.39	358.10
652.54	404.91
652.68	505.56
652.83	519.60
652.97	381.51
653.12	425.98
653.26	362.78
653.41	503.22
653.55	400.23
653.70	423.64
653.84	442.36
653.99	418.96
654.13	451.72
654.27	444.70
654.42	465.77
654.56	449.38
654.71	440.02
654.85	388.53
655.00	404.91
655.14	379.17
655.29	395.55
655.43	423.64
655.57	416.62
655.72	348.74
655.86	360.44
656.01	468.11
656.15	456.40
656.30	465.77
656.44	423.64
656.58	395.55
656.73	397.89
656.87	416.62
657.01	484.49
657.16	418.96
657.30	416.62
657.45	433.00
657.59	463.43
657.73	402.57
657.88	407.25
658.02	475.13
658.16	425.98
658.31	423.64
658.45	458.74
658.60	484.49
658.74	358.10
658.88	365.12
659.03	388.53
659.17	440.02
659.31	351.08
659.46	360.44
659.60	400.23
659.74	454.06
659.89	404.91
660.03	449.38
660.17	449.38
660.32	407.25
660.46	465.77
660.60	393.21
660.74	402.57
660.89	456.40
661.03	444.70
661.17	379.17
661.32	442.36
661.46	461.09
661.60	397.89
661.74	447.04
661.89	416.62
662.03	447.04
662.17	456.40
662.31	428.32
662.46	442.36
662.60	395.55
662.74	376.83
662.88	409.59
663.03	346.40
663.17	402.57
663.31	402.57
663.45	383.85
663.60	362.78
663.74	332.36
663.88	425.98
664.02	458.74
664.17	472.79
664.31	374.49
664.45	447.04
664.59	407.25
664.73	411.93
664.88	425.98
665.02	400.23
665.16	400.23
665.30	442.36
665.44	388.53
665.59	433.00
665.73	411.93
665.87	435.34
666.01	414.27
666.15	369.80
666.29	447.04
666.44	500.87
666.58	346.40
666.72	397.89
666.86	435.34
667.00	418.96
667.14	374.49
667.28	397.89
667.43	400.23
667.57	346.40
667.71	416.62
667.85	430.66
667.99	461.09
668.13	433.00
668.27	395.55
668.41	449.38
668.56	437.68
668.70	411.93
668.84	404.91
668.98	409.59
669.12	395.55
669.26	379.17
669.40	470.45
669.54	395.55
669.68	414.27
669.82	491.51
669.96	449.38
670.10	418.96
670.25	348.74
670.39	393.21
670.53	418.96
670.67	400.23
670.81	355.76
670.95	409.59
671.09	409.59
671.23	440.02
671.37	470.45
671.51	433.00
671.65	512.58
671.79	433.00
671.93	421.30
672.07	454.06
672.21	496.19
672.35	416.62
672.49	498.53
672.63	379.17
672.77	369.80
672.91	379.17
673.05	348.74
673.19	451.72
673.33	397.89
673.47	388.53
673.61	365.12
673.75	437.68
673.89	430.66
674.03	470.45
674.17	444.70
674.31	472.79
674.45	388.53
674.59	418.96
674.73	395.55
674.87	454.06
675.01	407.25
675.15	416.62
675.29	421.30
675.43	416.62
675.56	465.77
675.70	454.06
675.84	404.91
675.98	393.21
676.12	365.12
676.26	500.87
676.40	402.57
676.54	428.32
676.68	348.74
676.82	411.93
676.96	411.93
677.10	407.25
677.23	402.57
677.37	449.38
677.51	369.80
677.65	388.53
677.79	402.57
677.93	402.57
678.07	418.96
678.21	388.53
678.34	433.00
678.48	372.15
678.62	414.27
678.76	388.53
678.90	433.00
679.04	437.68
679.18	395.55
679.31	397.89
679.45	465.77
679.59	449.38
679.73	367.46
679.87	395.55
680.00	402.57
680.14	411.93
680.28	414.27
680.42	400.23
680.56	414.27
680.70	383.85
680.83	348.74
680.97	400.23
681.11	383.85
681.25	425.98
681.39	421.30
681.52	456.40
681.66	470.45
681.80	489.17
681.94	425.98
682.07	421.30
682.21	402.57
682.35	404.91
682.49	437.68
682.62	418.96
682.76	381.51
682.90	388.53
683.04	435.34
683.17	388.53
683.31	435.34
683.45	404.91
683.59	458.74
683.72	503.22
683.86	465.77
684.00	402.57
684.13	458.74
684.27	411.93
684.41	463.43
684.55	465.77
684.68	428.32
684.82	374.49
684.96	348.74
685.09	433.00
685.23	390.87
685.37	379.17
685.50	458.74
685.64	416.62
685.78	407.25
685.91	404.91
686.05	489.17
686.19	458.74
686.32	449.38
686.46	456.40
686.60	386.19
686.73	468.11
686.87	418.96
687.01	344.06
687.14	346.40
687.28	379.17
687.42	418.96
687.55	423.64
687.69	454.06
687.82	393.21
687.96	404.91
688.10	430.66
688.23	430.66
688.37	484.49
688.50	397.89
688.64	468.11
688.78	411.93
688.91	409.59
689.05	458.74
689.18	386.19
689.32	470.45
689.46	482.15
689.59	447.04
689.73	538.32
689.86	395.55
690.00	390.87
690.13	414.27
690.27	402.57
690.41	372.15
690.54	444.70
690.68	449.38
690.81	334.70
690.95	454.06
691.08	425.98
691.22	339.38
691.35	376.83
691.49	435.34
691.62	388.53
691.76	440.02
691.89	362.78
692.03	395.55
692.16	407.25
692.30	404.91
692.43	444.70
692.57	365.12
692.70	404.91
692.84	353.42
692.97	440.02
693.11	442.36
693.24	437.68
693.38	411.93
693.51	386.19
693.65	404.91
693.78	449.38
693.92	388.53
694.05	337.04
694.19	461.09
694.32	442.36
694.45	425.98
694.59	383.85
694.72	512.58
694.86	348.74
694.99	407.25
695.13	402.57
695.26	425.98
695.39	451.72
695.53	479.81
695.66	355.76
695.80	447.04
695.93	430.66
696.07	421.30
696.20	400.23
696.33	330.02
696.47	355.76
696.60	395.55
696.73	461.09
696.87	379.17
697.00	433.00
697.14	362.78
697.27	493.85
697.40	421.30
697.54	397.89
697.67	386.19
697.80	416.62
697.94	411.93
698.07	423.64
698.21	379.17
698.34	400.23
698.47	454.06
698.61	409.59
698.74	421.30
698.87	458.74
699.01	409.59
699.14	386.19
699.27	381.51
699.40	435.34
699.54	512.58
699.67	318.31
699.80	376.83
699.94	411.93
700.07	442.36
700.20	414.27
700.34	355.76
700.47	423.64
700.60	369.80
700.73	383.85
700.87	425.98
701.00	409.59
701.13	367.46
701.26	376.83
701.40	395.55
701.53	458.74
701.66	423.64
701.79	358.10
701.93	409.59
702.06	461.09
702.19	507.90
702.32	440.02
702.46	388.53
702.59	388.53
702.72	449.38
702.85	386.19
702.99	390.87
703.12	339.38
703.25	468.11
703.38	411.93
703.51	407.25
703.65	386.19
703.78	386.19
703.91	489.17
704.04	393.21
704.17	411.93
704.31	358.10
704.44	395.55
704.57	397.89
704.70	423.64
704.83	393.21
704.96	425.98
705.10	407.25
705.23	407.25
>>>>>End Processed Spectral Data<<<<<
