SpectraSuite Data File
++++++++++++++++++++++++++++++++++++
Date: Fri Oct 25 12:11:24 EDT 2013
User: price-jones
Dark Spectrum Present: No
Reference Spectrum Present: No
Number of Sampled Component Spectra: 1
Spectrometers: USB2+H05261
Integration Time (usec): 100000 (USB2+H05261)
Spectra Averaged: 1 (USB2+H05261)
Boxcar Smoothing: 0 (USB2+H05261)
Correct for Electrical Dark: No (USB2+H05261)
Strobe/Lamp Enabled: No (USB2+H05261)
Correct for Detector Non-linearity: No (USB2+H05261)
Correct for Stray Light: No (USB2+H05261)
Number of Pixels in Processed Spectrum: 2048
>>>>>Begin Processed Spectral Data<<<<<
365.73	339.38
365.92	339.38
366.12	339.38
366.32	315.97
366.52	280.86
366.72	222.35
366.91	248.10
367.11	290.23
367.31	236.39
367.51	243.42
367.70	236.39
367.90	257.46
368.10	262.14
368.30	205.97
368.49	301.93
368.69	292.57
368.89	241.08
369.09	271.50
369.28	280.86
369.48	222.35
369.68	215.33
369.87	353.42
370.07	334.70
370.27	344.06
370.47	320.65
370.66	330.02
370.86	358.10
371.06	430.66
371.25	362.78
371.45	407.25
371.65	402.57
371.84	414.27
372.04	365.12
372.24	416.62
372.44	311.29
372.63	358.10
372.83	433.00
373.03	353.42
373.22	411.93
373.42	411.93
373.62	409.59
373.81	430.66
374.01	449.38
374.21	472.79
374.40	416.62
374.60	383.85
374.79	430.66
374.99	376.83
375.19	411.93
375.38	411.93
375.58	423.64
375.78	442.36
375.97	411.93
376.17	437.68
376.37	430.66
376.56	454.06
376.76	428.32
376.95	320.65
377.15	407.25
377.35	428.32
377.54	449.38
377.74	379.17
377.93	418.96
378.13	458.74
378.33	491.51
378.52	454.06
378.72	416.62
378.91	411.93
379.11	430.66
379.31	355.76
379.50	402.57
379.70	369.80
379.89	376.83
380.09	390.87
380.28	470.45
380.48	369.80
380.68	379.17
380.87	353.42
381.07	339.38
381.26	435.34
381.46	409.59
381.65	367.46
381.85	404.91
382.04	355.76
382.24	465.77
382.43	395.55
382.63	374.49
382.83	395.55
383.02	470.45
383.22	390.87
383.41	383.85
383.61	365.12
383.80	416.62
384.00	402.57
384.19	400.23
384.39	339.38
384.58	362.78
384.78	383.85
384.97	428.32
385.17	454.06
385.36	421.30
385.56	376.83
385.75	388.53
385.95	409.59
386.14	409.59
386.34	365.12
386.53	400.23
386.72	407.25
386.92	411.93
387.11	393.21
387.31	428.32
387.50	409.59
387.70	353.42
387.89	435.34
388.09	442.36
388.28	360.44
388.48	397.89
388.67	402.57
388.86	409.59
389.06	383.85
389.25	430.66
389.45	397.89
389.64	386.19
389.84	400.23
390.03	505.56
390.22	442.36
390.42	414.27
390.61	407.25
390.81	440.02
391.00	367.46
391.19	362.78
391.39	386.19
391.58	351.08
391.78	404.91
391.97	390.87
392.16	425.98
392.36	416.62
392.55	367.46
392.75	383.85
392.94	423.64
393.13	395.55
393.33	351.08
393.52	402.57
393.71	369.80
393.91	409.59
394.10	465.77
394.29	411.93
394.49	397.89
394.68	337.04
394.88	454.06
395.07	491.51
395.26	423.64
395.46	472.79
395.65	411.93
395.84	404.91
396.04	454.06
396.23	397.89
396.42	369.80
396.62	407.25
396.81	395.55
397.00	346.40
397.19	451.72
397.39	418.96
397.58	454.06
397.77	301.93
397.97	437.68
398.16	290.23
398.35	369.80
398.55	383.85
398.74	360.44
398.93	299.59
399.12	365.12
399.32	374.49
399.51	423.64
399.70	397.89
399.90	456.40
400.09	409.59
400.28	437.68
400.47	339.38
400.67	418.96
400.86	369.80
401.05	409.59
401.24	470.45
401.44	440.02
401.63	402.57
401.82	414.27
402.01	313.63
402.21	414.27
402.40	362.78
402.59	393.21
402.78	435.34
402.97	447.04
403.17	402.57
403.36	383.85
403.55	442.36
403.74	376.83
403.93	409.59
404.13	397.89
404.32	386.19
404.51	348.74
404.70	465.77
404.89	395.55
405.09	402.57
405.28	437.68
405.47	360.44
405.66	390.87
405.85	454.06
406.05	416.62
406.24	411.93
406.43	395.55
406.62	386.19
406.81	395.55
407.00	430.66
407.20	418.96
407.39	442.36
407.58	367.46
407.77	374.49
407.96	395.55
408.15	421.30
408.34	404.91
408.54	376.83
408.73	397.89
408.92	423.64
409.11	430.66
409.30	449.38
409.49	390.87
409.68	472.79
409.87	425.98
410.07	390.87
410.26	442.36
410.45	379.17
410.64	395.55
410.83	404.91
411.02	421.30
411.21	425.98
411.40	395.55
411.59	414.27
411.78	435.34
411.98	435.34
412.17	393.21
412.36	411.93
412.55	414.27
412.74	447.04
412.93	486.83
413.12	411.93
413.31	465.77
413.50	365.12
413.69	383.85
413.88	454.06
414.07	344.06
414.26	388.53
414.45	470.45
414.64	409.59
414.83	440.02
415.02	444.70
415.22	400.23
415.41	468.11
415.60	313.63
415.79	423.64
415.98	409.59
416.17	348.74
416.36	414.27
416.55	402.57
416.74	430.66
416.93	379.17
417.12	395.55
417.31	414.27
417.50	397.89
417.69	451.72
417.88	442.36
418.07	372.15
418.26	449.38
418.45	442.36
418.64	472.79
418.83	421.30
419.02	418.96
419.21	409.59
419.39	369.80
419.58	374.49
419.77	416.62
419.96	458.74
420.15	416.62
420.34	447.04
420.53	458.74
420.72	449.38
420.91	425.98
421.10	463.43
421.29	440.02
421.48	369.80
421.67	430.66
421.86	461.09
422.05	362.78
422.24	376.83
422.43	367.46
422.61	400.23
422.80	374.49
422.99	386.19
423.18	325.33
423.37	461.09
423.56	355.76
423.75	440.02
423.94	346.40
424.13	400.23
424.32	404.91
424.50	409.59
424.69	444.70
424.88	433.00
425.07	404.91
425.26	402.57
425.45	437.68
425.64	435.34
425.83	421.30
426.01	390.87
426.20	465.77
426.39	374.49
426.58	358.10
426.77	458.74
426.96	435.34
427.15	416.62
427.33	423.64
427.52	416.62
427.71	428.32
427.90	416.62
428.09	400.23
428.28	465.77
428.46	444.70
428.65	376.83
428.84	383.85
429.03	428.32
429.22	482.15
429.40	418.96
429.59	470.45
429.78	479.81
429.97	381.51
430.16	416.62
430.34	414.27
430.53	433.00
430.72	421.30
430.91	418.96
431.10	330.02
431.28	425.98
431.47	414.27
431.66	421.30
431.85	362.78
432.03	444.70
432.22	433.00
432.41	454.06
432.60	521.94
432.79	358.10
432.97	407.25
433.16	386.19
433.35	526.62
433.54	367.46
433.72	465.77
433.91	444.70
434.10	416.62
434.28	447.04
434.47	348.74
434.66	360.44
434.85	435.34
435.03	416.62
435.22	477.47
435.41	435.34
435.59	409.59
435.78	407.25
435.97	444.70
436.16	461.09
436.34	456.40
436.53	486.83
436.72	477.47
436.90	465.77
437.09	400.23
437.28	358.10
437.46	376.83
437.65	372.15
437.84	374.49
438.02	390.87
438.21	381.51
438.40	433.00
438.58	388.53
438.77	400.23
438.96	505.56
439.14	430.66
439.33	383.85
439.52	409.59
439.70	416.62
439.89	388.53
440.08	421.30
440.26	486.83
440.45	416.62
440.63	475.13
440.82	400.23
441.01	498.53
441.19	397.89
441.38	386.19
441.57	397.89
441.75	407.25
441.94	388.53
442.12	447.04
442.31	437.68
442.50	475.13
442.68	351.08
442.87	430.66
443.05	472.79
443.24	437.68
443.43	367.46
443.61	472.79
443.80	435.34
443.98	402.57
444.17	379.17
444.35	440.02
444.54	411.93
444.73	421.30
444.91	470.45
445.10	409.59
445.28	393.21
445.47	458.74
445.65	383.85
445.84	442.36
446.02	402.57
446.21	374.49
446.39	393.21
446.58	383.85
446.77	409.59
446.95	435.34
447.14	402.57
447.32	484.49
447.51	465.77
447.69	407.25
447.88	358.10
448.06	442.36
448.25	407.25
448.43	379.17
448.62	465.77
448.80	400.23
448.99	418.96
449.17	505.56
449.36	414.27
449.54	435.34
449.73	449.38
449.91	442.36
450.10	449.38
450.28	463.43
450.46	456.40
450.65	411.93
450.83	433.00
451.02	442.36
451.20	414.27
451.39	407.25
451.57	430.66
451.76	409.59
451.94	449.38
452.13	402.57
452.31	435.34
452.49	348.74
452.68	409.59
452.86	388.53
453.05	451.72
453.23	362.78
453.42	355.76
453.60	437.68
453.78	395.55
453.97	449.38
454.15	355.76
454.34	355.76
454.52	393.21
454.70	468.11
454.89	395.55
455.07	482.15
455.26	395.55
455.44	428.32
455.62	351.08
455.81	388.53
455.99	393.21
456.17	346.40
456.36	372.15
456.54	390.87
456.73	358.10
456.91	411.93
457.09	414.27
457.28	425.98
457.46	397.89
457.64	442.36
457.83	409.59
458.01	374.49
458.19	404.91
458.38	449.38
458.56	421.30
458.74	435.34
458.93	442.36
459.11	386.19
459.29	425.98
459.48	440.02
459.66	451.72
459.84	451.72
460.03	442.36
460.21	444.70
460.39	402.57
460.57	470.45
460.76	383.85
460.94	435.34
461.12	402.57
461.31	379.17
461.49	421.30
461.67	381.51
461.85	407.25
462.04	393.21
462.22	748.97
462.40	374.49
462.59	512.58
462.77	393.21
462.95	421.30
463.13	393.21
463.32	414.27
463.50	433.00
463.68	425.98
463.86	440.02
464.05	374.49
464.23	437.68
464.41	444.70
464.59	423.64
464.78	411.93
464.96	425.98
465.14	404.91
465.32	418.96
465.50	409.59
465.69	444.70
465.87	351.08
466.05	435.34
466.23	416.62
466.41	390.87
466.60	435.34
466.78	351.08
466.96	416.62
467.14	444.70
467.32	465.77
467.51	425.98
467.69	451.72
467.87	463.43
468.05	463.43
468.23	402.57
468.41	430.66
468.60	369.80
468.78	449.38
468.96	477.47
469.14	444.70
469.32	472.79
469.50	442.36
469.69	421.30
469.87	433.00
470.05	442.36
470.23	456.40
470.41	383.85
470.59	379.17
470.77	423.64
470.95	334.70
471.14	454.06
471.32	430.66
471.50	444.70
471.68	437.68
471.86	433.00
472.04	369.80
472.22	472.79
472.40	379.17
472.58	454.06
472.77	365.12
472.95	433.00
473.13	500.87
473.31	463.43
473.49	381.51
473.67	351.08
473.85	411.93
474.03	397.89
474.21	470.45
474.39	425.98
474.57	512.58
474.75	397.89
474.93	351.08
475.12	337.04
475.30	397.89
475.48	458.74
475.66	437.68
475.84	346.40
476.02	411.93
476.20	360.44
476.38	397.89
476.56	491.51
476.74	454.06
476.92	454.06
477.10	428.32
477.28	395.55
477.46	407.25
477.64	416.62
477.82	418.96
478.00	416.62
478.18	395.55
478.36	393.21
478.54	477.47
478.72	425.98
478.90	451.72
479.08	468.11
479.26	454.06
479.44	442.36
479.62	346.40
479.80	444.70
479.98	386.19
480.16	308.95
480.34	479.81
480.52	442.36
480.70	411.93
480.88	374.49
481.06	299.59
481.24	425.98
481.41	386.19
481.59	397.89
481.77	461.09
481.95	461.09
482.13	444.70
482.31	425.98
482.49	388.53
482.67	386.19
482.85	435.34
483.03	374.49
483.21	416.62
483.39	386.19
483.57	418.96
483.74	449.38
483.92	428.32
484.10	355.76
484.28	451.72
484.46	425.98
484.64	416.62
484.82	461.09
485.00	470.45
485.18	425.98
485.35	395.55
485.53	425.98
485.71	407.25
485.89	428.32
486.07	369.80
486.25	416.62
486.43	421.30
486.61	458.74
486.78	435.34
486.96	362.78
487.14	367.46
487.32	477.47
487.50	458.74
487.68	383.85
487.85	477.47
488.03	454.06
488.21	498.53
488.39	400.23
488.57	451.72
488.75	421.30
488.92	547.69
489.10	395.55
489.28	489.17
489.46	402.57
489.64	496.19
489.81	430.66
489.99	383.85
490.17	435.34
490.35	482.15
490.53	418.96
490.70	395.55
490.88	400.23
491.06	358.10
491.24	407.25
491.41	482.15
491.59	475.13
491.77	374.49
491.95	463.43
492.13	369.80
492.30	388.53
492.48	365.12
492.66	367.46
492.84	369.80
493.01	409.59
493.19	407.25
493.37	454.06
493.54	444.70
493.72	395.55
493.90	409.59
494.08	318.31
494.25	435.34
494.43	435.34
494.61	461.09
494.79	411.93
494.96	433.00
495.14	404.91
495.32	358.10
495.49	393.21
495.67	407.25
495.85	407.25
496.02	407.25
496.20	421.30
496.38	353.42
496.55	440.02
496.73	425.98
496.91	435.34
497.09	435.34
497.26	444.70
497.44	414.27
497.62	456.40
497.79	447.04
497.97	423.64
498.14	388.53
498.32	442.36
498.50	397.89
498.67	393.21
498.85	407.25
499.03	423.64
499.20	458.74
499.38	440.02
499.56	456.40
499.73	423.64
499.91	451.72
500.08	421.30
500.26	456.40
500.44	411.93
500.61	437.68
500.79	411.93
500.97	346.40
501.14	500.87
501.32	374.49
501.49	372.15
501.67	397.89
501.84	416.62
502.02	407.25
502.20	430.66
502.37	416.62
502.55	339.38
502.72	376.83
502.90	433.00
503.07	348.74
503.25	437.68
503.43	414.27
503.60	404.91
503.78	461.09
503.95	369.80
504.13	433.00
504.30	390.87
504.48	435.34
504.65	400.23
504.83	514.92
505.01	414.27
505.18	407.25
505.36	416.62
505.53	376.83
505.71	409.59
505.88	381.51
506.06	454.06
506.23	477.47
506.41	470.45
506.58	400.23
506.76	435.34
506.93	404.91
507.11	386.19
507.28	444.70
507.46	379.17
507.63	337.04
507.81	428.32
507.98	425.98
508.16	381.51
508.33	470.45
508.50	367.46
508.68	395.55
508.85	440.02
509.03	437.68
509.20	337.04
509.38	486.83
509.55	423.64
509.73	402.57
509.90	390.87
510.08	416.62
510.25	418.96
510.42	397.89
510.60	435.34
510.77	449.38
510.95	416.62
511.12	449.38
511.30	449.38
511.47	435.34
511.64	365.12
511.82	435.34
511.99	416.62
512.17	411.93
512.34	346.40
512.51	379.17
512.69	400.23
512.86	437.68
513.04	418.96
513.21	465.77
513.38	388.53
513.56	418.96
513.73	486.83
513.90	404.91
514.08	479.81
514.25	386.19
514.43	456.40
514.60	369.80
514.77	388.53
514.95	442.36
515.12	346.40
515.29	440.02
515.47	482.15
515.64	421.30
515.81	414.27
515.99	468.11
516.16	407.25
516.33	477.47
516.51	414.27
516.68	400.23
516.85	416.62
517.03	404.91
517.20	428.32
517.37	440.02
517.54	407.25
517.72	414.27
517.89	400.23
518.06	393.21
518.24	470.45
518.41	383.85
518.58	416.62
518.75	444.70
518.93	395.55
519.10	414.27
519.27	337.04
519.45	423.64
519.62	388.53
519.79	430.66
519.96	393.21
520.14	437.68
520.31	447.04
520.48	374.49
520.65	409.59
520.83	416.62
521.00	390.87
521.17	433.00
521.34	388.53
521.52	423.64
521.69	320.65
521.86	393.21
522.03	369.80
522.20	444.70
522.38	367.46
522.55	383.85
522.72	435.34
522.89	416.62
523.07	440.02
523.24	416.62
523.41	397.89
523.58	341.72
523.75	397.89
523.92	348.74
524.10	379.17
524.27	379.17
524.44	425.98
524.61	425.98
524.78	386.19
524.96	454.06
525.13	486.83
525.30	444.70
525.47	486.83
525.64	355.76
525.81	447.04
525.98	428.32
526.16	388.53
526.33	435.34
526.50	404.91
526.67	411.93
526.84	393.21
527.01	435.34
527.18	416.62
527.36	454.06
527.53	393.21
527.70	437.68
527.87	397.89
528.04	430.66
528.21	346.40
528.38	409.59
528.55	397.89
528.72	421.30
528.89	440.02
529.07	381.51
529.24	402.57
529.41	372.15
529.58	482.15
529.75	374.49
529.92	465.77
530.09	500.87
530.26	428.32
530.43	395.55
530.60	355.76
530.77	355.76
530.94	425.98
531.11	433.00
531.28	437.68
531.46	386.19
531.63	435.34
531.80	482.15
531.97	468.11
532.14	386.19
532.31	425.98
532.48	404.91
532.65	423.64
532.82	404.91
532.99	468.11
533.16	397.89
533.33	362.78
533.50	393.21
533.67	421.30
533.84	386.19
534.01	393.21
534.18	437.68
534.35	409.59
534.52	428.32
534.69	409.59
534.86	395.55
535.03	369.80
535.20	374.49
535.37	449.38
535.54	449.38
535.71	337.04
535.88	437.68
536.05	470.45
536.22	397.89
536.38	390.87
536.55	428.32
536.72	449.38
536.89	337.04
537.06	416.62
537.23	493.85
537.40	454.06
537.57	358.10
537.74	489.17
537.91	390.87
538.08	397.89
538.25	388.53
538.42	440.02
538.59	470.45
538.75	454.06
538.92	421.30
539.09	383.85
539.26	337.04
539.43	428.32
539.60	430.66
539.77	510.24
539.94	421.30
540.11	468.11
540.28	388.53
540.44	461.09
540.61	372.15
540.78	428.32
540.95	407.25
541.12	430.66
541.29	433.00
541.46	374.49
541.62	456.40
541.79	402.57
541.96	325.33
542.13	418.96
542.30	369.80
542.47	468.11
542.63	360.44
542.80	454.06
542.97	454.06
543.14	430.66
543.31	428.32
543.48	421.30
543.64	400.23
543.81	423.64
543.98	517.26
544.15	386.19
544.32	456.40
544.48	386.19
544.65	388.53
544.82	362.78
544.99	388.53
545.16	402.57
545.32	428.32
545.49	390.87
545.66	339.38
545.83	397.89
546.00	442.36
546.16	379.17
546.33	360.44
546.50	411.93
546.67	468.11
546.83	390.87
547.00	430.66
547.17	414.27
547.34	393.21
547.50	400.23
547.67	358.10
547.84	465.77
548.00	425.98
548.17	362.78
548.34	503.22
548.51	425.98
548.67	407.25
548.84	507.90
549.01	498.53
549.18	444.70
549.34	381.51
549.51	437.68
549.68	433.00
549.84	402.57
550.01	379.17
550.18	545.34
550.34	479.81
550.51	425.98
550.68	475.13
550.84	449.38
551.01	423.64
551.18	423.64
551.34	449.38
551.51	458.74
551.68	425.98
551.84	461.09
552.01	435.34
552.18	477.47
552.34	447.04
552.51	372.15
552.68	498.53
552.84	414.27
553.01	465.77
553.18	482.15
553.34	454.06
553.51	461.09
553.67	442.36
553.84	498.53
554.01	437.68
554.17	407.25
554.34	454.06
554.51	365.12
554.67	418.96
554.84	409.59
555.00	425.98
555.17	500.87
555.33	477.47
555.50	507.90
555.67	449.38
555.83	416.62
556.00	470.45
556.16	592.16
556.33	521.94
556.50	458.74
556.66	407.25
556.83	440.02
556.99	428.32
557.16	465.77
557.32	451.72
557.49	337.04
557.65	437.68
557.82	428.32
557.98	425.98
558.15	411.93
558.32	411.93
558.48	418.96
558.65	402.57
558.81	423.64
558.98	421.30
559.14	346.40
559.31	386.19
559.47	440.02
559.64	407.25
559.80	409.59
559.97	397.89
560.13	425.98
560.30	400.23
560.46	360.44
560.63	489.17
560.79	472.79
560.96	454.06
561.12	456.40
561.29	475.13
561.45	411.93
561.61	390.87
561.78	472.79
561.94	374.49
562.11	435.34
562.27	430.66
562.44	409.59
562.60	421.30
562.77	449.38
562.93	510.24
563.10	456.40
563.26	435.34
563.42	393.21
563.59	423.64
563.75	423.64
563.92	447.04
564.08	402.57
564.24	404.91
564.41	465.77
564.57	351.08
564.74	416.62
564.90	456.40
565.07	489.17
565.23	383.85
565.39	440.02
565.56	468.11
565.72	425.98
565.88	346.40
566.05	440.02
566.21	414.27
566.38	407.25
566.54	402.57
566.70	365.12
566.87	393.21
567.03	458.74
567.19	400.23
567.36	447.04
567.52	440.02
567.68	416.62
567.85	395.55
568.01	456.40
568.17	435.34
568.34	397.89
568.50	444.70
568.66	470.45
568.83	503.22
568.99	493.85
569.15	416.62
569.32	458.74
569.48	447.04
569.64	379.17
569.81	383.85
569.97	456.40
570.13	428.32
570.30	402.57
570.46	369.80
570.62	402.57
570.78	372.15
570.95	348.74
571.11	449.38
571.27	486.83
571.43	416.62
571.60	388.53
571.76	362.78
571.92	358.10
572.09	479.81
572.25	433.00
572.41	381.51
572.57	411.93
572.74	395.55
572.90	461.09
573.06	440.02
573.22	477.47
573.38	491.51
573.55	393.21
573.71	351.08
573.87	430.66
574.03	407.25
574.20	409.59
574.36	409.59
574.52	463.43
574.68	390.87
574.84	454.06
575.01	456.40
575.17	397.89
575.33	400.23
575.49	482.15
575.65	425.98
575.82	407.25
575.98	425.98
576.14	416.62
576.30	430.66
576.46	484.49
576.62	435.34
576.79	433.00
576.95	404.91
577.11	433.00
577.27	369.80
577.43	454.06
577.59	409.59
577.75	416.62
577.92	346.40
578.08	470.45
578.24	475.13
578.40	393.21
578.56	433.00
578.72	456.40
578.88	461.09
579.04	322.99
579.21	484.49
579.37	423.64
579.53	395.55
579.69	402.57
579.85	440.02
580.01	423.64
580.17	379.17
580.33	430.66
580.49	484.49
580.65	433.00
580.82	404.91
580.98	390.87
581.14	435.34
581.30	393.21
581.46	444.70
581.62	442.36
581.78	409.59
581.94	477.47
582.10	425.98
582.26	362.78
582.42	393.21
582.58	477.47
582.74	437.68
582.90	505.56
583.06	447.04
583.22	311.29
583.38	414.27
583.54	465.77
583.70	386.19
583.86	337.04
584.02	465.77
584.18	461.09
584.34	430.66
584.50	386.19
584.66	449.38
584.82	393.21
584.98	414.27
585.14	461.09
585.30	461.09
585.46	428.32
585.62	360.44
585.78	425.98
585.94	475.13
586.10	437.68
586.26	383.85
586.42	458.74
586.58	498.53
586.74	386.19
586.90	418.96
587.06	355.76
587.22	461.09
587.38	409.59
587.54	461.09
587.70	472.79
587.86	416.62
588.02	451.72
588.18	428.32
588.34	514.92
588.49	372.15
588.65	442.36
588.81	407.25
588.97	397.89
589.13	395.55
589.29	390.87
589.45	451.72
589.61	386.19
589.77	421.30
589.93	425.98
590.08	409.59
590.24	355.76
590.40	416.62
590.56	428.32
590.72	374.49
590.88	435.34
591.04	402.57
591.20	365.12
591.35	409.59
591.51	395.55
591.67	388.53
591.83	360.44
591.99	468.11
592.15	376.83
592.31	414.27
592.46	470.45
592.62	482.15
592.78	400.23
592.94	414.27
593.10	372.15
593.26	362.78
593.41	339.38
593.57	383.85
593.73	433.00
593.89	442.36
594.05	428.32
594.20	447.04
594.36	444.70
594.52	425.98
594.68	402.57
594.84	444.70
594.99	418.96
595.15	334.70
595.31	393.21
595.47	503.22
595.62	421.30
595.78	404.91
595.94	379.17
596.10	440.02
596.25	449.38
596.41	402.57
596.57	397.89
596.73	386.19
596.88	444.70
597.04	418.96
597.20	437.68
597.36	404.91
597.51	414.27
597.67	440.02
597.83	421.30
597.99	390.87
598.14	418.96
598.30	383.85
598.46	388.53
598.61	477.47
598.77	421.30
598.93	393.21
599.09	390.87
599.24	400.23
599.40	496.19
599.56	379.17
599.71	425.98
599.87	442.36
600.03	383.85
600.18	397.89
600.34	414.27
600.50	390.87
600.65	379.17
600.81	395.55
600.97	372.15
601.12	489.17
601.28	454.06
601.44	395.55
601.59	425.98
601.75	428.32
601.91	437.68
602.06	372.15
602.22	407.25
602.37	461.09
602.53	447.04
602.69	430.66
602.84	447.04
603.00	376.83
603.16	416.62
603.31	454.06
603.47	416.62
603.62	421.30
603.78	435.34
603.94	358.10
604.09	386.19
604.25	383.85
604.40	418.96
604.56	442.36
604.71	433.00
604.87	456.40
605.03	425.98
605.18	379.17
605.34	444.70
605.49	425.98
605.65	435.34
605.80	416.62
605.96	421.30
606.12	404.91
606.27	505.56
606.43	470.45
606.58	484.49
606.74	456.40
606.89	383.85
607.05	414.27
607.20	409.59
607.36	395.55
607.51	397.89
607.67	362.78
607.82	425.98
607.98	430.66
608.13	334.70
608.29	372.15
608.44	454.06
608.60	512.58
608.75	440.02
608.91	498.53
609.06	505.56
609.22	447.04
609.37	421.30
609.53	475.13
609.68	374.49
609.84	440.02
609.99	428.32
610.15	433.00
610.30	404.91
610.46	390.87
610.61	454.06
610.76	299.59
610.92	451.72
611.07	444.70
611.23	433.00
611.38	395.55
611.54	353.42
611.69	421.30
611.84	430.66
612.00	388.53
612.15	365.12
612.31	402.57
612.46	416.62
612.62	440.02
612.77	535.98
612.92	472.79
613.08	355.76
613.23	479.81
613.39	435.34
613.54	411.93
613.69	360.44
613.85	390.87
614.00	402.57
614.15	433.00
614.31	418.96
614.46	435.34
614.62	468.11
614.77	491.51
614.92	306.61
615.08	409.59
615.23	390.87
615.38	451.72
615.54	379.17
615.69	397.89
615.84	456.40
616.00	416.62
616.15	374.49
616.30	442.36
616.46	423.64
616.61	390.87
616.76	458.74
616.92	433.00
617.07	421.30
617.22	407.25
617.37	435.34
617.53	397.89
617.68	437.68
617.83	440.02
617.99	341.72
618.14	449.38
618.29	482.15
618.45	425.98
618.60	437.68
618.75	433.00
618.90	355.76
619.06	348.74
619.21	477.47
619.36	496.19
619.51	397.89
619.67	397.89
619.82	430.66
619.97	519.60
620.12	423.64
620.28	421.30
620.43	379.17
620.58	433.00
620.73	423.64
620.89	468.11
621.04	465.77
621.19	418.96
621.34	421.30
621.49	400.23
621.65	411.93
621.80	425.98
621.95	400.23
622.10	454.06
622.25	418.96
622.41	428.32
622.56	355.76
622.71	421.30
622.86	411.93
623.01	449.38
623.16	486.83
623.32	482.15
623.47	440.02
623.62	407.25
623.77	376.83
623.92	479.81
624.07	393.21
624.23	421.30
624.38	421.30
624.53	423.64
624.68	479.81
624.83	479.81
624.98	543.00
625.13	402.57
625.29	444.70
625.44	430.66
625.59	397.89
625.74	362.78
625.89	421.30
626.04	482.15
626.19	404.91
626.34	428.32
626.49	404.91
626.65	372.15
626.80	397.89
626.95	379.17
627.10	418.96
627.25	414.27
627.40	353.42
627.55	379.17
627.70	416.62
627.85	482.15
628.00	442.36
628.15	411.93
628.30	365.12
628.45	425.98
628.60	409.59
628.76	500.87
628.91	444.70
629.06	367.46
629.21	404.91
629.36	400.23
629.51	437.68
629.66	423.64
629.81	433.00
629.96	442.36
630.11	402.57
630.26	421.30
630.41	409.59
630.56	498.53
630.71	425.98
630.86	292.57
631.01	360.44
631.16	404.91
631.31	442.36
631.46	470.45
631.61	461.09
631.76	404.91
631.91	421.30
632.06	433.00
632.21	454.06
632.36	402.57
632.51	454.06
632.66	430.66
632.81	496.19
632.96	430.66
633.10	468.11
633.25	461.09
633.40	376.83
633.55	451.72
633.70	409.59
633.85	402.57
634.00	369.80
634.15	397.89
634.30	437.68
634.45	461.09
634.60	404.91
634.75	414.27
634.90	421.30
635.05	418.96
635.19	454.06
635.34	440.02
635.49	484.49
635.64	425.98
635.79	404.91
635.94	433.00
636.09	369.80
636.24	390.87
636.39	402.57
636.53	425.98
636.68	404.91
636.83	397.89
636.98	430.66
637.13	454.06
637.28	482.15
637.43	404.91
637.57	351.08
637.72	337.04
637.87	449.38
638.02	332.36
638.17	407.25
638.32	433.00
638.46	388.53
638.61	498.53
638.76	486.83
638.91	425.98
639.06	407.25
639.20	510.24
639.35	428.32
639.50	414.27
639.65	414.27
639.80	404.91
639.94	395.55
640.09	423.64
640.24	440.02
640.39	411.93
640.54	376.83
640.68	390.87
640.83	423.64
640.98	388.53
641.13	435.34
641.27	440.02
641.42	449.38
641.57	372.15
641.72	355.76
641.86	367.46
642.01	390.87
642.16	425.98
642.31	388.53
642.45	428.32
642.60	486.83
642.75	442.36
642.90	428.32
643.04	411.93
643.19	430.66
643.34	360.44
643.48	437.68
643.63	407.25
643.78	440.02
643.93	388.53
644.07	433.00
644.22	369.80
644.37	341.72
644.51	433.00
644.66	360.44
644.81	414.27
644.95	505.56
645.10	393.21
645.25	428.32
645.39	475.13
645.54	372.15
645.69	393.21
645.83	407.25
645.98	454.06
646.13	470.45
646.27	435.34
646.42	374.49
646.57	468.11
646.71	463.43
646.86	400.23
647.00	477.47
647.15	421.30
647.30	416.62
647.44	416.62
647.59	376.83
647.74	430.66
647.88	500.87
648.03	376.83
648.17	409.59
648.32	383.85
648.47	428.32
648.61	400.23
648.76	482.15
648.90	365.12
649.05	393.21
649.20	458.74
649.34	463.43
649.49	381.51
649.63	472.79
649.78	411.93
649.92	475.13
650.07	496.19
650.21	414.27
650.36	444.70
650.51	475.13
650.65	423.64
650.80	414.27
650.94	383.85
651.09	381.51
651.23	428.32
651.38	444.70
651.52	470.45
651.67	416.62
651.81	402.57
651.96	451.72
652.10	442.36
652.25	461.09
652.39	402.57
652.54	442.36
652.68	411.93
652.83	430.66
652.97	447.04
653.12	379.17
653.26	358.10
653.41	430.66
653.55	393.21
653.70	374.49
653.84	383.85
653.99	404.91
654.13	386.19
654.27	402.57
654.42	416.62
654.56	461.09
654.71	465.77
654.85	383.85
655.00	449.38
655.14	470.45
655.29	383.85
655.43	437.68
655.57	472.79
655.72	444.70
655.86	433.00
656.01	402.57
656.15	395.55
656.30	365.12
656.44	435.34
656.58	367.46
656.73	360.44
656.87	407.25
657.01	360.44
657.16	463.43
657.30	458.74
657.45	454.06
657.59	395.55
657.73	372.15
657.88	404.91
658.02	468.11
658.16	451.72
658.31	442.36
658.45	468.11
658.60	379.17
658.74	440.02
658.88	435.34
659.03	402.57
659.17	400.23
659.31	430.66
659.46	402.57
659.60	379.17
659.74	383.85
659.89	409.59
660.03	348.74
660.17	440.02
660.32	379.17
660.46	418.96
660.60	435.34
660.74	465.77
660.89	423.64
661.03	390.87
661.17	360.44
661.32	404.91
661.46	388.53
661.60	400.23
661.74	447.04
661.89	400.23
662.03	409.59
662.17	418.96
662.31	407.25
662.46	409.59
662.60	477.47
662.74	442.36
662.88	461.09
663.03	411.93
663.17	430.66
663.31	379.17
663.45	437.68
663.60	358.10
663.74	454.06
663.88	421.30
664.02	444.70
664.17	435.34
664.31	428.32
664.45	468.11
664.59	381.51
664.73	397.89
664.88	472.79
665.02	402.57
665.16	435.34
665.30	440.02
665.44	404.91
665.59	465.77
665.73	397.89
665.87	418.96
666.01	447.04
666.15	390.87
666.29	395.55
666.44	430.66
666.58	479.81
666.72	421.30
666.86	447.04
667.00	374.49
667.14	482.15
667.28	390.87
667.43	435.34
667.57	404.91
667.71	440.02
667.85	388.53
667.99	440.02
668.13	425.98
668.27	390.87
668.41	322.99
668.56	423.64
668.70	456.40
668.84	444.70
668.98	379.17
669.12	444.70
669.26	437.68
669.40	447.04
669.54	428.32
669.68	442.36
669.82	416.62
669.96	365.12
670.10	369.80
670.25	461.09
670.39	421.30
670.53	428.32
670.67	430.66
670.81	362.78
670.95	404.91
671.09	411.93
671.23	479.81
671.37	465.77
671.51	372.15
671.65	454.06
671.79	428.32
671.93	355.76
672.07	510.24
672.21	407.25
672.35	461.09
672.49	458.74
672.63	430.66
672.77	477.47
672.91	414.27
673.05	437.68
673.19	383.85
673.33	355.76
673.47	456.40
673.61	444.70
673.75	379.17
673.89	414.27
674.03	433.00
674.17	458.74
674.31	397.89
674.45	454.06
674.59	440.02
674.73	425.98
674.87	447.04
675.01	362.78
675.15	430.66
675.29	440.02
675.43	442.36
675.56	444.70
675.70	435.34
675.84	397.89
675.98	454.06
676.12	409.59
676.26	433.00
676.40	449.38
676.54	498.53
676.68	421.30
676.82	430.66
676.96	428.32
677.10	409.59
677.23	414.27
677.37	468.11
677.51	449.38
677.65	468.11
677.79	367.46
677.93	388.53
678.07	388.53
678.21	414.27
678.34	360.44
678.48	421.30
678.62	423.64
678.76	390.87
678.90	470.45
679.04	486.83
679.18	404.91
679.31	334.70
679.45	458.74
679.59	409.59
679.73	449.38
679.87	346.40
680.00	433.00
680.14	440.02
680.28	430.66
680.42	395.55
680.56	465.77
680.70	404.91
680.83	393.21
680.97	355.76
681.11	379.17
681.25	437.68
681.39	402.57
681.52	510.24
681.66	386.19
681.80	444.70
681.94	402.57
682.07	463.43
682.21	386.19
682.35	416.62
682.49	390.87
682.62	362.78
682.76	334.70
682.90	421.30
683.04	458.74
683.17	322.99
683.31	383.85
683.45	374.49
683.59	442.36
683.72	381.51
683.86	454.06
684.00	416.62
684.13	386.19
684.27	383.85
684.41	470.45
684.55	442.36
684.68	402.57
684.82	433.00
684.96	444.70
685.09	423.64
685.23	407.25
685.37	470.45
685.50	407.25
685.64	435.34
685.78	362.78
685.91	440.02
686.05	468.11
686.19	423.64
686.32	397.89
686.46	423.64
686.60	390.87
686.73	465.77
686.87	411.93
687.01	369.80
687.14	355.76
687.28	411.93
687.42	468.11
687.55	390.87
687.69	461.09
687.82	376.83
687.96	433.00
688.10	454.06
688.23	400.23
688.37	440.02
688.50	416.62
688.64	365.12
688.78	451.72
688.91	388.53
689.05	486.83
689.18	376.83
689.32	348.74
689.46	425.98
689.59	400.23
689.73	383.85
689.86	402.57
690.00	365.12
690.13	451.72
690.27	454.06
690.41	383.85
690.54	461.09
690.68	435.34
690.81	507.90
690.95	433.00
691.08	409.59
691.22	472.79
691.35	458.74
691.49	393.21
691.62	397.89
691.76	482.15
691.89	379.17
692.03	337.04
692.16	390.87
692.30	470.45
692.43	404.91
692.57	395.55
692.70	374.49
692.84	404.91
692.97	346.40
693.11	425.98
693.24	404.91
693.38	503.22
693.51	472.79
693.65	461.09
693.78	407.25
693.92	440.02
694.05	423.64
694.19	435.34
694.32	367.46
694.45	444.70
694.59	379.17
694.72	418.96
694.86	428.32
694.99	444.70
695.13	376.83
695.26	402.57
695.39	437.68
695.53	514.92
695.66	430.66
695.80	355.76
695.93	390.87
696.07	437.68
696.20	411.93
696.33	407.25
696.47	379.17
696.60	414.27
696.73	407.25
696.87	500.87
697.00	407.25
697.14	337.04
697.27	421.30
697.40	463.43
697.54	428.32
697.67	451.72
697.80	381.51
697.94	421.30
698.07	458.74
698.21	390.87
698.34	330.02
698.47	407.25
698.61	435.34
698.74	365.12
698.87	423.64
699.01	425.98
699.14	322.99
699.27	435.34
699.40	510.24
699.54	498.53
699.67	397.89
699.80	477.47
699.94	425.98
700.07	362.78
700.20	437.68
700.34	365.12
700.47	402.57
700.60	402.57
700.73	447.04
700.87	418.96
701.00	407.25
701.13	374.49
701.26	416.62
701.40	449.38
701.53	404.91
701.66	418.96
701.79	386.19
701.93	440.02
702.06	444.70
702.19	374.49
702.32	428.32
702.46	463.43
702.59	404.91
702.72	472.79
702.85	348.74
702.99	397.89
703.12	430.66
703.25	484.49
703.38	414.27
703.51	442.36
703.65	430.66
703.78	397.89
703.91	470.45
704.04	465.77
704.17	484.49
704.31	437.68
704.44	386.19
704.57	379.17
704.70	397.89
704.83	440.02
704.96	395.55
705.10	404.91
705.23	404.91
>>>>>End Processed Spectral Data<<<<<
