SpectraSuite Data File
++++++++++++++++++++++++++++++++++++
Date: Fri Oct 25 12:11:08 EDT 2013
User: price-jones
Dark Spectrum Present: No
Reference Spectrum Present: No
Number of Sampled Component Spectra: 1
Spectrometers: USB2+H05261
Integration Time (usec): 100000 (USB2+H05261)
Spectra Averaged: 1 (USB2+H05261)
Boxcar Smoothing: 0 (USB2+H05261)
Correct for Electrical Dark: No (USB2+H05261)
Strobe/Lamp Enabled: No (USB2+H05261)
Correct for Detector Non-linearity: No (USB2+H05261)
Correct for Stray Light: No (USB2+H05261)
Number of Pixels in Processed Spectrum: 2048
>>>>>Begin Processed Spectral Data<<<<<
365.73	381.51
365.92	381.51
366.12	381.51
366.32	222.35
366.52	255.12
366.72	222.35
366.91	175.54
367.11	248.10
367.31	191.92
367.51	236.39
367.70	264.48
367.90	285.55
368.10	248.10
368.30	297.25
368.49	273.84
368.69	241.08
368.89	311.29
369.09	215.33
369.28	318.31
369.48	245.76
369.68	257.46
369.87	278.52
370.07	236.39
370.27	390.87
370.47	294.91
370.66	369.80
370.86	365.12
371.06	383.85
371.25	362.78
371.45	400.23
371.65	386.19
371.84	332.36
372.04	346.40
372.24	358.10
372.44	372.15
372.63	435.34
372.83	454.06
373.03	404.91
373.22	334.70
373.42	367.46
373.62	416.62
373.81	386.19
374.01	430.66
374.21	430.66
374.40	437.68
374.60	421.30
374.79	386.19
374.99	353.42
375.19	430.66
375.38	503.22
375.58	433.00
375.78	397.89
375.97	418.96
376.17	423.64
376.37	395.55
376.56	393.21
376.76	362.78
376.95	395.55
377.15	367.46
377.35	440.02
377.54	402.57
377.74	381.51
377.93	388.53
378.13	367.46
378.33	458.74
378.52	351.08
378.72	510.24
378.91	423.64
379.11	390.87
379.31	358.10
379.50	454.06
379.70	440.02
379.89	355.76
380.09	454.06
380.28	346.40
380.48	318.31
380.68	416.62
380.87	360.44
381.07	454.06
381.26	433.00
381.46	454.06
381.65	411.93
381.85	400.23
382.04	379.17
382.24	451.72
382.43	358.10
382.63	365.12
382.83	416.62
383.02	428.32
383.22	374.49
383.41	416.62
383.61	468.11
383.80	451.72
384.00	388.53
384.19	376.83
384.39	414.27
384.58	390.87
384.78	409.59
384.97	393.21
385.17	369.80
385.36	393.21
385.56	425.98
385.75	379.17
385.95	423.64
386.14	472.79
386.34	397.89
386.53	395.55
386.72	369.80
386.92	437.68
387.11	477.47
387.31	468.11
387.50	416.62
387.70	435.34
387.89	430.66
388.09	341.72
388.28	416.62
388.48	442.36
388.67	423.64
388.86	423.64
389.06	372.15
389.25	388.53
389.45	388.53
389.64	435.34
389.84	475.13
390.03	416.62
390.22	463.43
390.42	402.57
390.61	351.08
390.81	327.68
391.00	379.17
391.19	416.62
391.39	418.96
391.58	433.00
391.78	397.89
391.97	418.96
392.16	334.70
392.36	400.23
392.55	433.00
392.75	367.46
392.94	456.40
393.13	475.13
393.33	411.93
393.52	386.19
393.71	458.74
393.91	418.96
394.10	489.17
394.29	351.08
394.49	337.04
394.68	425.98
394.88	465.77
395.07	393.21
395.26	369.80
395.46	423.64
395.65	418.96
395.84	468.11
396.04	454.06
396.23	372.15
396.42	381.51
396.62	397.89
396.81	334.70
397.00	402.57
397.19	425.98
397.39	348.74
397.58	425.98
397.77	416.62
397.97	416.62
398.16	430.66
398.35	346.40
398.55	416.62
398.74	418.96
398.93	447.04
399.12	395.55
399.32	421.30
399.51	428.32
399.70	430.66
399.90	456.40
400.09	414.27
400.28	468.11
400.47	449.38
400.67	442.36
400.86	388.53
401.05	500.87
401.24	404.91
401.44	332.36
401.63	374.49
401.82	411.93
402.01	407.25
402.21	400.23
402.40	458.74
402.59	388.53
402.78	386.19
402.97	379.17
403.17	365.12
403.36	468.11
403.55	411.93
403.74	393.21
403.93	374.49
404.13	409.59
404.32	369.80
404.51	358.10
404.70	418.96
404.89	367.46
405.09	421.30
405.28	374.49
405.47	388.53
405.66	425.98
405.85	444.70
406.05	402.57
406.24	341.72
406.43	404.91
406.62	386.19
406.81	437.68
407.00	477.47
407.20	411.93
407.39	393.21
407.58	369.80
407.77	458.74
407.96	440.02
408.15	447.04
408.34	411.93
408.54	400.23
408.73	418.96
408.92	344.06
409.11	468.11
409.30	425.98
409.49	430.66
409.68	428.32
409.87	440.02
410.07	381.51
410.26	416.62
410.45	369.80
410.64	428.32
410.83	404.91
411.02	409.59
411.21	449.38
411.40	409.59
411.59	463.43
411.78	393.21
411.98	503.22
412.17	402.57
412.36	409.59
412.55	409.59
412.74	407.25
412.93	512.58
413.12	430.66
413.31	418.96
413.50	409.59
413.69	381.51
413.88	407.25
414.07	430.66
414.26	374.49
414.45	376.83
414.64	433.00
414.83	458.74
415.02	407.25
415.22	397.89
415.41	425.98
415.60	376.83
415.79	411.93
415.98	451.72
416.17	425.98
416.36	383.85
416.55	358.10
416.74	383.85
416.93	425.98
417.12	433.00
417.31	423.64
417.50	360.44
417.69	418.96
417.88	365.12
418.07	369.80
418.26	390.87
418.45	402.57
418.64	411.93
418.83	433.00
419.02	475.13
419.21	465.77
419.39	428.32
419.58	379.17
419.77	393.21
419.96	423.64
420.15	524.28
420.34	376.83
420.53	418.96
420.72	400.23
420.91	369.80
421.10	409.59
421.29	423.64
421.48	425.98
421.67	437.68
421.86	299.59
422.05	390.87
422.24	425.98
422.43	442.36
422.61	360.44
422.80	416.62
422.99	346.40
423.18	374.49
423.37	425.98
423.56	397.89
423.75	451.72
423.94	411.93
424.13	376.83
424.32	388.53
424.50	430.66
424.69	451.72
424.88	468.11
425.07	334.70
425.26	416.62
425.45	465.77
425.64	421.30
425.83	447.04
426.01	433.00
426.20	386.19
426.39	442.36
426.58	442.36
426.77	400.23
426.96	451.72
427.15	421.30
427.33	397.89
427.52	423.64
427.71	322.99
427.90	325.33
428.09	362.78
428.28	372.15
428.46	430.66
428.65	411.93
428.84	416.62
429.03	477.47
429.22	437.68
429.40	461.09
429.59	437.68
429.78	400.23
429.97	461.09
430.16	414.27
430.34	430.66
430.53	489.17
430.72	353.42
430.91	416.62
431.10	414.27
431.28	390.87
431.47	322.99
431.66	362.78
431.85	383.85
432.03	367.46
432.22	440.02
432.41	358.10
432.60	402.57
432.79	411.93
432.97	393.21
433.16	353.42
433.35	416.62
433.54	451.72
433.72	421.30
433.91	395.55
434.10	402.57
434.28	409.59
434.47	411.93
434.66	411.93
434.85	365.12
435.03	379.17
435.22	505.56
435.41	465.77
435.59	500.87
435.78	376.83
435.97	447.04
436.16	433.00
436.34	337.04
436.53	407.25
436.72	376.83
436.90	376.83
437.09	355.76
437.28	444.70
437.46	376.83
437.65	416.62
437.84	409.59
438.02	458.74
438.21	372.15
438.40	416.62
438.58	376.83
438.77	397.89
438.96	362.78
439.14	348.74
439.33	430.66
439.52	397.89
439.70	400.23
439.89	404.91
440.08	456.40
440.26	409.59
440.45	407.25
440.63	428.32
440.82	379.17
441.01	334.70
441.19	388.53
441.38	430.66
441.57	374.49
441.75	428.32
441.94	505.56
442.12	510.24
442.31	440.02
442.50	409.59
442.68	402.57
442.87	400.23
443.05	418.96
443.24	414.27
443.43	397.89
443.61	411.93
443.80	369.80
443.98	362.78
444.17	390.87
444.35	395.55
444.54	414.27
444.73	383.85
444.91	477.47
445.10	334.70
445.28	421.30
445.47	390.87
445.65	437.68
445.84	411.93
446.02	451.72
446.21	414.27
446.39	421.30
446.58	437.68
446.77	468.11
446.95	397.89
447.14	491.51
447.32	430.66
447.51	351.08
447.69	386.19
447.88	411.93
448.06	484.49
448.25	404.91
448.43	372.15
448.62	376.83
448.80	393.21
448.99	407.25
449.17	440.02
449.36	358.10
449.54	407.25
449.73	437.68
449.91	365.12
450.10	421.30
450.28	400.23
450.46	423.64
450.65	411.93
450.83	383.85
451.02	463.43
451.20	365.12
451.39	451.72
451.57	416.62
451.76	414.27
451.94	376.83
452.13	425.98
452.31	477.47
452.49	386.19
452.68	444.70
452.86	451.72
453.05	461.09
453.23	451.72
453.42	346.40
453.60	367.46
453.78	423.64
453.97	381.51
454.15	397.89
454.34	400.23
454.52	372.15
454.70	397.89
454.89	475.13
455.07	449.38
455.26	454.06
455.44	416.62
455.62	440.02
455.81	390.87
455.99	428.32
456.17	376.83
456.36	409.59
456.54	411.93
456.73	379.17
456.91	383.85
457.09	404.91
457.28	442.36
457.46	337.04
457.64	444.70
457.83	447.04
458.01	414.27
458.19	418.96
458.38	372.15
458.56	423.64
458.74	402.57
458.93	322.99
459.11	407.25
459.29	388.53
459.48	395.55
459.66	451.72
459.84	454.06
460.03	514.92
460.21	465.77
460.39	400.23
460.57	430.66
460.76	482.15
460.94	449.38
461.12	472.79
461.31	440.02
461.49	433.00
461.67	348.74
461.85	395.55
462.04	330.02
462.22	837.91
462.40	489.17
462.59	411.93
462.77	465.77
462.95	407.25
463.13	341.72
463.32	360.44
463.50	458.74
463.68	381.51
463.86	381.51
464.05	348.74
464.23	388.53
464.41	437.68
464.59	486.83
464.78	435.34
464.96	421.30
465.14	388.53
465.32	400.23
465.50	461.09
465.69	376.83
465.87	337.04
466.05	407.25
466.23	400.23
466.41	393.21
466.60	484.49
466.78	416.62
466.96	379.17
467.14	409.59
467.32	421.30
467.51	444.70
467.69	505.56
467.87	351.08
468.05	400.23
468.23	500.87
468.41	381.51
468.60	390.87
468.78	379.17
468.96	388.53
469.14	430.66
469.32	416.62
469.50	353.42
469.69	395.55
469.87	437.68
470.05	430.66
470.23	407.25
470.41	430.66
470.59	442.36
470.77	458.74
470.95	414.27
471.14	414.27
471.32	409.59
471.50	414.27
471.68	337.04
471.86	423.64
472.04	397.89
472.22	433.00
472.40	337.04
472.58	407.25
472.77	411.93
472.95	430.66
473.13	442.36
473.31	437.68
473.49	390.87
473.67	414.27
473.85	447.04
474.03	388.53
474.21	435.34
474.39	430.66
474.57	463.43
474.75	449.38
474.93	437.68
475.12	383.85
475.30	355.76
475.48	414.27
475.66	442.36
475.84	477.47
476.02	425.98
476.20	423.64
476.38	386.19
476.56	437.68
476.74	449.38
476.92	456.40
477.10	475.13
477.28	437.68
477.46	372.15
477.64	433.00
477.82	414.27
478.00	468.11
478.18	416.62
478.36	397.89
478.54	369.80
478.72	421.30
478.90	390.87
479.08	433.00
479.26	383.85
479.44	428.32
479.62	367.46
479.80	388.53
479.98	388.53
480.16	388.53
480.34	360.44
480.52	376.83
480.70	351.08
480.88	433.00
481.06	477.47
481.24	423.64
481.41	397.89
481.59	454.06
481.77	463.43
481.95	388.53
482.13	435.34
482.31	402.57
482.49	414.27
482.67	461.09
482.85	451.72
483.03	400.23
483.21	407.25
483.39	449.38
483.57	404.91
483.74	472.79
483.92	360.44
484.10	330.02
484.28	334.70
484.46	500.87
484.64	402.57
484.82	379.17
485.00	388.53
485.18	418.96
485.35	404.91
485.53	440.02
485.71	465.77
485.89	416.62
486.07	407.25
486.25	472.79
486.43	423.64
486.61	381.51
486.78	440.02
486.96	414.27
487.14	407.25
487.32	393.21
487.50	355.76
487.68	421.30
487.85	390.87
488.03	447.04
488.21	400.23
488.39	367.46
488.57	437.68
488.75	437.68
488.92	493.85
489.10	383.85
489.28	463.43
489.46	395.55
489.64	409.59
489.81	423.64
489.99	372.15
490.17	379.17
490.35	458.74
490.53	418.96
490.70	348.74
490.88	447.04
491.06	395.55
491.24	482.15
491.41	461.09
491.59	440.02
491.77	458.74
491.95	383.85
492.13	388.53
492.30	402.57
492.48	447.04
492.66	411.93
492.84	367.46
493.01	397.89
493.19	381.51
493.37	435.34
493.54	414.27
493.72	411.93
493.90	411.93
494.08	353.42
494.25	397.89
494.43	451.72
494.61	374.49
494.79	468.11
494.96	374.49
495.14	425.98
495.32	435.34
495.49	400.23
495.67	386.19
495.85	367.46
496.02	404.91
496.20	421.30
496.38	461.09
496.55	395.55
496.73	437.68
496.91	369.80
497.09	409.59
497.26	367.46
497.44	407.25
497.62	430.66
497.79	449.38
497.97	374.49
498.14	433.00
498.32	461.09
498.50	379.17
498.67	390.87
498.85	470.45
499.03	379.17
499.20	358.10
499.38	388.53
499.56	493.85
499.73	472.79
499.91	362.78
500.08	390.87
500.26	416.62
500.44	397.89
500.61	376.83
500.79	418.96
500.97	437.68
501.14	444.70
501.32	472.79
501.49	433.00
501.67	369.80
501.84	461.09
502.02	451.72
502.20	486.83
502.37	435.34
502.55	381.51
502.72	379.17
502.90	383.85
503.07	435.34
503.25	421.30
503.43	395.55
503.60	444.70
503.78	397.89
503.95	404.91
504.13	395.55
504.30	477.47
504.48	479.81
504.65	404.91
504.83	425.98
505.01	418.96
505.18	409.59
505.36	416.62
505.53	461.09
505.71	465.77
505.88	425.98
506.06	444.70
506.23	411.93
506.41	414.27
506.58	367.46
506.76	500.87
506.93	351.08
507.11	440.02
507.28	421.30
507.46	414.27
507.63	402.57
507.81	397.89
507.98	395.55
508.16	421.30
508.33	423.64
508.50	388.53
508.68	395.55
508.85	400.23
509.03	456.40
509.20	461.09
509.38	475.13
509.55	435.34
509.73	475.13
509.90	489.17
510.08	400.23
510.25	411.93
510.42	397.89
510.60	383.85
510.77	428.32
510.95	454.06
511.12	393.21
511.30	395.55
511.47	358.10
511.64	425.98
511.82	404.91
511.99	418.96
512.17	437.68
512.34	386.19
512.51	444.70
512.69	353.42
512.86	372.15
513.04	358.10
513.21	428.32
513.38	411.93
513.56	379.17
513.73	400.23
513.90	435.34
514.08	428.32
514.25	388.53
514.43	475.13
514.60	470.45
514.77	440.02
514.95	372.15
515.12	423.64
515.29	425.98
515.47	374.49
515.64	442.36
515.81	409.59
515.99	409.59
516.16	470.45
516.33	472.79
516.51	414.27
516.68	383.85
516.85	414.27
517.03	463.43
517.20	414.27
517.37	512.58
517.54	470.45
517.72	425.98
517.89	418.96
518.06	470.45
518.24	407.25
518.41	458.74
518.58	409.59
518.75	421.30
518.93	402.57
519.10	421.30
519.27	393.21
519.45	400.23
519.62	409.59
519.79	496.19
519.96	423.64
520.14	381.51
520.31	454.06
520.48	456.40
520.65	498.53
520.83	393.21
521.00	416.62
521.17	479.81
521.34	433.00
521.52	330.02
521.69	433.00
521.86	393.21
522.03	346.40
522.20	437.68
522.38	369.80
522.55	451.72
522.72	409.59
522.89	388.53
523.07	379.17
523.24	435.34
523.41	430.66
523.58	372.15
523.75	400.23
523.92	397.89
524.10	477.47
524.27	374.49
524.44	425.98
524.61	435.34
524.78	425.98
524.96	414.27
525.13	388.53
525.30	444.70
525.47	409.59
525.64	409.59
525.81	428.32
525.98	468.11
526.16	351.08
526.33	409.59
526.50	433.00
526.67	360.44
526.84	351.08
527.01	498.53
527.18	423.64
527.36	433.00
527.53	444.70
527.70	472.79
527.87	454.06
528.04	475.13
528.21	447.04
528.38	484.49
528.55	433.00
528.72	491.51
528.89	447.04
529.07	449.38
529.24	430.66
529.41	451.72
529.58	353.42
529.75	407.25
529.92	407.25
530.09	393.21
530.26	402.57
530.43	376.83
530.60	402.57
530.77	435.34
530.94	379.17
531.11	369.80
531.28	442.36
531.46	386.19
531.63	442.36
531.80	435.34
531.97	348.74
532.14	425.98
532.31	393.21
532.48	444.70
532.65	465.77
532.82	397.89
532.99	341.72
533.16	367.46
533.33	374.49
533.50	425.98
533.67	402.57
533.84	423.64
534.01	416.62
534.18	395.55
534.35	365.12
534.52	447.04
534.69	435.34
534.86	442.36
535.03	407.25
535.20	386.19
535.37	414.27
535.54	425.98
535.71	475.13
535.88	477.47
536.05	379.17
536.22	365.12
536.38	430.66
536.55	425.98
536.72	444.70
536.89	425.98
537.06	372.15
537.23	376.83
537.40	404.91
537.57	400.23
537.74	435.34
537.91	400.23
538.08	395.55
538.25	393.21
538.42	388.53
538.59	451.72
538.75	404.91
538.92	351.08
539.09	428.32
539.26	355.76
539.43	416.62
539.60	386.19
539.77	458.74
539.94	437.68
540.11	383.85
540.28	423.64
540.44	423.64
540.61	416.62
540.78	423.64
540.95	395.55
541.12	376.83
541.29	334.70
541.46	402.57
541.62	411.93
541.79	358.10
541.96	414.27
542.13	374.49
542.30	404.91
542.47	470.45
542.63	404.91
542.80	447.04
542.97	440.02
543.14	411.93
543.31	376.83
543.48	365.12
543.64	404.91
543.81	425.98
543.98	425.98
544.15	447.04
544.32	442.36
544.48	409.59
544.65	433.00
544.82	332.36
544.99	386.19
545.16	425.98
545.32	440.02
545.49	402.57
545.66	433.00
545.83	435.34
546.00	397.89
546.16	425.98
546.33	409.59
546.50	425.98
546.67	444.70
546.83	411.93
547.00	365.12
547.17	456.40
547.34	421.30
547.50	444.70
547.67	435.34
547.84	440.02
548.00	416.62
548.17	421.30
548.34	383.85
548.51	400.23
548.67	437.68
548.84	463.43
549.01	411.93
549.18	388.53
549.34	421.30
549.51	388.53
549.68	425.98
549.84	409.59
550.01	404.91
550.18	482.15
550.34	437.68
550.51	433.00
550.68	421.30
550.84	390.87
551.01	451.72
551.18	442.36
551.34	444.70
551.51	397.89
551.68	423.64
551.84	442.36
552.01	425.98
552.18	409.59
552.34	397.89
552.51	421.30
552.68	407.25
552.84	379.17
553.01	327.68
553.18	423.64
553.34	421.30
553.51	433.00
553.67	423.64
553.84	496.19
554.01	444.70
554.17	358.10
554.34	475.13
554.51	437.68
554.67	430.66
554.84	451.72
555.00	454.06
555.17	404.91
555.33	421.30
555.50	355.76
555.67	367.46
555.83	449.38
556.00	507.90
556.16	514.92
556.33	444.70
556.50	402.57
556.66	425.98
556.83	372.15
556.99	454.06
557.16	379.17
557.32	383.85
557.49	435.34
557.65	454.06
557.82	409.59
557.98	386.19
558.15	449.38
558.32	433.00
558.48	388.53
558.65	388.53
558.81	411.93
558.98	444.70
559.14	388.53
559.31	390.87
559.47	440.02
559.64	468.11
559.80	306.61
559.97	425.98
560.13	461.09
560.30	409.59
560.46	407.25
560.63	402.57
560.79	407.25
560.96	449.38
561.12	447.04
561.29	416.62
561.45	430.66
561.61	358.10
561.78	503.22
561.94	379.17
562.11	390.87
562.27	433.00
562.44	400.23
562.60	428.32
562.77	409.59
562.93	491.51
563.10	358.10
563.26	362.78
563.42	442.36
563.59	472.79
563.75	409.59
563.92	505.56
564.08	444.70
564.24	482.15
564.41	437.68
564.57	418.96
564.74	418.96
564.90	416.62
565.07	454.06
565.23	472.79
565.39	388.53
565.56	463.43
565.72	479.81
565.88	468.11
566.05	416.62
566.21	435.34
566.38	451.72
566.54	418.96
566.70	409.59
566.87	341.72
567.03	353.42
567.19	423.64
567.36	442.36
567.52	388.53
567.68	430.66
567.85	395.55
568.01	365.12
568.17	397.89
568.34	374.49
568.50	400.23
568.66	381.51
568.83	447.04
568.99	486.83
569.15	444.70
569.32	435.34
569.48	393.21
569.64	330.02
569.81	421.30
569.97	308.95
570.13	414.27
570.30	447.04
570.46	421.30
570.62	421.30
570.78	390.87
570.95	451.72
571.11	423.64
571.27	489.17
571.43	468.11
571.60	414.27
571.76	451.72
571.92	393.21
572.09	414.27
572.25	414.27
572.41	449.38
572.57	433.00
572.74	430.66
572.90	465.77
573.06	411.93
573.22	484.49
573.38	423.64
573.55	416.62
573.71	390.87
573.87	456.40
574.03	365.12
574.20	461.09
574.36	435.34
574.52	404.91
574.68	451.72
574.84	470.45
575.01	402.57
575.17	451.72
575.33	407.25
575.49	404.91
575.65	472.79
575.82	404.91
575.98	470.45
576.14	390.87
576.30	440.02
576.46	423.64
576.62	463.43
576.79	411.93
576.95	477.47
577.11	411.93
577.27	468.11
577.43	475.13
577.59	507.90
577.75	416.62
577.92	402.57
578.08	411.93
578.24	346.40
578.40	458.74
578.56	444.70
578.72	454.06
578.88	348.74
579.04	409.59
579.21	470.45
579.37	447.04
579.53	397.89
579.69	484.49
579.85	444.70
580.01	397.89
580.17	437.68
580.33	400.23
580.49	421.30
580.65	425.98
580.82	475.13
580.98	435.34
581.14	390.87
581.30	404.91
581.46	416.62
581.62	451.72
581.78	463.43
581.94	393.21
582.10	372.15
582.26	348.74
582.42	388.53
582.58	442.36
582.74	486.83
582.90	374.49
583.06	365.12
583.22	383.85
583.38	404.91
583.54	430.66
583.70	454.06
583.86	430.66
584.02	440.02
584.18	447.04
584.34	421.30
584.50	353.42
584.66	440.02
584.82	440.02
584.98	358.10
585.14	479.81
585.30	449.38
585.46	407.25
585.62	463.43
585.78	447.04
585.94	393.21
586.10	339.38
586.26	397.89
586.42	472.79
586.58	430.66
586.74	458.74
586.90	416.62
587.06	360.44
587.22	500.87
587.38	414.27
587.54	428.32
587.70	479.81
587.86	456.40
588.02	407.25
588.18	407.25
588.34	442.36
588.49	400.23
588.65	421.30
588.81	390.87
588.97	421.30
589.13	428.32
589.29	456.40
589.45	456.40
589.61	365.12
589.77	463.43
589.93	470.45
590.08	456.40
590.24	388.53
590.40	327.68
590.56	407.25
590.72	402.57
590.88	386.19
591.04	367.46
591.20	367.46
591.35	402.57
591.51	423.64
591.67	423.64
591.83	402.57
591.99	400.23
592.15	470.45
592.31	355.76
592.46	421.30
592.62	369.80
592.78	404.91
592.94	447.04
593.10	414.27
593.26	407.25
593.41	510.24
593.57	423.64
593.73	344.06
593.89	395.55
594.05	388.53
594.20	409.59
594.36	395.55
594.52	383.85
594.68	360.44
594.84	414.27
594.99	454.06
595.15	440.02
595.31	414.27
595.47	428.32
595.62	425.98
595.78	393.21
595.94	463.43
596.10	442.36
596.25	402.57
596.41	456.40
596.57	430.66
596.73	374.49
596.88	395.55
597.04	489.17
597.20	386.19
597.36	447.04
597.51	285.55
597.67	404.91
597.83	411.93
597.99	461.09
598.14	442.36
598.30	521.94
598.46	461.09
598.61	479.81
598.77	407.25
598.93	416.62
599.09	351.08
599.24	386.19
599.40	423.64
599.56	440.02
599.71	393.21
599.87	374.49
600.03	388.53
600.18	374.49
600.34	456.40
600.50	374.49
600.65	400.23
600.81	517.26
600.97	367.46
601.12	428.32
601.28	472.79
601.44	430.66
601.59	351.08
601.75	468.11
601.91	362.78
602.06	444.70
602.22	491.51
602.37	440.02
602.53	442.36
602.69	421.30
602.84	376.83
603.00	416.62
603.16	348.74
603.31	433.00
603.47	447.04
603.62	475.13
603.78	372.15
603.94	418.96
604.09	386.19
604.25	503.22
604.40	435.34
604.56	362.78
604.71	395.55
604.87	393.21
605.03	390.87
605.18	435.34
605.34	421.30
605.49	397.89
605.65	360.44
605.80	271.50
605.96	470.45
606.12	411.93
606.27	491.51
606.43	479.81
606.58	418.96
606.74	369.80
606.89	365.12
607.05	465.77
607.20	458.74
607.36	440.02
607.51	416.62
607.67	423.64
607.82	376.83
607.98	425.98
608.13	400.23
608.29	512.58
608.44	433.00
608.60	404.91
608.75	414.27
608.91	404.91
609.06	353.42
609.22	500.87
609.37	369.80
609.53	411.93
609.68	325.33
609.84	369.80
609.99	454.06
610.15	395.55
610.30	437.68
610.46	379.17
610.61	409.59
610.76	337.04
610.92	379.17
611.07	362.78
611.23	444.70
611.38	489.17
611.54	416.62
611.69	386.19
611.84	386.19
612.00	416.62
612.15	374.49
612.31	397.89
612.46	351.08
612.62	402.57
612.77	454.06
612.92	390.87
613.08	395.55
613.23	440.02
613.39	447.04
613.54	400.23
613.69	465.77
613.85	482.15
614.00	418.96
614.15	421.30
614.31	404.91
614.46	409.59
614.62	376.83
614.77	505.56
614.92	416.62
615.08	437.68
615.23	344.06
615.38	468.11
615.54	414.27
615.69	442.36
615.84	425.98
616.00	353.42
616.15	379.17
616.30	390.87
616.46	393.21
616.61	489.17
616.76	404.91
616.92	365.12
617.07	332.36
617.22	346.40
617.37	388.53
617.53	390.87
617.68	332.36
617.83	425.98
617.99	440.02
618.14	454.06
618.29	402.57
618.45	421.30
618.60	472.79
618.75	444.70
618.90	440.02
619.06	353.42
619.21	442.36
619.36	465.77
619.51	477.47
619.67	346.40
619.82	440.02
619.97	428.32
620.12	486.83
620.28	402.57
620.43	404.91
620.58	407.25
620.73	430.66
620.89	433.00
621.04	454.06
621.19	411.93
621.34	444.70
621.49	416.62
621.65	423.64
621.80	435.34
621.95	351.08
622.10	463.43
622.25	386.19
622.41	397.89
622.56	423.64
622.71	451.72
622.86	491.51
623.01	346.40
623.16	388.53
623.32	418.96
623.47	404.91
623.62	449.38
623.77	411.93
623.92	414.27
624.07	360.44
624.23	454.06
624.38	362.78
624.53	449.38
624.68	344.06
624.83	435.34
624.98	421.30
625.13	435.34
625.29	409.59
625.44	404.91
625.59	407.25
625.74	421.30
625.89	409.59
626.04	430.66
626.19	451.72
626.34	369.80
626.49	425.98
626.65	475.13
626.80	402.57
626.95	440.02
627.10	423.64
627.25	428.32
627.40	390.87
627.55	454.06
627.70	477.47
627.85	468.11
628.00	517.26
628.15	367.46
628.30	346.40
628.45	400.23
628.60	393.21
628.76	353.42
628.91	414.27
629.06	444.70
629.21	435.34
629.36	428.32
629.51	409.59
629.66	397.89
629.81	442.36
629.96	402.57
630.11	454.06
630.26	369.80
630.41	404.91
630.56	482.15
630.71	440.02
630.86	404.91
631.01	397.89
631.16	409.59
631.31	451.72
631.46	440.02
631.61	390.87
631.76	400.23
631.91	376.83
632.06	393.21
632.21	444.70
632.36	514.92
632.51	430.66
632.66	458.74
632.81	411.93
632.96	397.89
633.10	402.57
633.25	360.44
633.40	416.62
633.55	390.87
633.70	409.59
633.85	449.38
634.00	428.32
634.15	388.53
634.30	428.32
634.45	423.64
634.60	437.68
634.75	346.40
634.90	379.17
635.05	430.66
635.19	472.79
635.34	411.93
635.49	381.51
635.64	390.87
635.79	404.91
635.94	393.21
636.09	400.23
636.24	395.55
636.39	418.96
636.53	440.02
636.68	365.12
636.83	358.10
636.98	421.30
637.13	414.27
637.28	388.53
637.43	425.98
637.57	327.68
637.72	411.93
637.87	451.72
638.02	430.66
638.17	458.74
638.32	418.96
638.46	442.36
638.61	395.55
638.76	353.42
638.91	472.79
639.06	447.04
639.20	479.81
639.35	421.30
639.50	484.49
639.65	470.45
639.80	414.27
639.94	402.57
640.09	472.79
640.24	472.79
640.39	444.70
640.54	423.64
640.68	390.87
640.83	451.72
640.98	379.17
641.13	411.93
641.27	348.74
641.42	395.55
641.57	451.72
641.72	367.46
641.86	442.36
642.01	418.96
642.16	456.40
642.31	383.85
642.45	461.09
642.60	421.30
642.75	386.19
642.90	447.04
643.04	414.27
643.19	437.68
643.34	421.30
643.48	379.17
643.63	409.59
643.78	463.43
643.93	451.72
644.07	320.65
644.22	369.80
644.37	407.25
644.51	435.34
644.66	489.17
644.81	423.64
644.95	362.78
645.10	411.93
645.25	479.81
645.39	374.49
645.54	353.42
645.69	442.36
645.83	397.89
645.98	493.85
646.13	449.38
646.27	475.13
646.42	425.98
646.57	416.62
646.71	484.49
646.86	435.34
647.00	470.45
647.15	458.74
647.30	360.44
647.44	409.59
647.59	444.70
647.74	517.26
647.88	447.04
648.03	355.76
648.17	437.68
648.32	379.17
648.47	433.00
648.61	397.89
648.76	322.99
648.90	437.68
649.05	379.17
649.20	379.17
649.34	400.23
649.49	428.32
649.63	374.49
649.78	416.62
649.92	390.87
650.07	437.68
650.21	383.85
650.36	468.11
650.51	381.51
650.65	376.83
650.80	360.44
650.94	444.70
651.09	409.59
651.23	404.91
651.38	404.91
651.52	390.87
651.67	437.68
651.81	383.85
651.96	402.57
652.10	425.98
652.25	463.43
652.39	379.17
652.54	454.06
652.68	472.79
652.83	442.36
652.97	367.46
653.12	365.12
653.26	360.44
653.41	386.19
653.55	416.62
653.70	414.27
653.84	409.59
653.99	440.02
654.13	322.99
654.27	367.46
654.42	367.46
654.56	435.34
654.71	430.66
654.85	454.06
655.00	414.27
655.14	402.57
655.29	337.04
655.43	367.46
655.57	444.70
655.72	402.57
655.86	440.02
656.01	433.00
656.15	456.40
656.30	493.85
656.44	402.57
656.58	390.87
656.73	430.66
656.87	362.78
657.01	390.87
657.16	486.83
657.30	360.44
657.45	425.98
657.59	397.89
657.73	315.97
657.88	435.34
658.02	437.68
658.16	355.76
658.31	374.49
658.45	390.87
658.60	365.12
658.74	414.27
658.88	423.64
659.03	397.89
659.17	355.76
659.31	397.89
659.46	423.64
659.60	463.43
659.74	430.66
659.89	414.27
660.03	393.21
660.17	454.06
660.32	374.49
660.46	400.23
660.60	330.02
660.74	440.02
660.89	430.66
661.03	381.51
661.17	411.93
661.32	358.10
661.46	430.66
661.60	388.53
661.74	379.17
661.89	468.11
662.03	411.93
662.17	381.51
662.31	456.40
662.46	376.83
662.60	411.93
662.74	444.70
662.88	486.83
663.03	376.83
663.17	386.19
663.31	386.19
663.45	425.98
663.60	400.23
663.74	411.93
663.88	456.40
664.02	437.68
664.17	428.32
664.31	468.11
664.45	435.34
664.59	449.38
664.73	425.98
664.88	402.57
665.02	444.70
665.16	433.00
665.30	482.15
665.44	484.49
665.59	411.93
665.73	451.72
665.87	374.49
666.01	433.00
666.15	458.74
666.29	423.64
666.44	404.91
666.58	390.87
666.72	365.12
666.86	411.93
667.00	428.32
667.14	503.22
667.28	428.32
667.43	372.15
667.57	430.66
667.71	397.89
667.85	395.55
667.99	437.68
668.13	407.25
668.27	456.40
668.41	456.40
668.56	442.36
668.70	451.72
668.84	418.96
668.98	433.00
669.12	433.00
669.26	461.09
669.40	395.55
669.54	369.80
669.68	475.13
669.82	379.17
669.96	381.51
670.10	346.40
670.25	383.85
670.39	388.53
670.53	393.21
670.67	475.13
670.81	360.44
670.95	414.27
671.09	440.02
671.23	376.83
671.37	479.81
671.51	430.66
671.65	470.45
671.79	393.21
671.93	449.38
672.07	503.22
672.21	397.89
672.35	339.38
672.49	393.21
672.63	444.70
672.77	374.49
672.91	414.27
673.05	447.04
673.19	386.19
673.33	400.23
673.47	390.87
673.61	367.46
673.75	407.25
673.89	451.72
674.03	430.66
674.17	447.04
674.31	531.30
674.45	454.06
674.59	386.19
674.73	433.00
674.87	425.98
675.01	433.00
675.15	390.87
675.29	440.02
675.43	428.32
675.56	465.77
675.70	416.62
675.84	437.68
675.98	341.72
676.12	397.89
676.26	479.81
676.40	402.57
676.54	381.51
676.68	435.34
676.82	444.70
676.96	400.23
677.10	477.47
677.23	477.47
677.37	425.98
677.51	414.27
677.65	475.13
677.79	416.62
677.93	402.57
678.07	395.55
678.21	430.66
678.34	358.10
678.48	407.25
678.62	449.38
678.76	395.55
678.90	437.68
679.04	421.30
679.18	407.25
679.31	374.49
679.45	428.32
679.59	423.64
679.73	407.25
679.87	428.32
680.00	402.57
680.14	358.10
680.28	372.15
680.42	372.15
680.56	395.55
680.70	402.57
680.83	381.51
680.97	367.46
681.11	402.57
681.25	360.44
681.39	320.65
681.52	468.11
681.66	409.59
681.80	411.93
681.94	369.80
682.07	379.17
682.21	454.06
682.35	395.55
682.49	390.87
682.62	376.83
682.76	390.87
682.90	468.11
683.04	418.96
683.17	440.02
683.31	358.10
683.45	372.15
683.59	482.15
683.72	440.02
683.86	416.62
684.00	440.02
684.13	456.40
684.27	421.30
684.41	458.74
684.55	402.57
684.68	456.40
684.82	414.27
684.96	423.64
685.09	416.62
685.23	376.83
685.37	395.55
685.50	421.30
685.64	482.15
685.78	358.10
685.91	496.19
686.05	411.93
686.19	397.89
686.32	456.40
686.46	372.15
686.60	428.32
686.73	423.64
686.87	437.68
687.01	315.97
687.14	404.91
687.28	374.49
687.42	341.72
687.55	472.79
687.69	428.32
687.82	416.62
687.96	423.64
688.10	430.66
688.23	372.15
688.37	365.12
688.50	353.42
688.64	454.06
688.78	362.78
688.91	374.49
689.05	407.25
689.18	463.43
689.32	463.43
689.46	496.19
689.59	411.93
689.73	425.98
689.86	379.17
690.00	458.74
690.13	444.70
690.27	409.59
690.41	433.00
690.54	376.83
690.68	322.99
690.81	339.38
690.95	402.57
691.08	454.06
691.22	444.70
691.35	337.04
691.49	379.17
691.62	470.45
691.76	367.46
691.89	423.64
692.03	407.25
692.16	388.53
692.30	369.80
692.43	381.51
692.57	425.98
692.70	411.93
692.84	418.96
692.97	465.77
693.11	428.32
693.24	358.10
693.38	414.27
693.51	390.87
693.65	402.57
693.78	407.25
693.92	444.70
694.05	362.78
694.19	440.02
694.32	458.74
694.45	386.19
694.59	435.34
694.72	402.57
694.86	374.49
694.99	409.59
695.13	404.91
695.26	381.51
695.39	365.12
695.53	418.96
695.66	418.96
695.80	442.36
695.93	386.19
696.07	407.25
696.20	381.51
696.33	351.08
696.47	381.51
696.60	414.27
696.73	381.51
696.87	416.62
697.00	451.72
697.14	360.44
697.27	393.21
697.40	470.45
697.54	367.46
697.67	425.98
697.80	449.38
697.94	416.62
698.07	433.00
698.21	400.23
698.34	407.25
698.47	344.06
698.61	346.40
698.74	367.46
698.87	402.57
699.01	400.23
699.14	395.55
699.27	437.68
699.40	496.19
699.54	348.74
699.67	395.55
699.80	390.87
699.94	477.47
700.07	395.55
700.20	388.53
700.34	322.99
700.47	395.55
700.60	404.91
700.73	379.17
700.87	402.57
701.00	510.24
701.13	468.11
701.26	404.91
701.40	341.72
701.53	440.02
701.66	390.87
701.79	369.80
701.93	383.85
702.06	514.92
702.19	365.12
702.32	430.66
702.46	442.36
702.59	430.66
702.72	393.21
702.85	360.44
702.99	404.91
703.12	376.83
703.25	346.40
703.38	461.09
703.51	430.66
703.65	372.15
703.78	390.87
703.91	444.70
704.04	428.32
704.17	404.91
704.31	383.85
704.44	386.19
704.57	454.06
704.70	400.23
704.83	404.91
704.96	388.53
705.10	367.46
705.23	442.36
>>>>>End Processed Spectral Data<<<<<
