SpectraSuite Data File
++++++++++++++++++++++++++++++++++++
Date: Fri Oct 25 12:10:54 EDT 2013
User: price-jones
Dark Spectrum Present: No
Reference Spectrum Present: No
Number of Sampled Component Spectra: 1
Spectrometers: USB2+H05261
Integration Time (usec): 100000 (USB2+H05261)
Spectra Averaged: 1 (USB2+H05261)
Boxcar Smoothing: 0 (USB2+H05261)
Correct for Electrical Dark: No (USB2+H05261)
Strobe/Lamp Enabled: No (USB2+H05261)
Correct for Detector Non-linearity: No (USB2+H05261)
Correct for Stray Light: No (USB2+H05261)
Number of Pixels in Processed Spectrum: 2048
>>>>>Begin Processed Spectral Data<<<<<
365.73	278.52
365.92	278.52
366.12	278.52
366.32	330.02
366.52	264.48
366.72	180.22
366.91	152.13
367.11	187.24
367.31	231.71
367.51	229.37
367.70	306.61
367.90	276.18
368.10	262.14
368.30	285.55
368.49	301.93
368.69	252.78
368.89	238.73
369.09	245.76
369.28	217.67
369.48	241.08
369.68	318.31
369.87	322.99
370.07	390.87
370.27	423.64
370.47	266.82
370.66	304.27
370.86	292.57
371.06	334.70
371.25	468.11
371.45	411.93
371.65	388.53
371.84	376.83
372.04	383.85
372.24	393.21
372.44	407.25
372.63	425.98
372.83	379.17
373.03	374.49
373.22	358.10
373.42	463.43
373.62	416.62
373.81	423.64
374.01	421.30
374.21	437.68
374.40	411.93
374.60	430.66
374.79	440.02
374.99	454.06
375.19	353.42
375.38	430.66
375.58	458.74
375.78	444.70
375.97	507.90
376.17	411.93
376.37	416.62
376.56	498.53
376.76	362.78
376.95	358.10
377.15	416.62
377.35	428.32
377.54	423.64
377.74	437.68
377.93	400.23
378.13	416.62
378.33	428.32
378.52	456.40
378.72	430.66
378.91	351.08
379.11	362.78
379.31	416.62
379.50	475.13
379.70	550.03
379.89	404.91
380.09	397.89
380.28	390.87
380.48	402.57
380.68	395.55
380.87	388.53
381.07	407.25
381.26	416.62
381.46	407.25
381.65	372.15
381.85	418.96
382.04	383.85
382.24	416.62
382.43	409.59
382.63	372.15
382.83	461.09
383.02	418.96
383.22	390.87
383.41	386.19
383.61	341.72
383.80	470.45
384.00	407.25
384.19	397.89
384.39	414.27
384.58	395.55
384.78	402.57
384.97	447.04
385.17	322.99
385.36	479.81
385.56	386.19
385.75	390.87
385.95	442.36
386.14	397.89
386.34	372.15
386.53	374.49
386.72	369.80
386.92	402.57
387.11	348.74
387.31	344.06
387.50	327.68
387.70	390.87
387.89	386.19
388.09	449.38
388.28	416.62
388.48	390.87
388.67	325.33
388.86	383.85
389.06	393.21
389.25	397.89
389.45	376.83
389.64	379.17
389.84	503.22
390.03	360.44
390.22	386.19
390.42	360.44
390.61	322.99
390.81	348.74
391.00	388.53
391.19	376.83
391.39	390.87
391.58	519.60
391.78	407.25
391.97	440.02
392.16	402.57
392.36	461.09
392.55	390.87
392.75	362.78
392.94	458.74
393.13	407.25
393.33	386.19
393.52	454.06
393.71	421.30
393.91	418.96
394.10	374.49
394.29	404.91
394.49	379.17
394.68	348.74
394.88	407.25
395.07	411.93
395.26	402.57
395.46	414.27
395.65	411.93
395.84	381.51
396.04	444.70
396.23	353.42
396.42	416.62
396.62	400.23
396.81	423.64
397.00	411.93
397.19	421.30
397.39	393.21
397.58	397.89
397.77	407.25
397.97	454.06
398.16	430.66
398.35	423.64
398.55	425.98
398.74	425.98
398.93	423.64
399.12	489.17
399.32	411.93
399.51	433.00
399.70	388.53
399.90	374.49
400.09	454.06
400.28	369.80
400.47	360.44
400.67	430.66
400.86	383.85
401.05	451.72
401.24	423.64
401.44	365.12
401.63	362.78
401.82	353.42
402.01	407.25
402.21	404.91
402.40	374.49
402.59	416.62
402.78	465.77
402.97	407.25
403.17	411.93
403.36	383.85
403.55	463.43
403.74	402.57
403.93	397.89
404.13	510.24
404.32	386.19
404.51	411.93
404.70	388.53
404.89	388.53
405.09	510.24
405.28	463.43
405.47	344.06
405.66	447.04
405.85	416.62
406.05	388.53
406.24	400.23
406.43	416.62
406.62	435.34
406.81	442.36
407.00	458.74
407.20	409.59
407.39	367.46
407.58	440.02
407.77	433.00
407.96	437.68
408.15	428.32
408.34	388.53
408.54	381.51
408.73	421.30
408.92	404.91
409.11	449.38
409.30	414.27
409.49	393.21
409.68	397.89
409.87	433.00
410.07	416.62
410.26	418.96
410.45	447.04
410.64	372.15
410.83	414.27
411.02	381.51
411.21	386.19
411.40	402.57
411.59	425.98
411.78	390.87
411.98	379.17
412.17	313.63
412.36	376.83
412.55	376.83
412.74	416.62
412.93	451.72
413.12	346.40
413.31	447.04
413.50	404.91
413.69	395.55
413.88	517.26
414.07	388.53
414.26	411.93
414.45	388.53
414.64	379.17
414.83	376.83
415.02	393.21
415.22	397.89
415.41	475.13
415.60	437.68
415.79	395.55
415.98	477.47
416.17	423.64
416.36	411.93
416.55	369.80
416.74	418.96
416.93	393.21
417.12	404.91
417.31	397.89
417.50	339.38
417.69	447.04
417.88	386.19
418.07	395.55
418.26	365.12
418.45	428.32
418.64	500.87
418.83	381.51
419.02	379.17
419.21	290.23
419.39	428.32
419.58	337.04
419.77	395.55
419.96	416.62
420.15	444.70
420.34	379.17
420.53	355.76
420.72	367.46
420.91	376.83
421.10	339.38
421.29	444.70
421.48	418.96
421.67	411.93
421.86	351.08
422.05	458.74
422.24	367.46
422.43	407.25
422.61	379.17
422.80	376.83
422.99	358.10
423.18	416.62
423.37	416.62
423.56	423.64
423.75	379.17
423.94	402.57
424.13	430.66
424.32	442.36
424.50	390.87
424.69	388.53
424.88	374.49
425.07	294.91
425.26	393.21
425.45	463.43
425.64	367.46
425.83	440.02
426.01	379.17
426.20	421.30
426.39	433.00
426.58	400.23
426.77	435.34
426.96	383.85
427.15	395.55
427.33	404.91
427.52	411.93
427.71	416.62
427.90	386.19
428.09	463.43
428.28	425.98
428.46	334.70
428.65	393.21
428.84	454.06
429.03	479.81
429.22	425.98
429.40	404.91
429.59	400.23
429.78	393.21
429.97	376.83
430.16	411.93
430.34	418.96
430.53	447.04
430.72	479.81
430.91	421.30
431.10	404.91
431.28	423.64
431.47	395.55
431.66	423.64
431.85	395.55
432.03	472.79
432.22	402.57
432.41	442.36
432.60	482.15
432.79	475.13
432.97	388.53
433.16	409.59
433.35	365.12
433.54	444.70
433.72	430.66
433.91	367.46
434.10	435.34
434.28	400.23
434.47	428.32
434.66	395.55
434.85	404.91
435.03	383.85
435.22	397.89
435.41	440.02
435.59	355.76
435.78	372.15
435.97	348.74
436.16	444.70
436.34	376.83
436.53	416.62
436.72	435.34
436.90	449.38
437.09	315.97
437.28	374.49
437.46	447.04
437.65	393.21
437.84	454.06
438.02	353.42
438.21	400.23
438.40	409.59
438.58	372.15
438.77	358.10
438.96	414.27
439.14	404.91
439.33	440.02
439.52	414.27
439.70	390.87
439.89	409.59
440.08	355.76
440.26	416.62
440.45	374.49
440.63	423.64
440.82	386.19
441.01	421.30
441.19	400.23
441.38	440.02
441.57	351.08
441.75	423.64
441.94	456.40
442.12	388.53
442.31	402.57
442.50	379.17
442.68	418.96
442.87	421.30
443.05	374.49
443.24	428.32
443.43	493.85
443.61	454.06
443.80	386.19
443.98	463.43
444.17	409.59
444.35	475.13
444.54	423.64
444.73	395.55
444.91	435.34
445.10	402.57
445.28	369.80
445.47	465.77
445.65	430.66
445.84	404.91
446.02	388.53
446.21	447.04
446.39	451.72
446.58	404.91
446.77	461.09
446.95	379.17
447.14	388.53
447.32	440.02
447.51	435.34
447.69	479.81
447.88	435.34
448.06	451.72
448.25	376.83
448.43	428.32
448.62	409.59
448.80	451.72
448.99	390.87
449.17	486.83
449.36	440.02
449.54	416.62
449.73	411.93
449.91	409.59
450.10	386.19
450.28	423.64
450.46	421.30
450.65	416.62
450.83	489.17
451.02	433.00
451.20	402.57
451.39	379.17
451.57	423.64
451.76	404.91
451.94	404.91
452.13	470.45
452.31	458.74
452.49	421.30
452.68	393.21
452.86	435.34
453.05	470.45
453.23	423.64
453.42	395.55
453.60	407.25
453.78	414.27
453.97	402.57
454.15	411.93
454.34	416.62
454.52	418.96
454.70	458.74
454.89	423.64
455.07	358.10
455.26	379.17
455.44	362.78
455.62	425.98
455.81	367.46
455.99	383.85
456.17	404.91
456.36	388.53
456.54	348.74
456.73	440.02
456.91	407.25
457.09	332.36
457.28	404.91
457.46	430.66
457.64	430.66
457.83	418.96
458.01	458.74
458.19	374.49
458.38	433.00
458.56	425.98
458.74	437.68
458.93	489.17
459.11	482.15
459.29	458.74
459.48	447.04
459.66	468.11
459.84	447.04
460.03	498.53
460.21	449.38
460.39	442.36
460.57	418.96
460.76	400.23
460.94	461.09
461.12	503.22
461.31	397.89
461.49	451.72
461.67	395.55
461.85	407.25
462.04	423.64
462.22	791.10
462.40	351.08
462.59	404.91
462.77	369.80
462.95	390.87
463.13	322.99
463.32	411.93
463.50	437.68
463.68	404.91
463.86	425.98
464.05	423.64
464.23	411.93
464.41	404.91
464.59	465.77
464.78	428.32
464.96	273.84
465.14	367.46
465.32	449.38
465.50	465.77
465.69	440.02
465.87	297.25
466.05	456.40
466.23	402.57
466.41	444.70
466.60	423.64
466.78	337.04
466.96	454.06
467.14	440.02
467.32	458.74
467.51	486.83
467.69	435.34
467.87	472.79
468.05	386.19
468.23	491.51
468.41	463.43
468.60	430.66
468.78	449.38
468.96	395.55
469.14	430.66
469.32	465.77
469.50	379.17
469.69	486.83
469.87	386.19
470.05	351.08
470.23	456.40
470.41	404.91
470.59	360.44
470.77	440.02
470.95	397.89
471.14	463.43
471.32	451.72
471.50	418.96
471.68	503.22
471.86	379.17
472.04	409.59
472.22	395.55
472.40	341.72
472.58	437.68
472.77	362.78
472.95	425.98
473.13	479.81
473.31	440.02
473.49	425.98
473.67	463.43
473.85	395.55
474.03	442.36
474.21	442.36
474.39	484.49
474.57	425.98
474.75	444.70
474.93	430.66
475.12	374.49
475.30	383.85
475.48	486.83
475.66	421.30
475.84	435.34
476.02	339.38
476.20	435.34
476.38	442.36
476.56	519.60
476.74	447.04
476.92	376.83
477.10	423.64
477.28	404.91
477.46	365.12
477.64	416.62
477.82	475.13
478.00	351.08
478.18	407.25
478.36	397.89
478.54	458.74
478.72	468.11
478.90	444.70
479.08	440.02
479.26	433.00
479.44	383.85
479.62	411.93
479.80	454.06
479.98	339.38
480.16	402.57
480.34	418.96
480.52	383.85
480.70	407.25
480.88	479.81
481.06	369.80
481.24	369.80
481.41	381.51
481.59	447.04
481.77	454.06
481.95	411.93
482.13	463.43
482.31	400.23
482.49	386.19
482.67	461.09
482.85	425.98
483.03	374.49
483.21	449.38
483.39	428.32
483.57	411.93
483.74	449.38
483.92	461.09
484.10	416.62
484.28	414.27
484.46	404.91
484.64	381.51
484.82	400.23
485.00	409.59
485.18	425.98
485.35	456.40
485.53	479.81
485.71	454.06
485.89	440.02
486.07	451.72
486.25	496.19
486.43	442.36
486.61	411.93
486.78	383.85
486.96	407.25
487.14	444.70
487.32	407.25
487.50	367.46
487.68	456.40
487.85	376.83
488.03	425.98
488.21	428.32
488.39	433.00
488.57	407.25
488.75	395.55
488.92	500.87
489.10	421.30
489.28	388.53
489.46	332.36
489.64	416.62
489.81	402.57
489.99	407.25
490.17	358.10
490.35	411.93
490.53	435.34
490.70	425.98
490.88	386.19
491.06	393.21
491.24	442.36
491.41	451.72
491.59	465.77
491.77	421.30
491.95	327.68
492.13	372.15
492.30	456.40
492.48	390.87
492.66	374.49
492.84	397.89
493.01	433.00
493.19	433.00
493.37	482.15
493.54	458.74
493.72	430.66
493.90	376.83
494.08	444.70
494.25	397.89
494.43	395.55
494.61	463.43
494.79	461.09
494.96	397.89
495.14	402.57
495.32	465.77
495.49	388.53
495.67	458.74
495.85	430.66
496.02	402.57
496.20	442.36
496.38	472.79
496.55	397.89
496.73	397.89
496.91	421.30
497.09	383.85
497.26	428.32
497.44	402.57
497.62	454.06
497.79	402.57
497.97	418.96
498.14	402.57
498.32	486.83
498.50	507.90
498.67	400.23
498.85	425.98
499.03	365.12
499.20	433.00
499.38	435.34
499.56	416.62
499.73	440.02
499.91	435.34
500.08	428.32
500.26	440.02
500.44	442.36
500.61	472.79
500.79	486.83
500.97	475.13
501.14	397.89
501.32	421.30
501.49	461.09
501.67	489.17
501.84	348.74
502.02	383.85
502.20	362.78
502.37	376.83
502.55	404.91
502.72	519.60
502.90	433.00
503.07	411.93
503.25	482.15
503.43	299.59
503.60	367.46
503.78	409.59
503.95	444.70
504.13	402.57
504.30	428.32
504.48	468.11
504.65	374.49
504.83	421.30
505.01	411.93
505.18	376.83
505.36	411.93
505.53	407.25
505.71	400.23
505.88	425.98
506.06	414.27
506.23	360.44
506.41	381.51
506.58	411.93
506.76	395.55
506.93	383.85
507.11	458.74
507.28	393.21
507.46	400.23
507.63	449.38
507.81	472.79
507.98	414.27
508.16	425.98
508.33	437.68
508.50	435.34
508.68	437.68
508.85	421.30
509.03	418.96
509.20	454.06
509.38	423.64
509.55	456.40
509.73	454.06
509.90	437.68
510.08	416.62
510.25	538.32
510.42	346.40
510.60	374.49
510.77	433.00
510.95	435.34
511.12	383.85
511.30	409.59
511.47	348.74
511.64	444.70
511.82	407.25
511.99	430.66
512.17	386.19
512.34	390.87
512.51	372.15
512.69	386.19
512.86	402.57
513.04	365.12
513.21	442.36
513.38	477.47
513.56	447.04
513.73	461.09
513.90	367.46
514.08	409.59
514.25	360.44
514.43	496.19
514.60	334.70
514.77	468.11
514.95	447.04
515.12	470.45
515.29	447.04
515.47	416.62
515.64	484.49
515.81	470.45
515.99	486.83
516.16	463.43
516.33	465.77
516.51	423.64
516.68	416.62
516.85	428.32
517.03	449.38
517.20	437.68
517.37	505.56
517.54	484.49
517.72	388.53
517.89	411.93
518.06	421.30
518.24	388.53
518.41	418.96
518.58	379.17
518.75	397.89
518.93	388.53
519.10	414.27
519.27	489.17
519.45	437.68
519.62	468.11
519.79	383.85
519.96	397.89
520.14	397.89
520.31	433.00
520.48	437.68
520.65	433.00
520.83	489.17
521.00	411.93
521.17	437.68
521.34	421.30
521.52	423.64
521.69	407.25
521.86	414.27
522.03	383.85
522.20	444.70
522.38	351.08
522.55	433.00
522.72	411.93
522.89	440.02
523.07	421.30
523.24	379.17
523.41	395.55
523.58	381.51
523.75	454.06
523.92	395.55
524.10	418.96
524.27	400.23
524.44	407.25
524.61	418.96
524.78	425.98
524.96	472.79
525.13	435.34
525.30	409.59
525.47	437.68
525.64	390.87
525.81	444.70
525.98	393.21
526.16	388.53
526.33	397.89
526.50	442.36
526.67	414.27
526.84	383.85
527.01	479.81
527.18	440.02
527.36	407.25
527.53	388.53
527.70	463.43
527.87	409.59
528.04	503.22
528.21	437.68
528.38	393.21
528.55	442.36
528.72	468.11
528.89	468.11
529.07	418.96
529.24	428.32
529.41	477.47
529.58	397.89
529.75	477.47
529.92	442.36
530.09	407.25
530.26	440.02
530.43	463.43
530.60	395.55
530.77	322.99
530.94	451.72
531.11	477.47
531.28	404.91
531.46	395.55
531.63	421.30
531.80	451.72
531.97	433.00
532.14	435.34
532.31	393.21
532.48	416.62
532.65	421.30
532.82	376.83
532.99	454.06
533.16	451.72
533.33	449.38
533.50	402.57
533.67	386.19
533.84	395.55
534.01	407.25
534.18	353.42
534.35	383.85
534.52	442.36
534.69	402.57
534.86	440.02
535.03	418.96
535.20	348.74
535.37	458.74
535.54	425.98
535.71	344.06
535.88	470.45
536.05	428.32
536.22	435.34
536.38	393.21
536.55	409.59
536.72	407.25
536.89	447.04
537.06	393.21
537.23	409.59
537.40	475.13
537.57	362.78
537.74	447.04
537.91	491.51
538.08	388.53
538.25	468.11
538.42	428.32
538.59	404.91
538.75	390.87
538.92	409.59
539.09	440.02
539.26	418.96
539.43	421.30
539.60	421.30
539.77	425.98
539.94	454.06
540.11	442.36
540.28	496.19
540.44	437.68
540.61	369.80
540.78	383.85
540.95	414.27
541.12	463.43
541.29	348.74
541.46	393.21
541.62	430.66
541.79	330.02
541.96	379.17
542.13	468.11
542.30	355.76
542.47	440.02
542.63	425.98
542.80	411.93
542.97	423.64
543.14	433.00
543.31	428.32
543.48	421.30
543.64	418.96
543.81	465.77
543.98	393.21
544.15	416.62
544.32	393.21
544.48	372.15
544.65	414.27
544.82	430.66
544.99	435.34
545.16	437.68
545.32	430.66
545.49	369.80
545.66	348.74
545.83	395.55
546.00	395.55
546.16	512.58
546.33	397.89
546.50	477.47
546.67	461.09
546.83	454.06
547.00	437.68
547.17	414.27
547.34	388.53
547.50	397.89
547.67	411.93
547.84	365.12
548.00	444.70
548.17	411.93
548.34	425.98
548.51	428.32
548.67	367.46
548.84	437.68
549.01	388.53
549.18	376.83
549.34	416.62
549.51	397.89
549.68	393.21
549.84	358.10
550.01	414.27
550.18	449.38
550.34	507.90
550.51	423.64
550.68	447.04
550.84	414.27
551.01	320.65
551.18	472.79
551.34	425.98
551.51	409.59
551.68	395.55
551.84	433.00
552.01	428.32
552.18	425.98
552.34	421.30
552.51	435.34
552.68	458.74
552.84	454.06
553.01	411.93
553.18	388.53
553.34	454.06
553.51	454.06
553.67	454.06
553.84	458.74
554.01	451.72
554.17	414.27
554.34	397.89
554.51	472.79
554.67	463.43
554.84	472.79
555.00	475.13
555.17	421.30
555.33	531.30
555.50	388.53
555.67	395.55
555.83	416.62
556.00	437.68
556.16	575.77
556.33	430.66
556.50	430.66
556.66	442.36
556.83	421.30
556.99	379.17
557.16	437.68
557.32	421.30
557.49	386.19
557.65	397.89
557.82	379.17
557.98	379.17
558.15	360.44
558.32	428.32
558.48	425.98
558.65	372.15
558.81	463.43
558.98	353.42
559.14	491.51
559.31	430.66
559.47	411.93
559.64	402.57
559.80	440.02
559.97	400.23
560.13	386.19
560.30	430.66
560.46	374.49
560.63	433.00
560.79	411.93
560.96	344.06
561.12	430.66
561.29	395.55
561.45	381.51
561.61	423.64
561.78	543.00
561.94	454.06
562.11	397.89
562.27	479.81
562.44	379.17
562.60	395.55
562.77	393.21
562.93	496.19
563.10	477.47
563.26	430.66
563.42	475.13
563.59	400.23
563.75	433.00
563.92	479.81
564.08	440.02
564.24	423.64
564.41	456.40
564.57	369.80
564.74	390.87
564.90	372.15
565.07	423.64
565.23	397.89
565.39	425.98
565.56	404.91
565.72	461.09
565.88	437.68
566.05	411.93
566.21	449.38
566.38	433.00
566.54	430.66
566.70	381.51
566.87	344.06
567.03	402.57
567.19	404.91
567.36	468.11
567.52	409.59
567.68	365.12
567.85	449.38
568.01	414.27
568.17	465.77
568.34	482.15
568.50	425.98
568.66	414.27
568.83	414.27
568.99	489.17
569.15	449.38
569.32	404.91
569.48	372.15
569.64	479.81
569.81	395.55
569.97	332.36
570.13	404.91
570.30	454.06
570.46	404.91
570.62	447.04
570.78	416.62
570.95	454.06
571.11	449.38
571.27	442.36
571.43	393.21
571.60	425.98
571.76	409.59
571.92	346.40
572.09	423.64
572.25	404.91
572.41	456.40
572.57	437.68
572.74	475.13
572.90	418.96
573.06	451.72
573.22	418.96
573.38	442.36
573.55	451.72
573.71	411.93
573.87	430.66
574.03	381.51
574.20	465.77
574.36	491.51
574.52	442.36
574.68	414.27
574.84	409.59
575.01	496.19
575.17	430.66
575.33	461.09
575.49	369.80
575.65	423.64
575.82	383.85
575.98	454.06
576.14	465.77
576.30	454.06
576.46	355.76
576.62	365.12
576.79	414.27
576.95	484.49
577.11	409.59
577.27	472.79
577.43	458.74
577.59	383.85
577.75	444.70
577.92	468.11
578.08	311.29
578.24	388.53
578.40	479.81
578.56	440.02
578.72	425.98
578.88	348.74
579.04	440.02
579.21	454.06
579.37	416.62
579.53	440.02
579.69	435.34
579.85	402.57
580.01	444.70
580.17	358.10
580.33	437.68
580.49	416.62
580.65	486.83
580.82	447.04
580.98	425.98
581.14	388.53
581.30	430.66
581.46	440.02
581.62	442.36
581.78	395.55
581.94	397.89
582.10	339.38
582.26	423.64
582.42	465.77
582.58	454.06
582.74	348.74
582.90	470.45
583.06	449.38
583.22	447.04
583.38	367.46
583.54	479.81
583.70	430.66
583.86	393.21
584.02	430.66
584.18	496.19
584.34	358.10
584.50	390.87
584.66	477.47
584.82	418.96
584.98	402.57
585.14	423.64
585.30	407.25
585.46	479.81
585.62	454.06
585.78	521.94
585.94	423.64
586.10	327.68
586.26	451.72
586.42	472.79
586.58	407.25
586.74	449.38
586.90	397.89
587.06	393.21
587.22	325.33
587.38	463.43
587.54	351.08
587.70	425.98
587.86	489.17
588.02	402.57
588.18	397.89
588.34	433.00
588.49	360.44
588.65	383.85
588.81	414.27
588.97	449.38
589.13	393.21
589.29	414.27
589.45	433.00
589.61	421.30
589.77	463.43
589.93	449.38
590.08	461.09
590.24	449.38
590.40	393.21
590.56	390.87
590.72	416.62
590.88	351.08
591.04	395.55
591.20	409.59
591.35	407.25
591.51	388.53
591.67	433.00
591.83	418.96
591.99	409.59
592.15	514.92
592.31	383.85
592.46	397.89
592.62	430.66
592.78	386.19
592.94	435.34
593.10	454.06
593.26	395.55
593.41	421.30
593.57	477.47
593.73	475.13
593.89	428.32
594.05	393.21
594.20	428.32
594.36	444.70
594.52	423.64
594.68	369.80
594.84	463.43
594.99	423.64
595.15	360.44
595.31	397.89
595.47	470.45
595.62	411.93
595.78	461.09
595.94	353.42
596.10	416.62
596.25	416.62
596.41	395.55
596.57	440.02
596.73	383.85
596.88	395.55
597.04	411.93
597.20	327.68
597.36	500.87
597.51	421.30
597.67	414.27
597.83	449.38
597.99	449.38
598.14	397.89
598.30	470.45
598.46	346.40
598.61	465.77
598.77	461.09
598.93	400.23
599.09	374.49
599.24	386.19
599.40	418.96
599.56	454.06
599.71	414.27
599.87	449.38
600.03	465.77
600.18	404.91
600.34	409.59
600.50	418.96
600.65	388.53
600.81	482.15
600.97	440.02
601.12	395.55
601.28	397.89
601.44	437.68
601.59	402.57
601.75	465.77
601.91	397.89
602.06	433.00
602.22	491.51
602.37	404.91
602.53	428.32
602.69	430.66
602.84	454.06
603.00	475.13
603.16	437.68
603.31	489.17
603.47	428.32
603.62	369.80
603.78	351.08
603.94	421.30
604.09	411.93
604.25	400.23
604.40	454.06
604.56	402.57
604.71	381.51
604.87	458.74
605.03	444.70
605.18	458.74
605.34	461.09
605.49	433.00
605.65	433.00
605.80	397.89
605.96	381.51
606.12	411.93
606.27	395.55
606.43	376.83
606.58	477.47
606.74	428.32
606.89	477.47
607.05	418.96
607.20	456.40
607.36	447.04
607.51	451.72
607.67	362.78
607.82	388.53
607.98	404.91
608.13	327.68
608.29	365.12
608.44	437.68
608.60	423.64
608.75	458.74
608.91	353.42
609.06	435.34
609.22	430.66
609.37	435.34
609.53	397.89
609.68	360.44
609.84	374.49
609.99	463.43
610.15	416.62
610.30	425.98
610.46	374.49
610.61	430.66
610.76	411.93
610.92	477.47
611.07	428.32
611.23	461.09
611.38	411.93
611.54	402.57
611.69	395.55
611.84	423.64
612.00	393.21
612.15	472.79
612.31	379.17
612.46	379.17
612.62	365.12
612.77	454.06
612.92	416.62
613.08	456.40
613.23	414.27
613.39	355.76
613.54	433.00
613.69	388.53
613.85	437.68
614.00	395.55
614.15	425.98
614.31	461.09
614.46	451.72
614.62	458.74
614.77	386.19
614.92	433.00
615.08	461.09
615.23	449.38
615.38	358.10
615.54	407.25
615.69	374.49
615.84	421.30
616.00	407.25
616.15	362.78
616.30	299.59
616.46	528.96
616.61	437.68
616.76	430.66
616.92	362.78
617.07	414.27
617.22	498.53
617.37	442.36
617.53	416.62
617.68	414.27
617.83	383.85
617.99	454.06
618.14	407.25
618.29	449.38
618.45	407.25
618.60	402.57
618.75	365.12
618.90	428.32
619.06	421.30
619.21	449.38
619.36	376.83
619.51	320.65
619.67	360.44
619.82	379.17
619.97	400.23
620.12	440.02
620.28	461.09
620.43	430.66
620.58	465.77
620.73	461.09
620.89	365.12
621.04	409.59
621.19	393.21
621.34	362.78
621.49	444.70
621.65	418.96
621.80	402.57
621.95	425.98
622.10	388.53
622.25	447.04
622.41	456.40
622.56	456.40
622.71	442.36
622.86	440.02
623.01	428.32
623.16	381.51
623.32	423.64
623.47	393.21
623.62	341.72
623.77	351.08
623.92	425.98
624.07	433.00
624.23	383.85
624.38	388.53
624.53	395.55
624.68	402.57
624.83	409.59
624.98	353.42
625.13	341.72
625.29	407.25
625.44	433.00
625.59	451.72
625.74	381.51
625.89	440.02
626.04	353.42
626.19	411.93
626.34	402.57
626.49	414.27
626.65	444.70
626.80	463.43
626.95	416.62
627.10	376.83
627.25	414.27
627.40	409.59
627.55	503.22
627.70	440.02
627.85	435.34
628.00	339.38
628.15	400.23
628.30	381.51
628.45	428.32
628.60	430.66
628.76	437.68
628.91	437.68
629.06	393.21
629.21	416.62
629.36	512.58
629.51	414.27
629.66	458.74
629.81	404.91
629.96	416.62
630.11	404.91
630.26	486.83
630.41	355.76
630.56	411.93
630.71	430.66
630.86	456.40
631.01	381.51
631.16	491.51
631.31	386.19
631.46	425.98
631.61	400.23
631.76	383.85
631.91	411.93
632.06	440.02
632.21	468.11
632.36	435.34
632.51	477.47
632.66	435.34
632.81	365.12
632.96	486.83
633.10	493.85
633.25	437.68
633.40	383.85
633.55	411.93
633.70	355.76
633.85	411.93
634.00	388.53
634.15	454.06
634.30	407.25
634.45	470.45
634.60	353.42
634.75	390.87
634.90	416.62
635.05	507.90
635.19	344.06
635.34	397.89
635.49	423.64
635.64	404.91
635.79	411.93
635.94	388.53
636.09	411.93
636.24	416.62
636.39	470.45
636.53	435.34
636.68	451.72
636.83	416.62
636.98	482.15
637.13	311.29
637.28	411.93
637.43	521.94
637.57	409.59
637.72	493.85
637.87	447.04
638.02	381.51
638.17	468.11
638.32	402.57
638.46	393.21
638.61	433.00
638.76	402.57
638.91	383.85
639.06	409.59
639.20	440.02
639.35	397.89
639.50	416.62
639.65	477.47
639.80	418.96
639.94	456.40
640.09	442.36
640.24	498.53
640.39	348.74
640.54	447.04
640.68	390.87
640.83	425.98
640.98	404.91
641.13	428.32
641.27	437.68
641.42	444.70
641.57	437.68
641.72	339.38
641.86	402.57
642.01	332.36
642.16	500.87
642.31	468.11
642.45	395.55
642.60	416.62
642.75	489.17
642.90	493.85
643.04	388.53
643.19	402.57
643.34	423.64
643.48	367.46
643.63	367.46
643.78	376.83
643.93	491.51
644.07	369.80
644.22	383.85
644.37	369.80
644.51	442.36
644.66	386.19
644.81	428.32
644.95	435.34
645.10	489.17
645.25	430.66
645.39	411.93
645.54	381.51
645.69	337.04
645.83	358.10
645.98	421.30
646.13	397.89
646.27	468.11
646.42	397.89
646.57	425.98
646.71	397.89
646.86	393.21
647.00	456.40
647.15	435.34
647.30	440.02
647.44	433.00
647.59	386.19
647.74	322.99
647.88	409.59
648.03	458.74
648.17	444.70
648.32	402.57
648.47	414.27
648.61	444.70
648.76	447.04
648.90	376.83
649.05	397.89
649.20	390.87
649.34	369.80
649.49	402.57
649.63	355.76
649.78	376.83
649.92	430.66
650.07	390.87
650.21	379.17
650.36	409.59
650.51	386.19
650.65	517.26
650.80	369.80
650.94	437.68
651.09	451.72
651.23	440.02
651.38	425.98
651.52	388.53
651.67	440.02
651.81	397.89
651.96	416.62
652.10	475.13
652.25	440.02
652.39	416.62
652.54	496.19
652.68	444.70
652.83	395.55
652.97	407.25
653.12	393.21
653.26	423.64
653.41	489.17
653.55	447.04
653.70	355.76
653.84	372.15
653.99	404.91
654.13	365.12
654.27	491.51
654.42	351.08
654.56	435.34
654.71	456.40
654.85	447.04
655.00	442.36
655.14	416.62
655.29	388.53
655.43	442.36
655.57	381.51
655.72	388.53
655.86	383.85
656.01	449.38
656.15	325.33
656.30	454.06
656.44	372.15
656.58	358.10
656.73	383.85
656.87	376.83
657.01	440.02
657.16	477.47
657.30	353.42
657.45	475.13
657.59	442.36
657.73	451.72
657.88	393.21
658.02	519.60
658.16	444.70
658.31	367.46
658.45	491.51
658.60	379.17
658.74	428.32
658.88	425.98
659.03	407.25
659.17	414.27
659.31	435.34
659.46	404.91
659.60	407.25
659.74	449.38
659.89	372.15
660.03	369.80
660.17	421.30
660.32	463.43
660.46	381.51
660.60	409.59
660.74	421.30
660.89	376.83
661.03	386.19
661.17	430.66
661.32	456.40
661.46	411.93
661.60	449.38
661.74	482.15
661.89	369.80
662.03	491.51
662.17	486.83
662.31	496.19
662.46	388.53
662.60	418.96
662.74	428.32
662.88	416.62
663.03	397.89
663.17	362.78
663.31	414.27
663.45	383.85
663.60	339.38
663.74	437.68
663.88	423.64
664.02	423.64
664.17	390.87
664.31	367.46
664.45	362.78
664.59	430.66
664.73	409.59
664.88	433.00
665.02	416.62
665.16	381.51
665.30	465.77
665.44	430.66
665.59	437.68
665.73	423.64
665.87	400.23
666.01	451.72
666.15	381.51
666.29	435.34
666.44	449.38
666.58	503.22
666.72	353.42
666.86	440.02
667.00	472.79
667.14	428.32
667.28	428.32
667.43	437.68
667.57	430.66
667.71	397.89
667.85	423.64
667.99	421.30
668.13	402.57
668.27	421.30
668.41	416.62
668.56	421.30
668.70	388.53
668.84	433.00
668.98	430.66
669.12	362.78
669.26	381.51
669.40	470.45
669.54	498.53
669.68	435.34
669.82	430.66
669.96	390.87
670.10	386.19
670.25	414.27
670.39	423.64
670.53	369.80
670.67	437.68
670.81	409.59
670.95	409.59
671.09	400.23
671.23	362.78
671.37	425.98
671.51	390.87
671.65	454.06
671.79	465.77
671.93	409.59
672.07	491.51
672.21	458.74
672.35	435.34
672.49	407.25
672.63	482.15
672.77	402.57
672.91	444.70
673.05	430.66
673.19	437.68
673.33	444.70
673.47	374.49
673.61	400.23
673.75	397.89
673.89	367.46
674.03	440.02
674.17	489.17
674.31	428.32
674.45	404.91
674.59	416.62
674.73	468.11
674.87	390.87
675.01	433.00
675.15	372.15
675.29	475.13
675.43	435.34
675.56	404.91
675.70	402.57
675.84	409.59
675.98	393.21
676.12	390.87
676.26	428.32
676.40	369.80
676.54	409.59
676.68	425.98
676.82	486.83
676.96	442.36
677.10	388.53
677.23	414.27
677.37	486.83
677.51	451.72
677.65	442.36
677.79	416.62
677.93	407.25
678.07	435.34
678.21	458.74
678.34	477.47
678.48	358.10
678.62	430.66
678.76	360.44
678.90	341.72
679.04	395.55
679.18	369.80
679.31	400.23
679.45	397.89
679.59	482.15
679.73	428.32
679.87	395.55
680.00	451.72
680.14	477.47
680.28	447.04
680.42	433.00
680.56	416.62
680.70	447.04
680.83	407.25
680.97	416.62
681.11	381.51
681.25	327.68
681.39	402.57
681.52	477.47
681.66	428.32
681.80	416.62
681.94	447.04
682.07	409.59
682.21	409.59
682.35	374.49
682.49	468.11
682.62	374.49
682.76	404.91
682.90	367.46
683.04	447.04
683.17	435.34
683.31	430.66
683.45	430.66
683.59	390.87
683.72	456.40
683.86	393.21
684.00	381.51
684.13	486.83
684.27	404.91
684.41	374.49
684.55	425.98
684.68	421.30
684.82	374.49
684.96	320.65
685.09	379.17
685.23	400.23
685.37	355.76
685.50	418.96
685.64	449.38
685.78	353.42
685.91	472.79
686.05	360.44
686.19	402.57
686.32	430.66
686.46	400.23
686.60	468.11
686.73	533.64
686.87	411.93
687.01	449.38
687.14	358.10
687.28	482.15
687.42	348.74
687.55	374.49
687.69	465.77
687.82	435.34
687.96	416.62
688.10	421.30
688.23	332.36
688.37	414.27
688.50	505.56
688.64	463.43
688.78	404.91
688.91	433.00
689.05	407.25
689.18	414.27
689.32	383.85
689.46	440.02
689.59	447.04
689.73	477.47
689.86	447.04
690.00	411.93
690.13	388.53
690.27	423.64
690.41	404.91
690.54	421.30
690.68	395.55
690.81	337.04
690.95	351.08
691.08	440.02
691.22	355.76
691.35	440.02
691.49	386.19
691.62	423.64
691.76	409.59
691.89	414.27
692.03	423.64
692.16	369.80
692.30	397.89
692.43	362.78
692.57	456.40
692.70	390.87
692.84	367.46
692.97	341.72
693.11	322.99
693.24	400.23
693.38	411.93
693.51	337.04
693.65	414.27
693.78	339.38
693.92	449.38
694.05	383.85
694.19	449.38
694.32	440.02
694.45	461.09
694.59	416.62
694.72	442.36
694.86	447.04
694.99	440.02
695.13	313.63
695.26	442.36
695.39	435.34
695.53	379.17
695.66	358.10
695.80	428.32
695.93	409.59
696.07	423.64
696.20	430.66
696.33	374.49
696.47	386.19
696.60	383.85
696.73	369.80
696.87	362.78
697.00	423.64
697.14	376.83
697.27	402.57
697.40	451.72
697.54	437.68
697.67	404.91
697.80	397.89
697.94	414.27
698.07	407.25
698.21	430.66
698.34	444.70
698.47	411.93
698.61	404.91
698.74	390.87
698.87	423.64
699.01	428.32
699.14	362.78
699.27	475.13
699.40	514.92
699.54	454.06
699.67	425.98
699.80	402.57
699.94	437.68
700.07	369.80
700.20	475.13
700.34	386.19
700.47	376.83
700.60	444.70
700.73	442.36
700.87	435.34
701.00	416.62
701.13	407.25
701.26	393.21
701.40	435.34
701.53	379.17
701.66	369.80
701.79	379.17
701.93	442.36
702.06	470.45
702.19	404.91
702.32	379.17
702.46	423.64
702.59	444.70
702.72	301.93
702.85	425.98
702.99	339.38
703.12	390.87
703.25	451.72
703.38	360.44
703.51	425.98
703.65	435.34
703.78	397.89
703.91	463.43
704.04	447.04
704.17	393.21
704.31	390.87
704.44	390.87
704.57	449.38
704.70	433.00
704.83	397.89
704.96	379.17
705.10	374.49
705.23	315.97
>>>>>End Processed Spectral Data<<<<<
