SpectraSuite Data File
++++++++++++++++++++++++++++++++++++
Date: Fri Oct 25 12:11:32 EDT 2013
User: price-jones
Dark Spectrum Present: No
Reference Spectrum Present: No
Number of Sampled Component Spectra: 1
Spectrometers: USB2+H05261
Integration Time (usec): 100000 (USB2+H05261)
Spectra Averaged: 1 (USB2+H05261)
Boxcar Smoothing: 0 (USB2+H05261)
Correct for Electrical Dark: No (USB2+H05261)
Strobe/Lamp Enabled: No (USB2+H05261)
Correct for Detector Non-linearity: No (USB2+H05261)
Correct for Stray Light: No (USB2+H05261)
Number of Pixels in Processed Spectrum: 2048
>>>>>Begin Processed Spectral Data<<<<<
365.73	334.70
365.92	334.70
366.12	334.70
366.32	266.82
366.52	273.84
366.72	287.89
366.91	177.88
367.11	257.46
367.31	224.69
367.51	245.76
367.70	227.03
367.90	238.73
368.10	212.99
368.30	245.76
368.49	280.86
368.69	203.63
368.89	280.86
369.09	273.84
369.28	360.44
369.48	222.35
369.68	306.61
369.87	365.12
370.07	330.02
370.27	369.80
370.47	306.61
370.66	299.59
370.86	318.31
371.06	355.76
371.25	418.96
371.45	393.21
371.65	411.93
371.84	330.02
372.04	365.12
372.24	444.70
372.44	372.15
372.63	376.83
372.83	393.21
373.03	454.06
373.22	461.09
373.42	395.55
373.62	404.91
373.81	456.40
374.01	425.98
374.21	472.79
374.40	369.80
374.60	390.87
374.79	433.00
374.99	418.96
375.19	418.96
375.38	484.49
375.58	411.93
375.78	409.59
375.97	437.68
376.17	484.49
376.37	404.91
376.56	390.87
376.76	362.78
376.95	299.59
377.15	409.59
377.35	376.83
377.54	442.36
377.74	423.64
377.93	400.23
378.13	346.40
378.33	519.60
378.52	463.43
378.72	404.91
378.91	440.02
379.11	409.59
379.31	416.62
379.50	418.96
379.70	390.87
379.89	461.09
380.09	376.83
380.28	442.36
380.48	435.34
380.68	430.66
380.87	381.51
381.07	348.74
381.26	374.49
381.46	449.38
381.65	451.72
381.85	425.98
382.04	320.65
382.24	344.06
382.43	437.68
382.63	388.53
382.83	451.72
383.02	454.06
383.22	463.43
383.41	451.72
383.61	470.45
383.80	465.77
384.00	482.15
384.19	421.30
384.39	477.47
384.58	397.89
384.78	430.66
384.97	304.27
385.17	379.17
385.36	360.44
385.56	423.64
385.75	416.62
385.95	449.38
386.14	475.13
386.34	367.46
386.53	421.30
386.72	418.96
386.92	493.85
387.11	362.78
387.31	470.45
387.50	404.91
387.70	386.19
387.89	433.00
388.09	400.23
388.28	423.64
388.48	369.80
388.67	390.87
388.86	451.72
389.06	416.62
389.25	365.12
389.45	376.83
389.64	381.51
389.84	360.44
390.03	423.64
390.22	339.38
390.42	423.64
390.61	407.25
390.81	407.25
391.00	353.42
391.19	386.19
391.39	379.17
391.58	435.34
391.78	374.49
391.97	372.15
392.16	402.57
392.36	395.55
392.55	411.93
392.75	404.91
392.94	374.49
393.13	386.19
393.33	381.51
393.52	393.21
393.71	435.34
393.91	390.87
394.10	407.25
394.29	348.74
394.49	484.49
394.68	374.49
394.88	447.04
395.07	435.34
395.26	383.85
395.46	395.55
395.65	423.64
395.84	409.59
396.04	451.72
396.23	393.21
396.42	304.27
396.62	472.79
396.81	423.64
397.00	337.04
397.19	374.49
397.39	353.42
397.58	416.62
397.77	428.32
397.97	437.68
398.16	402.57
398.35	451.72
398.55	435.34
398.74	362.78
398.93	437.68
399.12	411.93
399.32	358.10
399.51	348.74
399.70	397.89
399.90	507.90
400.09	423.64
400.28	440.02
400.47	407.25
400.67	411.93
400.86	425.98
401.05	444.70
401.24	425.98
401.44	369.80
401.63	372.15
401.82	477.47
402.01	402.57
402.21	362.78
402.40	369.80
402.59	393.21
402.78	372.15
402.97	414.27
403.17	397.89
403.36	402.57
403.55	386.19
403.74	449.38
403.93	435.34
404.13	468.11
404.32	386.19
404.51	416.62
404.70	379.17
404.89	430.66
405.09	421.30
405.28	423.64
405.47	395.55
405.66	404.91
405.85	454.06
406.05	440.02
406.24	416.62
406.43	365.12
406.62	425.98
406.81	458.74
407.00	409.59
407.20	388.53
407.39	435.34
407.58	381.51
407.77	433.00
407.96	449.38
408.15	409.59
408.34	407.25
408.54	365.12
408.73	465.77
408.92	374.49
409.11	376.83
409.30	433.00
409.49	435.34
409.68	397.89
409.87	383.85
410.07	414.27
410.26	344.06
410.45	437.68
410.64	346.40
410.83	386.19
411.02	381.51
411.21	463.43
411.40	390.87
411.59	388.53
411.78	421.30
411.98	362.78
412.17	395.55
412.36	381.51
412.55	369.80
412.74	430.66
412.93	489.17
413.12	404.91
413.31	411.93
413.50	451.72
413.69	425.98
413.88	510.24
414.07	430.66
414.26	351.08
414.45	355.76
414.64	383.85
414.83	491.51
415.02	465.77
415.22	430.66
415.41	470.45
415.60	397.89
415.79	440.02
415.98	404.91
416.17	397.89
416.36	411.93
416.55	447.04
416.74	393.21
416.93	442.36
417.12	440.02
417.31	313.63
417.50	447.04
417.69	409.59
417.88	379.17
418.07	393.21
418.26	390.87
418.45	430.66
418.64	437.68
418.83	386.19
419.02	461.09
419.21	383.85
419.39	475.13
419.58	386.19
419.77	334.70
419.96	358.10
420.15	470.45
420.34	402.57
420.53	402.57
420.72	421.30
420.91	404.91
421.10	400.23
421.29	484.49
421.48	374.49
421.67	416.62
421.86	339.38
422.05	400.23
422.24	430.66
422.43	397.89
422.61	430.66
422.80	428.32
422.99	437.68
423.18	386.19
423.37	454.06
423.56	416.62
423.75	393.21
423.94	437.68
424.13	390.87
424.32	461.09
424.50	414.27
424.69	362.78
424.88	461.09
425.07	414.27
425.26	440.02
425.45	425.98
425.64	430.66
425.83	444.70
426.01	414.27
426.20	449.38
426.39	428.32
426.58	435.34
426.77	421.30
426.96	381.51
427.15	440.02
427.33	430.66
427.52	433.00
427.71	437.68
427.90	463.43
428.09	376.83
428.28	395.55
428.46	351.08
428.65	428.32
428.84	430.66
429.03	374.49
429.22	367.46
429.40	376.83
429.59	337.04
429.78	402.57
429.97	397.89
430.16	407.25
430.34	395.55
430.53	423.64
430.72	376.83
430.91	435.34
431.10	444.70
431.28	447.04
431.47	444.70
431.66	472.79
431.85	339.38
432.03	313.63
432.22	430.66
432.41	475.13
432.60	454.06
432.79	433.00
432.97	475.13
433.16	440.02
433.35	397.89
433.54	486.83
433.72	372.15
433.91	498.53
434.10	437.68
434.28	379.17
434.47	362.78
434.66	463.43
434.85	517.26
435.03	435.34
435.22	423.64
435.41	425.98
435.59	409.59
435.78	381.51
435.97	393.21
436.16	479.81
436.34	470.45
436.53	437.68
436.72	341.72
436.90	447.04
437.09	435.34
437.28	428.32
437.46	407.25
437.65	397.89
437.84	454.06
438.02	430.66
438.21	435.34
438.40	503.22
438.58	404.91
438.77	444.70
438.96	400.23
439.14	376.83
439.33	374.49
439.52	400.23
439.70	468.11
439.89	402.57
440.08	404.91
440.26	365.12
440.45	477.47
440.63	440.02
440.82	437.68
441.01	451.72
441.19	372.15
441.38	383.85
441.57	351.08
441.75	383.85
441.94	477.47
442.12	430.66
442.31	458.74
442.50	418.96
442.68	430.66
442.87	428.32
443.05	374.49
443.24	454.06
443.43	388.53
443.61	332.36
443.80	440.02
443.98	379.17
444.17	318.31
444.35	430.66
444.54	362.78
444.73	447.04
444.91	379.17
445.10	372.15
445.28	428.32
445.47	507.90
445.65	395.55
445.84	449.38
446.02	332.36
446.21	369.80
446.39	402.57
446.58	440.02
446.77	393.21
446.95	456.40
447.14	477.47
447.32	498.53
447.51	372.15
447.69	404.91
447.88	435.34
448.06	433.00
448.25	416.62
448.43	346.40
448.62	409.59
448.80	409.59
448.99	444.70
449.17	428.32
449.36	411.93
449.54	367.46
449.73	449.38
449.91	512.58
450.10	397.89
450.28	449.38
450.46	496.19
450.65	486.83
450.83	444.70
451.02	447.04
451.20	421.30
451.39	395.55
451.57	365.12
451.76	337.04
451.94	372.15
452.13	423.64
452.31	402.57
452.49	491.51
452.68	395.55
452.86	386.19
453.05	393.21
453.23	402.57
453.42	383.85
453.60	477.47
453.78	463.43
453.97	388.53
454.15	393.21
454.34	372.15
454.52	330.02
454.70	404.91
454.89	461.09
455.07	330.02
455.26	416.62
455.44	402.57
455.62	451.72
455.81	447.04
455.99	454.06
456.17	528.96
456.36	393.21
456.54	442.36
456.73	423.64
456.91	428.32
457.09	416.62
457.28	351.08
457.46	369.80
457.64	404.91
457.83	468.11
458.01	409.59
458.19	437.68
458.38	395.55
458.56	430.66
458.74	381.51
458.93	428.32
459.11	449.38
459.29	409.59
459.48	397.89
459.66	444.70
459.84	425.98
460.03	444.70
460.21	418.96
460.39	447.04
460.57	440.02
460.76	430.66
460.94	414.27
461.12	418.96
461.31	451.72
461.49	418.96
461.67	468.11
461.85	358.10
462.04	395.55
462.22	821.53
462.40	358.10
462.59	372.15
462.77	400.23
462.95	421.30
463.13	411.93
463.32	425.98
463.50	458.74
463.68	416.62
463.86	442.36
464.05	390.87
464.23	507.90
464.41	503.22
464.59	437.68
464.78	393.21
464.96	421.30
465.14	386.19
465.32	421.30
465.50	395.55
465.69	477.47
465.87	386.19
466.05	407.25
466.23	404.91
466.41	318.31
466.60	353.42
466.78	402.57
466.96	447.04
467.14	428.32
467.32	449.38
467.51	365.12
467.69	423.64
467.87	402.57
468.05	407.25
468.23	430.66
468.41	475.13
468.60	456.40
468.78	425.98
468.96	437.68
469.14	465.77
469.32	388.53
469.50	395.55
469.69	447.04
469.87	372.15
470.05	348.74
470.23	414.27
470.41	468.11
470.59	337.04
470.77	418.96
470.95	393.21
471.14	456.40
471.32	482.15
471.50	454.06
471.68	447.04
471.86	489.17
472.04	400.23
472.22	416.62
472.40	470.45
472.58	365.12
472.77	376.83
472.95	437.68
473.13	444.70
473.31	395.55
473.49	362.78
473.67	440.02
473.85	428.32
474.03	463.43
474.21	440.02
474.39	386.19
474.57	425.98
474.75	425.98
474.93	416.62
475.12	451.72
475.30	374.49
475.48	379.17
475.66	447.04
475.84	449.38
476.02	435.34
476.20	414.27
476.38	435.34
476.56	468.11
476.74	435.34
476.92	421.30
477.10	404.91
477.28	367.46
477.46	407.25
477.64	407.25
477.82	416.62
478.00	395.55
478.18	458.74
478.36	454.06
478.54	376.83
478.72	456.40
478.90	465.77
479.08	430.66
479.26	386.19
479.44	393.21
479.62	388.53
479.80	414.27
479.98	430.66
480.16	400.23
480.34	362.78
480.52	334.70
480.70	374.49
480.88	463.43
481.06	409.59
481.24	393.21
481.41	355.76
481.59	498.53
481.77	421.30
481.95	341.72
482.13	430.66
482.31	365.12
482.49	397.89
482.67	449.38
482.85	447.04
483.03	402.57
483.21	489.17
483.39	435.34
483.57	409.59
483.74	447.04
483.92	381.51
484.10	355.76
484.28	416.62
484.46	493.85
484.64	484.49
484.82	374.49
485.00	344.06
485.18	395.55
485.35	379.17
485.53	451.72
485.71	477.47
485.89	339.38
486.07	461.09
486.25	388.53
486.43	404.91
486.61	435.34
486.78	447.04
486.96	472.79
487.14	454.06
487.32	346.40
487.50	402.57
487.68	421.30
487.85	435.34
488.03	348.74
488.21	454.06
488.39	470.45
488.57	454.06
488.75	414.27
488.92	456.40
489.10	451.72
489.28	461.09
489.46	404.91
489.64	404.91
489.81	407.25
489.99	381.51
490.17	379.17
490.35	388.53
490.53	393.21
490.70	397.89
490.88	477.47
491.06	404.91
491.24	407.25
491.41	461.09
491.59	437.68
491.77	423.64
491.95	381.51
492.13	425.98
492.30	449.38
492.48	358.10
492.66	414.27
492.84	395.55
493.01	423.64
493.19	416.62
493.37	390.87
493.54	393.21
493.72	390.87
493.90	407.25
494.08	388.53
494.25	498.53
494.43	430.66
494.61	505.56
494.79	365.12
494.96	430.66
495.14	411.93
495.32	379.17
495.49	379.17
495.67	379.17
495.85	437.68
496.02	428.32
496.20	409.59
496.38	463.43
496.55	465.77
496.73	444.70
496.91	486.83
497.09	428.32
497.26	334.70
497.44	339.38
497.62	367.46
497.79	409.59
497.97	397.89
498.14	409.59
498.32	468.11
498.50	390.87
498.67	472.79
498.85	400.23
499.03	416.62
499.20	447.04
499.38	425.98
499.56	339.38
499.73	423.64
499.91	491.51
500.08	475.13
500.26	430.66
500.44	444.70
500.61	447.04
500.79	416.62
500.97	360.44
501.14	421.30
501.32	393.21
501.49	386.19
501.67	428.32
501.84	393.21
502.02	341.72
502.20	404.91
502.37	421.30
502.55	428.32
502.72	365.12
502.90	379.17
503.07	454.06
503.25	475.13
503.43	440.02
503.60	475.13
503.78	414.27
503.95	414.27
504.13	416.62
504.30	449.38
504.48	369.80
504.65	440.02
504.83	414.27
505.01	395.55
505.18	379.17
505.36	397.89
505.53	400.23
505.71	449.38
505.88	423.64
506.06	393.21
506.23	379.17
506.41	440.02
506.58	416.62
506.76	355.76
506.93	428.32
507.11	433.00
507.28	379.17
507.46	440.02
507.63	400.23
507.81	423.64
507.98	365.12
508.16	409.59
508.33	440.02
508.50	339.38
508.68	404.91
508.85	393.21
509.03	423.64
509.20	407.25
509.38	386.19
509.55	491.51
509.73	468.11
509.90	435.34
510.08	360.44
510.25	383.85
510.42	454.06
510.60	376.83
510.77	402.57
510.95	430.66
511.12	470.45
511.30	423.64
511.47	440.02
511.64	362.78
511.82	447.04
511.99	386.19
512.17	435.34
512.34	407.25
512.51	376.83
512.69	390.87
512.86	447.04
513.04	397.89
513.21	379.17
513.38	397.89
513.56	386.19
513.73	409.59
513.90	397.89
514.08	428.32
514.25	449.38
514.43	395.55
514.60	360.44
514.77	442.36
514.95	414.27
515.12	477.47
515.29	379.17
515.47	498.53
515.64	449.38
515.81	381.51
515.99	444.70
516.16	421.30
516.33	393.21
516.51	418.96
516.68	369.80
516.85	440.02
517.03	379.17
517.20	456.40
517.37	409.59
517.54	423.64
517.72	355.76
517.89	330.02
518.06	407.25
518.24	550.03
518.41	470.45
518.58	397.89
518.75	421.30
518.93	395.55
519.10	374.49
519.27	397.89
519.45	409.59
519.62	433.00
519.79	344.06
519.96	409.59
520.14	463.43
520.31	418.96
520.48	330.02
520.65	447.04
520.83	482.15
521.00	442.36
521.17	454.06
521.34	383.85
521.52	425.98
521.69	458.74
521.86	416.62
522.03	440.02
522.20	465.77
522.38	463.43
522.55	458.74
522.72	425.98
522.89	444.70
523.07	418.96
523.24	409.59
523.41	435.34
523.58	428.32
523.75	397.89
523.92	449.38
524.10	360.44
524.27	451.72
524.44	358.10
524.61	428.32
524.78	423.64
524.96	348.74
525.13	463.43
525.30	390.87
525.47	447.04
525.64	409.59
525.81	393.21
525.98	461.09
526.16	444.70
526.33	407.25
526.50	475.13
526.67	407.25
526.84	374.49
527.01	367.46
527.18	407.25
527.36	360.44
527.53	369.80
527.70	414.27
527.87	386.19
528.04	428.32
528.21	435.34
528.38	362.78
528.55	461.09
528.72	418.96
528.89	472.79
529.07	470.45
529.24	418.96
529.41	449.38
529.58	374.49
529.75	351.08
529.92	407.25
530.09	407.25
530.26	433.00
530.43	461.09
530.60	388.53
530.77	463.43
530.94	388.53
531.11	505.56
531.28	388.53
531.46	433.00
531.63	468.11
531.80	411.93
531.97	461.09
532.14	465.77
532.31	418.96
532.48	383.85
532.65	437.68
532.82	397.89
532.99	381.51
533.16	386.19
533.33	416.62
533.50	369.80
533.67	423.64
533.84	360.44
534.01	465.77
534.18	454.06
534.35	416.62
534.52	451.72
534.69	407.25
534.86	416.62
535.03	498.53
535.20	418.96
535.37	454.06
535.54	414.27
535.71	332.36
535.88	407.25
536.05	395.55
536.22	461.09
536.38	437.68
536.55	393.21
536.72	411.93
536.89	351.08
537.06	381.51
537.23	463.43
537.40	383.85
537.57	486.83
537.74	463.43
537.91	461.09
538.08	390.87
538.25	407.25
538.42	444.70
538.59	402.57
538.75	423.64
538.92	407.25
539.09	423.64
539.26	395.55
539.43	458.74
539.60	433.00
539.77	388.53
539.94	360.44
540.11	358.10
540.28	437.68
540.44	416.62
540.61	367.46
540.78	433.00
540.95	386.19
541.12	449.38
541.29	383.85
541.46	414.27
541.62	411.93
541.79	430.66
541.96	400.23
542.13	379.17
542.30	388.53
542.47	311.29
542.63	416.62
542.80	369.80
542.97	440.02
543.14	381.51
543.31	414.27
543.48	430.66
543.64	433.00
543.81	421.30
543.98	423.64
544.15	358.10
544.32	390.87
544.48	484.49
544.65	400.23
544.82	374.49
544.99	421.30
545.16	475.13
545.32	437.68
545.49	423.64
545.66	430.66
545.83	423.64
546.00	381.51
546.16	463.43
546.33	421.30
546.50	437.68
546.67	489.17
546.83	449.38
547.00	402.57
547.17	360.44
547.34	437.68
547.50	358.10
547.67	344.06
547.84	421.30
548.00	442.36
548.17	395.55
548.34	360.44
548.51	404.91
548.67	425.98
548.84	411.93
549.01	451.72
549.18	489.17
549.34	402.57
549.51	360.44
549.68	393.21
549.84	386.19
550.01	395.55
550.18	507.90
550.34	503.22
550.51	416.62
550.68	472.79
550.84	418.96
551.01	433.00
551.18	430.66
551.34	493.85
551.51	433.00
551.68	423.64
551.84	482.15
552.01	463.43
552.18	397.89
552.34	393.21
552.51	409.59
552.68	440.02
552.84	407.25
553.01	458.74
553.18	477.47
553.34	465.77
553.51	390.87
553.67	479.81
553.84	482.15
554.01	404.91
554.17	332.36
554.34	409.59
554.51	386.19
554.67	416.62
554.84	470.45
555.00	416.62
555.17	360.44
555.33	451.72
555.50	414.27
555.67	423.64
555.83	418.96
556.00	418.96
556.16	535.98
556.33	435.34
556.50	374.49
556.66	414.27
556.83	416.62
556.99	510.24
557.16	433.00
557.32	362.78
557.49	416.62
557.65	416.62
557.82	493.85
557.98	383.85
558.15	416.62
558.32	433.00
558.48	407.25
558.65	409.59
558.81	423.64
558.98	400.23
559.14	433.00
559.31	351.08
559.47	425.98
559.64	435.34
559.80	479.81
559.97	400.23
560.13	409.59
560.30	425.98
560.46	433.00
560.63	449.38
560.79	425.98
560.96	339.38
561.12	381.51
561.29	425.98
561.45	421.30
561.61	381.51
561.78	470.45
561.94	407.25
562.11	456.40
562.27	421.30
562.44	369.80
562.60	362.78
562.77	388.53
562.93	489.17
563.10	437.68
563.26	437.68
563.42	402.57
563.59	444.70
563.75	482.15
563.92	458.74
564.08	407.25
564.24	372.15
564.41	404.91
564.57	355.76
564.74	409.59
564.90	407.25
565.07	442.36
565.23	402.57
565.39	421.30
565.56	411.93
565.72	339.38
565.88	437.68
566.05	360.44
566.21	440.02
566.38	442.36
566.54	400.23
566.70	353.42
566.87	402.57
567.03	402.57
567.19	458.74
567.36	447.04
567.52	374.49
567.68	404.91
567.85	322.99
568.01	332.36
568.17	463.43
568.34	407.25
568.50	475.13
568.66	461.09
568.83	461.09
568.99	393.21
569.15	416.62
569.32	374.49
569.48	407.25
569.64	409.59
569.81	355.76
569.97	484.49
570.13	388.53
570.30	407.25
570.46	458.74
570.62	503.22
570.78	369.80
570.95	465.77
571.11	505.56
571.27	484.49
571.43	407.25
571.60	388.53
571.76	437.68
571.92	407.25
572.09	430.66
572.25	465.77
572.41	425.98
572.57	468.11
572.74	449.38
572.90	381.51
573.06	383.85
573.22	386.19
573.38	489.17
573.55	360.44
573.71	386.19
573.87	465.77
574.03	402.57
574.20	407.25
574.36	444.70
574.52	442.36
574.68	404.91
574.84	365.12
575.01	425.98
575.17	435.34
575.33	388.53
575.49	477.47
575.65	470.45
575.82	482.15
575.98	388.53
576.14	440.02
576.30	468.11
576.46	489.17
576.62	435.34
576.79	447.04
576.95	454.06
577.11	351.08
577.27	386.19
577.43	430.66
577.59	486.83
577.75	404.91
577.92	404.91
578.08	414.27
578.24	449.38
578.40	486.83
578.56	393.21
578.72	400.23
578.88	374.49
579.04	390.87
579.21	442.36
579.37	404.91
579.53	395.55
579.69	449.38
579.85	332.36
580.01	404.91
580.17	360.44
580.33	390.87
580.49	372.15
580.65	425.98
580.82	411.93
580.98	395.55
581.14	437.68
581.30	456.40
581.46	477.47
581.62	454.06
581.78	360.44
581.94	444.70
582.10	428.32
582.26	416.62
582.42	379.17
582.58	383.85
582.74	456.40
582.90	388.53
583.06	430.66
583.22	456.40
583.38	383.85
583.54	440.02
583.70	451.72
583.86	416.62
584.02	454.06
584.18	503.22
584.34	428.32
584.50	444.70
584.66	355.76
584.82	390.87
584.98	449.38
585.14	332.36
585.30	409.59
585.46	369.80
585.62	400.23
585.78	400.23
585.94	447.04
586.10	395.55
586.26	451.72
586.42	449.38
586.58	425.98
586.74	468.11
586.90	449.38
587.06	482.15
587.22	386.19
587.38	428.32
587.54	418.96
587.70	470.45
587.86	447.04
588.02	404.91
588.18	308.95
588.34	386.19
588.49	397.89
588.65	465.77
588.81	423.64
588.97	451.72
589.13	435.34
589.29	411.93
589.45	451.72
589.61	400.23
589.77	440.02
589.93	411.93
590.08	430.66
590.24	327.68
590.40	418.96
590.56	416.62
590.72	428.32
590.88	440.02
591.04	444.70
591.20	397.89
591.35	435.34
591.51	386.19
591.67	470.45
591.83	435.34
591.99	414.27
592.15	535.98
592.31	409.59
592.46	430.66
592.62	421.30
592.78	428.32
592.94	414.27
593.10	379.17
593.26	280.86
593.41	433.00
593.57	383.85
593.73	435.34
593.89	351.08
594.05	430.66
594.20	374.49
594.36	491.51
594.52	386.19
594.68	409.59
594.84	376.83
594.99	447.04
595.15	430.66
595.31	411.93
595.47	423.64
595.62	461.09
595.78	386.19
595.94	351.08
596.10	456.40
596.25	388.53
596.41	390.87
596.57	404.91
596.73	390.87
596.88	411.93
597.04	447.04
597.20	397.89
597.36	421.30
597.51	418.96
597.67	411.93
597.83	428.32
597.99	437.68
598.14	386.19
598.30	451.72
598.46	425.98
598.61	414.27
598.77	423.64
598.93	362.78
599.09	379.17
599.24	421.30
599.40	447.04
599.56	374.49
599.71	379.17
599.87	416.62
600.03	430.66
600.18	458.74
600.34	477.47
600.50	425.98
600.65	447.04
600.81	477.47
600.97	428.32
601.12	451.72
601.28	533.64
601.44	468.11
601.59	414.27
601.75	409.59
601.91	360.44
602.06	416.62
602.22	500.87
602.37	374.49
602.53	397.89
602.69	383.85
602.84	456.40
603.00	440.02
603.16	449.38
603.31	449.38
603.47	374.49
603.62	372.15
603.78	444.70
603.94	463.43
604.09	388.53
604.25	407.25
604.40	444.70
604.56	374.49
604.71	381.51
604.87	346.40
605.03	423.64
605.18	416.62
605.34	468.11
605.49	414.27
605.65	341.72
605.80	395.55
605.96	477.47
606.12	444.70
606.27	475.13
606.43	341.72
606.58	428.32
606.74	411.93
606.89	428.32
607.05	484.49
607.20	374.49
607.36	489.17
607.51	468.11
607.67	353.42
607.82	447.04
607.98	449.38
608.13	402.57
608.29	425.98
608.44	421.30
608.60	468.11
608.75	456.40
608.91	421.30
609.06	355.76
609.22	447.04
609.37	397.89
609.53	416.62
609.68	418.96
609.84	449.38
609.99	414.27
610.15	475.13
610.30	449.38
610.46	381.51
610.61	386.19
610.76	423.64
610.92	477.47
611.07	400.23
611.23	458.74
611.38	388.53
611.54	435.34
611.69	454.06
611.84	353.42
612.00	430.66
612.15	409.59
612.31	458.74
612.46	416.62
612.62	381.51
612.77	468.11
612.92	472.79
613.08	468.11
613.23	500.87
613.39	444.70
613.54	411.93
613.69	433.00
613.85	374.49
614.00	369.80
614.15	418.96
614.31	461.09
614.46	369.80
614.62	327.68
614.77	411.93
614.92	447.04
615.08	416.62
615.23	475.13
615.38	451.72
615.54	367.46
615.69	456.40
615.84	388.53
616.00	409.59
616.15	407.25
616.30	367.46
616.46	428.32
616.61	404.91
616.76	442.36
616.92	402.57
617.07	407.25
617.22	334.70
617.37	379.17
617.53	437.68
617.68	367.46
617.83	404.91
617.99	395.55
618.14	442.36
618.29	369.80
618.45	318.31
618.60	386.19
618.75	374.49
618.90	400.23
619.06	402.57
619.21	477.47
619.36	400.23
619.51	386.19
619.67	379.17
619.82	444.70
619.97	386.19
620.12	423.64
620.28	416.62
620.43	383.85
620.58	491.51
620.73	454.06
620.89	404.91
621.04	463.43
621.19	517.26
621.34	444.70
621.49	390.87
621.65	451.72
621.80	390.87
621.95	386.19
622.10	479.81
622.25	404.91
622.41	414.27
622.56	416.62
622.71	428.32
622.86	451.72
623.01	433.00
623.16	379.17
623.32	498.53
623.47	496.19
623.62	390.87
623.77	388.53
623.92	404.91
624.07	451.72
624.23	454.06
624.38	435.34
624.53	416.62
624.68	477.47
624.83	468.11
624.98	463.43
625.13	435.34
625.29	428.32
625.44	390.87
625.59	355.76
625.74	386.19
625.89	346.40
626.04	351.08
626.19	489.17
626.34	451.72
626.49	468.11
626.65	430.66
626.80	411.93
626.95	388.53
627.10	454.06
627.25	418.96
627.40	362.78
627.55	433.00
627.70	411.93
627.85	468.11
628.00	428.32
628.15	409.59
628.30	383.85
628.45	379.17
628.60	421.30
628.76	421.30
628.91	397.89
629.06	351.08
629.21	447.04
629.36	475.13
629.51	402.57
629.66	414.27
629.81	386.19
629.96	454.06
630.11	454.06
630.26	388.53
630.41	400.23
630.56	442.36
630.71	390.87
630.86	344.06
631.01	346.40
631.16	388.53
631.31	425.98
631.46	435.34
631.61	416.62
631.76	416.62
631.91	414.27
632.06	395.55
632.21	449.38
632.36	435.34
632.51	423.64
632.66	451.72
632.81	418.96
632.96	444.70
633.10	360.44
633.25	407.25
633.40	397.89
633.55	390.87
633.70	437.68
633.85	468.11
634.00	390.87
634.15	416.62
634.30	395.55
634.45	367.46
634.60	423.64
634.75	409.59
634.90	365.12
635.05	355.76
635.19	395.55
635.34	425.98
635.49	465.77
635.64	418.96
635.79	423.64
635.94	416.62
636.09	395.55
636.24	386.19
636.39	437.68
636.53	360.44
636.68	411.93
636.83	447.04
636.98	442.36
637.13	430.66
637.28	397.89
637.43	397.89
637.57	376.83
637.72	407.25
637.87	383.85
638.02	379.17
638.17	402.57
638.32	430.66
638.46	430.66
638.61	435.34
638.76	341.72
638.91	442.36
639.06	418.96
639.20	435.34
639.35	388.53
639.50	388.53
639.65	407.25
639.80	463.43
639.94	496.19
640.09	449.38
640.24	521.94
640.39	465.77
640.54	362.78
640.68	411.93
640.83	451.72
640.98	461.09
641.13	447.04
641.27	411.93
641.42	411.93
641.57	451.72
641.72	418.96
641.86	416.62
642.01	444.70
642.16	367.46
642.31	390.87
642.45	456.40
642.60	477.47
642.75	407.25
642.90	444.70
643.04	465.77
643.19	444.70
643.34	442.36
643.48	458.74
643.63	400.23
643.78	498.53
643.93	472.79
644.07	430.66
644.22	425.98
644.37	416.62
644.51	407.25
644.66	472.79
644.81	360.44
644.95	493.85
645.10	358.10
645.25	491.51
645.39	454.06
645.54	444.70
645.69	465.77
645.83	339.38
645.98	458.74
646.13	409.59
646.27	454.06
646.42	425.98
646.57	461.09
646.71	395.55
646.86	435.34
647.00	472.79
647.15	472.79
647.30	442.36
647.44	491.51
647.59	390.87
647.74	332.36
647.88	440.02
648.03	376.83
648.17	395.55
648.32	407.25
648.47	374.49
648.61	390.87
648.76	388.53
648.90	381.51
649.05	416.62
649.20	411.93
649.34	400.23
649.49	407.25
649.63	411.93
649.78	414.27
649.92	386.19
650.07	369.80
650.21	477.47
650.36	498.53
650.51	472.79
650.65	454.06
650.80	440.02
650.94	421.30
651.09	416.62
651.23	365.12
651.38	496.19
651.52	372.15
651.67	414.27
651.81	444.70
651.96	433.00
652.10	463.43
652.25	449.38
652.39	414.27
652.54	437.68
652.68	388.53
652.83	411.93
652.97	355.76
653.12	425.98
653.26	437.68
653.41	447.04
653.55	437.68
653.70	397.89
653.84	353.42
653.99	393.21
654.13	447.04
654.27	470.45
654.42	341.72
654.56	411.93
654.71	437.68
654.85	344.06
655.00	390.87
655.14	360.44
655.29	381.51
655.43	435.34
655.57	346.40
655.72	418.96
655.86	416.62
656.01	433.00
656.15	379.17
656.30	428.32
656.44	512.58
656.58	367.46
656.73	402.57
656.87	437.68
657.01	458.74
657.16	372.15
657.30	400.23
657.45	423.64
657.59	498.53
657.73	447.04
657.88	416.62
658.02	489.17
658.16	444.70
658.31	374.49
658.45	358.10
658.60	388.53
658.74	418.96
658.88	416.62
659.03	360.44
659.17	379.17
659.31	383.85
659.46	416.62
659.60	390.87
659.74	444.70
659.89	425.98
660.03	393.21
660.17	414.27
660.32	465.77
660.46	390.87
660.60	358.10
660.74	430.66
660.89	409.59
661.03	428.32
661.17	409.59
661.32	369.80
661.46	447.04
661.60	388.53
661.74	332.36
661.89	447.04
662.03	397.89
662.17	428.32
662.31	400.23
662.46	369.80
662.60	489.17
662.74	400.23
662.88	411.93
663.03	386.19
663.17	383.85
663.31	381.51
663.45	423.64
663.60	397.89
663.74	409.59
663.88	390.87
664.02	425.98
664.17	339.38
664.31	383.85
664.45	411.93
664.59	454.06
664.73	463.43
664.88	381.51
665.02	400.23
665.16	402.57
665.30	461.09
665.44	365.12
665.59	503.22
665.73	386.19
665.87	461.09
666.01	451.72
666.15	381.51
666.29	381.51
666.44	409.59
666.58	470.45
666.72	418.96
666.86	386.19
667.00	447.04
667.14	437.68
667.28	407.25
667.43	409.59
667.57	404.91
667.71	358.10
667.85	458.74
667.99	409.59
668.13	404.91
668.27	407.25
668.41	360.44
668.56	388.53
668.70	390.87
668.84	437.68
668.98	461.09
669.12	383.85
669.26	416.62
669.40	456.40
669.54	435.34
669.68	402.57
669.82	344.06
669.96	362.78
670.10	402.57
670.25	411.93
670.39	360.44
670.53	458.74
670.67	423.64
670.81	402.57
670.95	465.77
671.09	477.47
671.23	423.64
671.37	430.66
671.51	327.68
671.65	390.87
671.79	379.17
671.93	362.78
672.07	435.34
672.21	463.43
672.35	475.13
672.49	353.42
672.63	409.59
672.77	362.78
672.91	390.87
673.05	468.11
673.19	421.30
673.33	416.62
673.47	449.38
673.61	404.91
673.75	465.77
673.89	465.77
674.03	482.15
674.17	402.57
674.31	395.55
674.45	456.40
674.59	421.30
674.73	442.36
674.87	390.87
675.01	505.56
675.15	383.85
675.29	454.06
675.43	381.51
675.56	423.64
675.70	433.00
675.84	383.85
675.98	465.77
676.12	379.17
676.26	379.17
676.40	369.80
676.54	383.85
676.68	393.21
676.82	372.15
676.96	423.64
677.10	456.40
677.23	447.04
677.37	411.93
677.51	351.08
677.65	395.55
677.79	346.40
677.93	451.72
678.07	393.21
678.21	367.46
678.34	418.96
678.48	395.55
678.62	463.43
678.76	440.02
678.90	430.66
679.04	526.62
679.18	383.85
679.31	442.36
679.45	425.98
679.59	430.66
679.73	468.11
679.87	386.19
680.00	409.59
680.14	461.09
680.28	402.57
680.42	414.27
680.56	365.12
680.70	381.51
680.83	400.23
680.97	369.80
681.11	374.49
681.25	458.74
681.39	414.27
681.52	430.66
681.66	400.23
681.80	388.53
681.94	440.02
682.07	327.68
682.21	400.23
682.35	425.98
682.49	414.27
682.62	493.85
682.76	414.27
682.90	430.66
683.04	388.53
683.17	463.43
683.31	430.66
683.45	409.59
683.59	425.98
683.72	430.66
683.86	428.32
684.00	423.64
684.13	435.34
684.27	409.59
684.41	421.30
684.55	362.78
684.68	421.30
684.82	409.59
684.96	404.91
685.09	468.11
685.23	430.66
685.37	407.25
685.50	449.38
685.64	369.80
685.78	416.62
685.91	489.17
686.05	484.49
686.19	421.30
686.32	393.21
686.46	395.55
686.60	437.68
686.73	468.11
686.87	491.51
687.01	456.40
687.14	348.74
687.28	444.70
687.42	470.45
687.55	397.89
687.69	393.21
687.82	418.96
687.96	421.30
688.10	437.68
688.23	402.57
688.37	456.40
688.50	409.59
688.64	386.19
688.78	369.80
688.91	400.23
689.05	409.59
689.18	393.21
689.32	402.57
689.46	416.62
689.59	433.00
689.73	416.62
689.86	400.23
690.00	470.45
690.13	425.98
690.27	409.59
690.41	414.27
690.54	479.81
690.68	411.93
690.81	402.57
690.95	456.40
691.08	395.55
691.22	416.62
691.35	409.59
691.49	400.23
691.62	435.34
691.76	362.78
691.89	444.70
692.03	383.85
692.16	407.25
692.30	454.06
692.43	437.68
692.57	458.74
692.70	383.85
692.84	444.70
692.97	358.10
693.11	337.04
693.24	411.93
693.38	365.12
693.51	358.10
693.65	397.89
693.78	383.85
693.92	341.72
694.05	486.83
694.19	435.34
694.32	376.83
694.45	442.36
694.59	404.91
694.72	428.32
694.86	390.87
694.99	344.06
695.13	425.98
695.26	482.15
695.39	444.70
695.53	484.49
695.66	477.47
695.80	456.40
695.93	369.80
696.07	402.57
696.20	416.62
696.33	390.87
696.47	421.30
696.60	393.21
696.73	477.47
696.87	421.30
697.00	433.00
697.14	374.49
697.27	447.04
697.40	477.47
697.54	433.00
697.67	435.34
697.80	414.27
697.94	351.08
698.07	414.27
698.21	367.46
698.34	386.19
698.47	423.64
698.61	437.68
698.74	411.93
698.87	444.70
699.01	418.96
699.14	447.04
699.27	344.06
699.40	531.30
699.54	475.13
699.67	437.68
699.80	482.15
699.94	475.13
700.07	423.64
700.20	407.25
700.34	425.98
700.47	348.74
700.60	397.89
700.73	477.47
700.87	423.64
701.00	395.55
701.13	330.02
701.26	402.57
701.40	449.38
701.53	444.70
701.66	430.66
701.79	395.55
701.93	395.55
702.06	479.81
702.19	442.36
702.32	465.77
702.46	374.49
702.59	365.12
702.72	313.63
702.85	367.46
702.99	418.96
703.12	465.77
703.25	482.15
703.38	454.06
703.51	442.36
703.65	447.04
703.78	414.27
703.91	388.53
704.04	425.98
704.17	433.00
704.31	428.32
704.44	379.17
704.57	379.17
704.70	472.79
704.83	383.85
704.96	390.87
705.10	423.64
705.23	451.72
>>>>>End Processed Spectral Data<<<<<
