SpectraSuite Data File
++++++++++++++++++++++++++++++++++++
Date: Fri Oct 25 12:10:15 EDT 2013
User: price-jones
Dark Spectrum Present: No
Reference Spectrum Present: No
Number of Sampled Component Spectra: 1
Spectrometers: USB2+H05261
Integration Time (usec): 100000 (USB2+H05261)
Spectra Averaged: 1 (USB2+H05261)
Boxcar Smoothing: 0 (USB2+H05261)
Correct for Electrical Dark: No (USB2+H05261)
Strobe/Lamp Enabled: No (USB2+H05261)
Correct for Detector Non-linearity: No (USB2+H05261)
Correct for Stray Light: No (USB2+H05261)
Number of Pixels in Processed Spectrum: 2048
>>>>>Begin Processed Spectral Data<<<<<
365.73	355.76
365.92	355.76
366.12	355.76
366.32	304.27
366.52	238.73
366.72	287.89
366.91	236.39
367.11	220.01
367.31	287.89
367.51	266.82
367.70	243.42
367.90	212.99
368.10	198.95
368.30	238.73
368.49	224.69
368.69	248.10
368.89	231.71
369.09	245.76
369.28	203.63
369.48	278.52
369.68	308.95
369.87	320.65
370.07	306.61
370.27	304.27
370.47	332.36
370.66	346.40
370.86	414.27
371.06	311.29
371.25	447.04
371.45	337.04
371.65	351.08
371.84	339.38
372.04	416.62
372.24	447.04
372.44	386.19
372.63	381.51
372.83	433.00
373.03	381.51
373.22	334.70
373.42	348.74
373.62	416.62
373.81	372.15
374.01	355.76
374.21	444.70
374.40	367.46
374.60	376.83
374.79	433.00
374.99	425.98
375.19	437.68
375.38	372.15
375.58	393.21
375.78	409.59
375.97	372.15
376.17	418.96
376.37	430.66
376.56	376.83
376.76	411.93
376.95	407.25
377.15	414.27
377.35	430.66
377.54	330.02
377.74	388.53
377.93	390.87
378.13	414.27
378.33	472.79
378.52	414.27
378.72	500.87
378.91	435.34
379.11	433.00
379.31	447.04
379.50	395.55
379.70	437.68
379.89	390.87
380.09	414.27
380.28	442.36
380.48	332.36
380.68	273.84
380.87	388.53
381.07	376.83
381.26	409.59
381.46	393.21
381.65	393.21
381.85	411.93
382.04	423.64
382.24	404.91
382.43	320.65
382.63	332.36
382.83	355.76
383.02	418.96
383.22	414.27
383.41	414.27
383.61	351.08
383.80	407.25
384.00	451.72
384.19	374.49
384.39	362.78
384.58	402.57
384.78	428.32
384.97	409.59
385.17	344.06
385.36	337.04
385.56	383.85
385.75	353.42
385.95	409.59
386.14	425.98
386.34	353.42
386.53	372.15
386.72	376.83
386.92	500.87
387.11	407.25
387.31	461.09
387.50	374.49
387.70	383.85
387.89	397.89
388.09	390.87
388.28	404.91
388.48	428.32
388.67	423.64
388.86	407.25
389.06	395.55
389.25	390.87
389.45	407.25
389.64	416.62
389.84	423.64
390.03	376.83
390.22	416.62
390.42	397.89
390.61	404.91
390.81	362.78
391.00	414.27
391.19	430.66
391.39	383.85
391.58	435.34
391.78	421.30
391.97	379.17
392.16	397.89
392.36	514.92
392.55	355.76
392.75	451.72
392.94	362.78
393.13	376.83
393.33	355.76
393.52	444.70
393.71	477.47
393.91	414.27
394.10	360.44
394.29	411.93
394.49	397.89
394.68	383.85
394.88	395.55
395.07	437.68
395.26	411.93
395.46	388.53
395.65	388.53
395.84	411.93
396.04	470.45
396.23	433.00
396.42	425.98
396.62	414.27
396.81	416.62
397.00	355.76
397.19	409.59
397.39	416.62
397.58	386.19
397.77	353.42
397.97	351.08
398.16	423.64
398.35	355.76
398.55	435.34
398.74	358.10
398.93	365.12
399.12	362.78
399.32	400.23
399.51	372.15
399.70	493.85
399.90	381.51
400.09	416.62
400.28	423.64
400.47	425.98
400.67	416.62
400.86	397.89
401.05	425.98
401.24	414.27
401.44	449.38
401.63	395.55
401.82	505.56
402.01	400.23
402.21	479.81
402.40	400.23
402.59	484.49
402.78	388.53
402.97	355.76
403.17	409.59
403.36	397.89
403.55	435.34
403.74	395.55
403.93	404.91
404.13	444.70
404.32	397.89
404.51	360.44
404.70	451.72
404.89	383.85
405.09	472.79
405.28	404.91
405.47	351.08
405.66	421.30
405.85	465.77
406.05	374.49
406.24	407.25
406.43	421.30
406.62	372.15
406.81	444.70
407.00	388.53
407.20	367.46
407.39	369.80
407.58	409.59
407.77	407.25
407.96	355.76
408.15	458.74
408.34	545.34
408.54	348.74
408.73	482.15
408.92	449.38
409.11	416.62
409.30	390.87
409.49	327.68
409.68	463.43
409.87	395.55
410.07	421.30
410.26	423.64
410.45	465.77
410.64	355.76
410.83	379.17
411.02	390.87
411.21	388.53
411.40	428.32
411.59	367.46
411.78	362.78
411.98	365.12
412.17	404.91
412.36	444.70
412.55	421.30
412.74	411.93
412.93	451.72
413.12	381.51
413.31	423.64
413.50	437.68
413.69	435.34
413.88	428.32
414.07	482.15
414.26	376.83
414.45	430.66
414.64	470.45
414.83	388.53
415.02	479.81
415.22	418.96
415.41	428.32
415.60	390.87
415.79	381.51
415.98	418.96
416.17	365.12
416.36	435.34
416.55	397.89
416.74	407.25
416.93	451.72
417.12	433.00
417.31	381.51
417.50	433.00
417.69	465.77
417.88	475.13
418.07	348.74
418.26	365.12
418.45	444.70
418.64	423.64
418.83	435.34
419.02	407.25
419.21	451.72
419.39	421.30
419.58	346.40
419.77	362.78
419.96	393.21
420.15	397.89
420.34	440.02
420.53	386.19
420.72	451.72
420.91	449.38
421.10	416.62
421.29	395.55
421.48	404.91
421.67	388.53
421.86	472.79
422.05	407.25
422.24	458.74
422.43	475.13
422.61	351.08
422.80	505.56
422.99	449.38
423.18	379.17
423.37	484.49
423.56	440.02
423.75	381.51
423.94	379.17
424.13	411.93
424.32	425.98
424.50	383.85
424.69	374.49
424.88	402.57
425.07	449.38
425.26	475.13
425.45	407.25
425.64	418.96
425.83	374.49
426.01	430.66
426.20	407.25
426.39	404.91
426.58	390.87
426.77	451.72
426.96	517.26
427.15	395.55
427.33	421.30
427.52	388.53
427.71	425.98
427.90	344.06
428.09	447.04
428.28	409.59
428.46	365.12
428.65	369.80
428.84	374.49
429.03	416.62
429.22	435.34
429.40	418.96
429.59	407.25
429.78	414.27
429.97	322.99
430.16	449.38
430.34	437.68
430.53	388.53
430.72	374.49
430.91	507.90
431.10	400.23
431.28	414.27
431.47	421.30
431.66	484.49
431.85	456.40
432.03	376.83
432.22	379.17
432.41	451.72
432.60	423.64
432.79	320.65
432.97	447.04
433.16	346.40
433.35	397.89
433.54	360.44
433.72	365.12
433.91	447.04
434.10	322.99
434.28	425.98
434.47	402.57
434.66	425.98
434.85	414.27
435.03	397.89
435.22	442.36
435.41	454.06
435.59	461.09
435.78	379.17
435.97	428.32
436.16	411.93
436.34	404.91
436.53	397.89
436.72	411.93
436.90	388.53
437.09	423.64
437.28	381.51
437.46	416.62
437.65	428.32
437.84	365.12
438.02	463.43
438.21	423.64
438.40	395.55
438.58	418.96
438.77	360.44
438.96	484.49
439.14	411.93
439.33	379.17
439.52	493.85
439.70	416.62
439.89	346.40
440.08	346.40
440.26	444.70
440.45	421.30
440.63	404.91
440.82	440.02
441.01	428.32
441.19	437.68
441.38	456.40
441.57	430.66
441.75	435.34
441.94	421.30
442.12	423.64
442.31	386.19
442.50	442.36
442.68	430.66
442.87	325.33
443.05	411.93
443.24	346.40
443.43	395.55
443.61	372.15
443.80	444.70
443.98	407.25
444.17	393.21
444.35	423.64
444.54	437.68
444.73	390.87
444.91	470.45
445.10	379.17
445.28	402.57
445.47	435.34
445.65	397.89
445.84	421.30
446.02	386.19
446.21	395.55
446.39	404.91
446.58	388.53
446.77	442.36
446.95	407.25
447.14	365.12
447.32	472.79
447.51	397.89
447.69	390.87
447.88	454.06
448.06	472.79
448.25	397.89
448.43	425.98
448.62	411.93
448.80	365.12
448.99	430.66
449.17	369.80
449.36	414.27
449.54	386.19
449.73	433.00
449.91	428.32
450.10	414.27
450.28	479.81
450.46	507.90
450.65	365.12
450.83	409.59
451.02	388.53
451.20	381.51
451.39	442.36
451.57	425.98
451.76	379.17
451.94	367.46
452.13	428.32
452.31	489.17
452.49	463.43
452.68	372.15
452.86	416.62
453.05	425.98
453.23	435.34
453.42	353.42
453.60	489.17
453.78	365.12
453.97	423.64
454.15	451.72
454.34	388.53
454.52	447.04
454.70	454.06
454.89	409.59
455.07	421.30
455.26	407.25
455.44	533.64
455.62	416.62
455.81	440.02
455.99	444.70
456.17	390.87
456.36	428.32
456.54	454.06
456.73	435.34
456.91	430.66
457.09	470.45
457.28	421.30
457.46	400.23
457.64	454.06
457.83	383.85
458.01	407.25
458.19	477.47
458.38	365.12
458.56	421.30
458.74	365.12
458.93	411.93
459.11	430.66
459.29	374.49
459.48	397.89
459.66	404.91
459.84	458.74
460.03	447.04
460.21	383.85
460.39	411.93
460.57	465.77
460.76	383.85
460.94	383.85
461.12	425.98
461.31	503.22
461.49	395.55
461.67	308.95
461.85	423.64
462.04	390.87
462.22	746.63
462.40	416.62
462.59	404.91
462.77	395.55
462.95	451.72
463.13	465.77
463.32	376.83
463.50	489.17
463.68	465.77
463.86	498.53
464.05	409.59
464.23	397.89
464.41	440.02
464.59	381.51
464.78	456.40
464.96	325.33
465.14	416.62
465.32	407.25
465.50	433.00
465.69	465.77
465.87	369.80
466.05	461.09
466.23	402.57
466.41	374.49
466.60	416.62
466.78	416.62
466.96	463.43
467.14	512.58
467.32	444.70
467.51	496.19
467.69	451.72
467.87	433.00
468.05	402.57
468.23	514.92
468.41	512.58
468.60	416.62
468.78	390.87
468.96	463.43
469.14	442.36
469.32	390.87
469.50	353.42
469.69	510.24
469.87	456.40
470.05	421.30
470.23	360.44
470.41	451.72
470.59	367.46
470.77	369.80
470.95	393.21
471.14	468.11
471.32	454.06
471.50	430.66
471.68	353.42
471.86	365.12
472.04	400.23
472.22	322.99
472.40	383.85
472.58	425.98
472.77	423.64
472.95	390.87
473.13	390.87
473.31	451.72
473.49	411.93
473.67	451.72
473.85	421.30
474.03	451.72
474.21	386.19
474.39	444.70
474.57	428.32
474.75	351.08
474.93	346.40
475.12	306.61
475.30	369.80
475.48	402.57
475.66	475.13
475.84	358.10
476.02	423.64
476.20	367.46
476.38	383.85
476.56	463.43
476.74	407.25
476.92	362.78
477.10	421.30
477.28	421.30
477.46	400.23
477.64	486.83
477.82	449.38
478.00	360.44
478.18	404.91
478.36	346.40
478.54	393.21
478.72	386.19
478.90	425.98
479.08	444.70
479.26	421.30
479.44	414.27
479.62	395.55
479.80	390.87
479.98	325.33
480.16	395.55
480.34	451.72
480.52	374.49
480.70	414.27
480.88	395.55
481.06	299.59
481.24	433.00
481.41	435.34
481.59	465.77
481.77	411.93
481.95	458.74
482.13	486.83
482.31	435.34
482.49	442.36
482.67	484.49
482.85	379.17
483.03	388.53
483.21	425.98
483.39	435.34
483.57	416.62
483.74	428.32
483.92	407.25
484.10	409.59
484.28	447.04
484.46	397.89
484.64	379.17
484.82	348.74
485.00	395.55
485.18	465.77
485.35	402.57
485.53	397.89
485.71	482.15
485.89	337.04
486.07	404.91
486.25	447.04
486.43	437.68
486.61	486.83
486.78	449.38
486.96	411.93
487.14	414.27
487.32	367.46
487.50	444.70
487.68	451.72
487.85	411.93
488.03	458.74
488.21	510.24
488.39	355.76
488.57	416.62
488.75	423.64
488.92	470.45
489.10	395.55
489.28	407.25
489.46	437.68
489.64	400.23
489.81	444.70
489.99	381.51
490.17	397.89
490.35	503.22
490.53	444.70
490.70	454.06
490.88	393.21
491.06	430.66
491.24	517.26
491.41	407.25
491.59	416.62
491.77	372.15
491.95	337.04
492.13	418.96
492.30	376.83
492.48	344.06
492.66	442.36
492.84	433.00
493.01	442.36
493.19	442.36
493.37	479.81
493.54	528.96
493.72	402.57
493.90	423.64
494.08	435.34
494.25	400.23
494.43	479.81
494.61	360.44
494.79	383.85
494.96	362.78
495.14	411.93
495.32	447.04
495.49	355.76
495.67	397.89
495.85	418.96
496.02	430.66
496.20	381.51
496.38	437.68
496.55	400.23
496.73	461.09
496.91	386.19
497.09	430.66
497.26	428.32
497.44	456.40
497.62	315.97
497.79	386.19
497.97	433.00
498.14	440.02
498.32	353.42
498.50	454.06
498.67	423.64
498.85	374.49
499.03	447.04
499.20	484.49
499.38	456.40
499.56	416.62
499.73	411.93
499.91	388.53
500.08	353.42
500.26	383.85
500.44	388.53
500.61	404.91
500.79	447.04
500.97	414.27
501.14	449.38
501.32	367.46
501.49	411.93
501.67	425.98
501.84	395.55
502.02	414.27
502.20	561.73
502.37	423.64
502.55	465.77
502.72	472.79
502.90	423.64
503.07	393.21
503.25	407.25
503.43	444.70
503.60	390.87
503.78	421.30
503.95	461.09
504.13	383.85
504.30	400.23
504.48	421.30
504.65	451.72
504.83	454.06
505.01	440.02
505.18	482.15
505.36	486.83
505.53	367.46
505.71	388.53
505.88	449.38
506.06	386.19
506.23	376.83
506.41	454.06
506.58	423.64
506.76	411.93
506.93	442.36
507.11	383.85
507.28	330.02
507.46	416.62
507.63	458.74
507.81	358.10
507.98	442.36
508.16	449.38
508.33	428.32
508.50	379.17
508.68	440.02
508.85	379.17
509.03	477.47
509.20	404.91
509.38	407.25
509.55	407.25
509.73	479.81
509.90	451.72
510.08	318.31
510.25	430.66
510.42	372.15
510.60	416.62
510.77	383.85
510.95	503.22
511.12	414.27
511.30	465.77
511.47	470.45
511.64	482.15
511.82	341.72
511.99	397.89
512.17	416.62
512.34	444.70
512.51	456.40
512.69	449.38
512.86	435.34
513.04	454.06
513.21	407.25
513.38	454.06
513.56	437.68
513.73	393.21
513.90	402.57
514.08	449.38
514.25	521.94
514.43	437.68
514.60	437.68
514.77	454.06
514.95	390.87
515.12	404.91
515.29	454.06
515.47	458.74
515.64	461.09
515.81	447.04
515.99	433.00
516.16	400.23
516.33	418.96
516.51	386.19
516.68	397.89
516.85	416.62
517.03	475.13
517.20	430.66
517.37	409.59
517.54	407.25
517.72	404.91
517.89	416.62
518.06	330.02
518.24	393.21
518.41	475.13
518.58	414.27
518.75	381.51
518.93	421.30
519.10	376.83
519.27	421.30
519.45	358.10
519.62	407.25
519.79	456.40
519.96	397.89
520.14	397.89
520.31	395.55
520.48	369.80
520.65	442.36
520.83	468.11
521.00	440.02
521.17	456.40
521.34	367.46
521.52	444.70
521.69	320.65
521.86	355.76
522.03	397.89
522.20	437.68
522.38	332.36
522.55	470.45
522.72	308.95
522.89	402.57
523.07	409.59
523.24	402.57
523.41	440.02
523.58	374.49
523.75	383.85
523.92	355.76
524.10	458.74
524.27	416.62
524.44	393.21
524.61	379.17
524.78	418.96
524.96	437.68
525.13	414.27
525.30	456.40
525.47	418.96
525.64	407.25
525.81	423.64
525.98	360.44
526.16	360.44
526.33	416.62
526.50	409.59
526.67	379.17
526.84	383.85
527.01	442.36
527.18	407.25
527.36	442.36
527.53	390.87
527.70	386.19
527.87	423.64
528.04	409.59
528.21	444.70
528.38	454.06
528.55	411.93
528.72	479.81
528.89	465.77
529.07	461.09
529.24	451.72
529.41	449.38
529.58	318.31
529.75	454.06
529.92	409.59
530.09	433.00
530.26	463.43
530.43	423.64
530.60	416.62
530.77	367.46
530.94	461.09
531.11	437.68
531.28	395.55
531.46	430.66
531.63	454.06
531.80	400.23
531.97	390.87
532.14	411.93
532.31	451.72
532.48	479.81
532.65	400.23
532.82	437.68
532.99	402.57
533.16	451.72
533.33	482.15
533.50	421.30
533.67	411.93
533.84	411.93
534.01	447.04
534.18	423.64
534.35	409.59
534.52	376.83
534.69	449.38
534.86	472.79
535.03	388.53
535.20	404.91
535.37	332.36
535.54	383.85
535.71	372.15
535.88	404.91
536.05	404.91
536.22	442.36
536.38	418.96
536.55	428.32
536.72	404.91
536.89	400.23
537.06	332.36
537.23	449.38
537.40	376.83
537.57	404.91
537.74	397.89
537.91	437.68
538.08	353.42
538.25	531.30
538.42	320.65
538.59	440.02
538.75	468.11
538.92	334.70
539.09	393.21
539.26	332.36
539.43	454.06
539.60	470.45
539.77	428.32
539.94	416.62
540.11	330.02
540.28	486.83
540.44	423.64
540.61	404.91
540.78	433.00
540.95	416.62
541.12	470.45
541.29	402.57
541.46	437.68
541.62	400.23
541.79	454.06
541.96	393.21
542.13	395.55
542.30	437.68
542.47	425.98
542.63	451.72
542.80	421.30
542.97	374.49
543.14	435.34
543.31	414.27
543.48	395.55
543.64	493.85
543.81	383.85
543.98	449.38
544.15	393.21
544.32	425.98
544.48	411.93
544.65	355.76
544.82	337.04
544.99	400.23
545.16	421.30
545.32	414.27
545.49	451.72
545.66	440.02
545.83	383.85
546.00	337.04
546.16	498.53
546.33	440.02
546.50	428.32
546.67	428.32
546.83	421.30
547.00	451.72
547.17	463.43
547.34	386.19
547.50	367.46
547.67	404.91
547.84	425.98
548.00	409.59
548.17	341.72
548.34	416.62
548.51	458.74
548.67	421.30
548.84	404.91
549.01	381.51
549.18	418.96
549.34	454.06
549.51	451.72
549.68	491.51
549.84	360.44
550.01	428.32
550.18	470.45
550.34	479.81
550.51	425.98
550.68	388.53
550.84	362.78
551.01	365.12
551.18	388.53
551.34	444.70
551.51	423.64
551.68	440.02
551.84	386.19
552.01	433.00
552.18	461.09
552.34	346.40
552.51	390.87
552.68	383.85
552.84	435.34
553.01	440.02
553.18	435.34
553.34	449.38
553.51	383.85
553.67	407.25
553.84	465.77
554.01	461.09
554.17	437.68
554.34	430.66
554.51	489.17
554.67	407.25
554.84	456.40
555.00	386.19
555.17	400.23
555.33	479.81
555.50	404.91
555.67	421.30
555.83	351.08
556.00	411.93
556.16	554.71
556.33	458.74
556.50	418.96
556.66	330.02
556.83	461.09
556.99	447.04
557.16	383.85
557.32	409.59
557.49	407.25
557.65	409.59
557.82	418.96
557.98	376.83
558.15	386.19
558.32	470.45
558.48	367.46
558.65	402.57
558.81	528.96
558.98	496.19
559.14	484.49
559.31	458.74
559.47	409.59
559.64	461.09
559.80	433.00
559.97	463.43
560.13	383.85
560.30	416.62
560.46	425.98
560.63	433.00
560.79	470.45
560.96	435.34
561.12	353.42
561.29	440.02
561.45	404.91
561.61	351.08
561.78	524.28
561.94	458.74
562.11	393.21
562.27	400.23
562.44	425.98
562.60	386.19
562.77	388.53
562.93	388.53
563.10	418.96
563.26	383.85
563.42	341.72
563.59	454.06
563.75	355.76
563.92	451.72
564.08	416.62
564.24	395.55
564.41	479.81
564.57	423.64
564.74	458.74
564.90	388.53
565.07	428.32
565.23	479.81
565.39	428.32
565.56	433.00
565.72	430.66
565.88	479.81
566.05	365.12
566.21	451.72
566.38	383.85
566.54	390.87
566.70	425.98
566.87	400.23
567.03	402.57
567.19	402.57
567.36	440.02
567.52	360.44
567.68	444.70
567.85	454.06
568.01	456.40
568.17	409.59
568.34	383.85
568.50	430.66
568.66	411.93
568.83	503.22
568.99	444.70
569.15	475.13
569.32	521.94
569.48	402.57
569.64	444.70
569.81	411.93
569.97	400.23
570.13	390.87
570.30	332.36
570.46	461.09
570.62	418.96
570.78	435.34
570.95	447.04
571.11	360.44
571.27	465.77
571.43	362.78
571.60	442.36
571.76	435.34
571.92	463.43
572.09	372.15
572.25	433.00
572.41	409.59
572.57	463.43
572.74	433.00
572.90	407.25
573.06	407.25
573.22	330.02
573.38	404.91
573.55	404.91
573.71	416.62
573.87	386.19
574.03	425.98
574.20	437.68
574.36	411.93
574.52	435.34
574.68	379.17
574.84	397.89
575.01	351.08
575.17	440.02
575.33	360.44
575.49	440.02
575.65	339.38
575.82	416.62
575.98	428.32
576.14	386.19
576.30	407.25
576.46	449.38
576.62	390.87
576.79	437.68
576.95	458.74
577.11	421.30
577.27	433.00
577.43	376.83
577.59	444.70
577.75	386.19
577.92	449.38
578.08	381.51
578.24	362.78
578.40	447.04
578.56	449.38
578.72	472.79
578.88	383.85
579.04	414.27
579.21	449.38
579.37	388.53
579.53	402.57
579.69	390.87
579.85	383.85
580.01	372.15
580.17	365.12
580.33	383.85
580.49	505.56
580.65	449.38
580.82	348.74
580.98	397.89
581.14	379.17
581.30	416.62
581.46	400.23
581.62	472.79
581.78	369.80
581.94	418.96
582.10	484.49
582.26	351.08
582.42	451.72
582.58	421.30
582.74	348.74
582.90	482.15
583.06	449.38
583.22	409.59
583.38	353.42
583.54	397.89
583.70	440.02
583.86	463.43
584.02	475.13
584.18	372.15
584.34	367.46
584.50	411.93
584.66	407.25
584.82	442.36
584.98	425.98
585.14	416.62
585.30	451.72
585.46	435.34
585.62	425.98
585.78	437.68
585.94	400.23
586.10	374.49
586.26	433.00
586.42	437.68
586.58	435.34
586.74	355.76
586.90	423.64
587.06	458.74
587.22	360.44
587.38	355.76
587.54	367.46
587.70	332.36
587.86	423.64
588.02	400.23
588.18	430.66
588.34	484.49
588.49	372.15
588.65	468.11
588.81	372.15
588.97	472.79
589.13	435.34
589.29	442.36
589.45	346.40
589.61	358.10
589.77	449.38
589.93	339.38
590.08	355.76
590.24	388.53
590.40	404.91
590.56	411.93
590.72	390.87
590.88	334.70
591.04	397.89
591.20	341.72
591.35	409.59
591.51	451.72
591.67	395.55
591.83	428.32
591.99	381.51
592.15	468.11
592.31	416.62
592.46	442.36
592.62	404.91
592.78	379.17
592.94	437.68
593.10	367.46
593.26	404.91
593.41	386.19
593.57	379.17
593.73	297.25
593.89	390.87
594.05	409.59
594.20	409.59
594.36	470.45
594.52	444.70
594.68	390.87
594.84	400.23
594.99	484.49
595.15	472.79
595.31	437.68
595.47	519.60
595.62	341.72
595.78	369.80
595.94	433.00
596.10	463.43
596.25	381.51
596.41	327.68
596.57	386.19
596.73	404.91
596.88	447.04
597.04	444.70
597.20	362.78
597.36	395.55
597.51	383.85
597.67	442.36
597.83	512.58
597.99	444.70
598.14	402.57
598.30	479.81
598.46	458.74
598.61	367.46
598.77	404.91
598.93	407.25
599.09	430.66
599.24	437.68
599.40	442.36
599.56	397.89
599.71	435.34
599.87	397.89
600.03	433.00
600.18	449.38
600.34	395.55
600.50	456.40
600.65	388.53
600.81	454.06
600.97	339.38
601.12	379.17
601.28	367.46
601.44	421.30
601.59	369.80
601.75	461.09
601.91	465.77
602.06	472.79
602.22	437.68
602.37	461.09
602.53	472.79
602.69	423.64
602.84	421.30
603.00	348.74
603.16	430.66
603.31	486.83
603.47	477.47
603.62	362.78
603.78	468.11
603.94	353.42
604.09	411.93
604.25	507.90
604.40	397.89
604.56	442.36
604.71	433.00
604.87	400.23
605.03	447.04
605.18	433.00
605.34	540.66
605.49	383.85
605.65	388.53
605.80	404.91
605.96	355.76
606.12	423.64
606.27	346.40
606.43	442.36
606.58	425.98
606.74	430.66
606.89	416.62
607.05	437.68
607.20	458.74
607.36	449.38
607.51	402.57
607.67	484.49
607.82	433.00
607.98	395.55
608.13	402.57
608.29	362.78
608.44	416.62
608.60	521.94
608.75	425.98
608.91	468.11
609.06	428.32
609.22	440.02
609.37	437.68
609.53	362.78
609.68	416.62
609.84	440.02
609.99	526.62
610.15	440.02
610.30	402.57
610.46	521.94
610.61	423.64
610.76	400.23
610.92	454.06
611.07	400.23
611.23	482.15
611.38	414.27
611.54	447.04
611.69	339.38
611.84	400.23
612.00	449.38
612.15	440.02
612.31	402.57
612.46	442.36
612.62	395.55
612.77	472.79
612.92	475.13
613.08	440.02
613.23	479.81
613.39	444.70
613.54	414.27
613.69	440.02
613.85	372.15
614.00	411.93
614.15	456.40
614.31	395.55
614.46	400.23
614.62	416.62
614.77	423.64
614.92	365.12
615.08	395.55
615.23	369.80
615.38	421.30
615.54	433.00
615.69	477.47
615.84	395.55
616.00	411.93
616.15	447.04
616.30	397.89
616.46	404.91
616.61	407.25
616.76	463.43
616.92	397.89
617.07	409.59
617.22	425.98
617.37	409.59
617.53	475.13
617.68	367.46
617.83	423.64
617.99	381.51
618.14	449.38
618.29	468.11
618.45	409.59
618.60	414.27
618.75	369.80
618.90	376.83
619.06	461.09
619.21	435.34
619.36	496.19
619.51	444.70
619.67	355.76
619.82	425.98
619.97	404.91
620.12	423.64
620.28	435.34
620.43	435.34
620.58	414.27
620.73	425.98
620.89	397.89
621.04	435.34
621.19	400.23
621.34	402.57
621.49	341.72
621.65	425.98
621.80	449.38
621.95	414.27
622.10	444.70
622.25	365.12
622.41	458.74
622.56	444.70
622.71	407.25
622.86	484.49
623.01	414.27
623.16	435.34
623.32	332.36
623.47	458.74
623.62	458.74
623.77	430.66
623.92	367.46
624.07	372.15
624.23	423.64
624.38	374.49
624.53	430.66
624.68	472.79
624.83	437.68
624.98	407.25
625.13	418.96
625.29	360.44
625.44	393.21
625.59	402.57
625.74	397.89
625.89	397.89
626.04	374.49
626.19	376.83
626.34	409.59
626.49	416.62
626.65	428.32
626.80	472.79
626.95	355.76
627.10	388.53
627.25	337.04
627.40	468.11
627.55	407.25
627.70	395.55
627.85	461.09
628.00	465.77
628.15	418.96
628.30	451.72
628.45	400.23
628.60	374.49
628.76	397.89
628.91	465.77
629.06	383.85
629.21	449.38
629.36	484.49
629.51	402.57
629.66	449.38
629.81	421.30
629.96	360.44
630.11	425.98
630.26	395.55
630.41	393.21
630.56	390.87
630.71	386.19
630.86	372.15
631.01	404.91
631.16	395.55
631.31	428.32
631.46	365.12
631.61	390.87
631.76	433.00
631.91	404.91
632.06	510.24
632.21	456.40
632.36	442.36
632.51	360.44
632.66	346.40
632.81	411.93
632.96	383.85
633.10	479.81
633.25	428.32
633.40	407.25
633.55	379.17
633.70	362.78
633.85	456.40
634.00	449.38
634.15	435.34
634.30	430.66
634.45	393.21
634.60	456.40
634.75	379.17
634.90	390.87
635.05	402.57
635.19	491.51
635.34	482.15
635.49	470.45
635.64	458.74
635.79	461.09
635.94	484.49
636.09	425.98
636.24	409.59
636.39	449.38
636.53	514.92
636.68	416.62
636.83	451.72
636.98	390.87
637.13	465.77
637.28	430.66
637.43	451.72
637.57	400.23
637.72	423.64
637.87	393.21
638.02	409.59
638.17	395.55
638.32	379.17
638.46	423.64
638.61	381.51
638.76	365.12
638.91	381.51
639.06	390.87
639.20	447.04
639.35	430.66
639.50	407.25
639.65	442.36
639.80	430.66
639.94	447.04
640.09	468.11
640.24	414.27
640.39	404.91
640.54	423.64
640.68	437.68
640.83	444.70
640.98	388.53
641.13	442.36
641.27	447.04
641.42	409.59
641.57	407.25
641.72	461.09
641.86	449.38
642.01	491.51
642.16	444.70
642.31	435.34
642.45	486.83
642.60	472.79
642.75	423.64
642.90	433.00
643.04	320.65
643.19	360.44
643.34	393.21
643.48	418.96
643.63	475.13
643.78	447.04
643.93	416.62
644.07	358.10
644.22	397.89
644.37	458.74
644.51	390.87
644.66	491.51
644.81	395.55
644.95	449.38
645.10	421.30
645.25	433.00
645.39	409.59
645.54	437.68
645.69	465.77
645.83	416.62
645.98	514.92
646.13	367.46
646.27	489.17
646.42	395.55
646.57	395.55
646.71	421.30
646.86	381.51
647.00	362.78
647.15	440.02
647.30	369.80
647.44	379.17
647.59	381.51
647.74	334.70
647.88	423.64
648.03	353.42
648.17	440.02
648.32	409.59
648.47	423.64
648.61	423.64
648.76	404.91
648.90	428.32
649.05	430.66
649.20	393.21
649.34	388.53
649.49	491.51
649.63	451.72
649.78	421.30
649.92	418.96
650.07	381.51
650.21	313.63
650.36	456.40
650.51	451.72
650.65	430.66
650.80	407.25
650.94	400.23
651.09	367.46
651.23	414.27
651.38	437.68
651.52	318.31
651.67	386.19
651.81	428.32
651.96	400.23
652.10	425.98
652.25	381.51
652.39	435.34
652.54	451.72
652.68	477.47
652.83	365.12
652.97	463.43
653.12	447.04
653.26	393.21
653.41	402.57
653.55	393.21
653.70	369.80
653.84	418.96
653.99	463.43
654.13	458.74
654.27	442.36
654.42	433.00
654.56	456.40
654.71	416.62
654.85	383.85
655.00	461.09
655.14	454.06
655.29	428.32
655.43	409.59
655.57	465.77
655.72	458.74
655.86	447.04
656.01	390.87
656.15	411.93
656.30	428.32
656.44	430.66
656.58	463.43
656.73	423.64
656.87	449.38
657.01	411.93
657.16	454.06
657.30	409.59
657.45	519.60
657.59	440.02
657.73	411.93
657.88	400.23
658.02	463.43
658.16	383.85
658.31	409.59
658.45	440.02
658.60	306.61
658.74	456.40
658.88	341.72
659.03	428.32
659.17	381.51
659.31	369.80
659.46	437.68
659.60	367.46
659.74	390.87
659.89	416.62
660.03	451.72
660.17	461.09
660.32	468.11
660.46	388.53
660.60	372.15
660.74	397.89
660.89	463.43
661.03	404.91
661.17	458.74
661.32	449.38
661.46	428.32
661.60	479.81
661.74	386.19
661.89	400.23
662.03	470.45
662.17	404.91
662.31	400.23
662.46	477.47
662.60	479.81
662.74	400.23
662.88	414.27
663.03	437.68
663.17	393.21
663.31	433.00
663.45	425.98
663.60	383.85
663.74	423.64
663.88	360.44
664.02	365.12
664.17	393.21
664.31	430.66
664.45	435.34
664.59	447.04
664.73	430.66
664.88	374.49
665.02	461.09
665.16	461.09
665.30	456.40
665.44	358.10
665.59	475.13
665.73	393.21
665.87	444.70
666.01	376.83
666.15	414.27
666.29	397.89
666.44	456.40
666.58	465.77
666.72	390.87
666.86	320.65
667.00	524.28
667.14	437.68
667.28	428.32
667.43	421.30
667.57	440.02
667.71	435.34
667.85	351.08
667.99	458.74
668.13	435.34
668.27	442.36
668.41	411.93
668.56	440.02
668.70	409.59
668.84	430.66
668.98	465.77
669.12	393.21
669.26	514.92
669.40	402.57
669.54	470.45
669.68	390.87
669.82	416.62
669.96	484.49
670.10	435.34
670.25	407.25
670.39	386.19
670.53	379.17
670.67	437.68
670.81	425.98
670.95	360.44
671.09	400.23
671.23	444.70
671.37	475.13
671.51	409.59
671.65	456.40
671.79	461.09
671.93	337.04
672.07	463.43
672.21	442.36
672.35	484.49
672.49	353.42
672.63	402.57
672.77	479.81
672.91	397.89
673.05	379.17
673.19	435.34
673.33	404.91
673.47	444.70
673.61	451.72
673.75	344.06
673.89	411.93
674.03	409.59
674.17	486.83
674.31	470.45
674.45	416.62
674.59	402.57
674.73	418.96
674.87	381.51
675.01	430.66
675.15	456.40
675.29	411.93
675.43	404.91
675.56	500.87
675.70	402.57
675.84	461.09
675.98	437.68
676.12	407.25
676.26	433.00
676.40	348.74
676.54	418.96
676.68	449.38
676.82	442.36
676.96	383.85
677.10	411.93
677.23	407.25
677.37	449.38
677.51	411.93
677.65	503.22
677.79	383.85
677.93	409.59
678.07	418.96
678.21	355.76
678.34	362.78
678.48	360.44
678.62	367.46
678.76	456.40
678.90	411.93
679.04	425.98
679.18	332.36
679.31	367.46
679.45	437.68
679.59	430.66
679.73	500.87
679.87	393.21
680.00	360.44
680.14	435.34
680.28	451.72
680.42	404.91
680.56	461.09
680.70	461.09
680.83	449.38
680.97	344.06
681.11	395.55
681.25	468.11
681.39	512.58
681.52	468.11
681.66	437.68
681.80	383.85
681.94	407.25
682.07	365.12
682.21	440.02
682.35	344.06
682.49	407.25
682.62	489.17
682.76	390.87
682.90	449.38
683.04	458.74
683.17	423.64
683.31	402.57
683.45	423.64
683.59	477.47
683.72	456.40
683.86	416.62
684.00	393.21
684.13	433.00
684.27	440.02
684.41	454.06
684.55	400.23
684.68	383.85
684.82	433.00
684.96	407.25
685.09	430.66
685.23	430.66
685.37	372.15
685.50	393.21
685.64	479.81
685.78	440.02
685.91	440.02
686.05	435.34
686.19	393.21
686.32	435.34
686.46	423.64
686.60	395.55
686.73	447.04
686.87	390.87
687.01	365.12
687.14	390.87
687.28	400.23
687.42	454.06
687.55	498.53
687.69	423.64
687.82	400.23
687.96	379.17
688.10	397.89
688.23	482.15
688.37	423.64
688.50	454.06
688.64	393.21
688.78	355.76
688.91	344.06
689.05	402.57
689.18	383.85
689.32	416.62
689.46	414.27
689.59	463.43
689.73	407.25
689.86	362.78
690.00	358.10
690.13	437.68
690.27	400.23
690.41	402.57
690.54	442.36
690.68	479.81
690.81	418.96
690.95	440.02
691.08	421.30
691.22	367.46
691.35	425.98
691.49	435.34
691.62	470.45
691.76	463.43
691.89	433.00
692.03	334.70
692.16	414.27
692.30	414.27
692.43	442.36
692.57	430.66
692.70	365.12
692.84	411.93
692.97	374.49
693.11	376.83
693.24	472.79
693.38	402.57
693.51	360.44
693.65	484.49
693.78	381.51
693.92	428.32
694.05	404.91
694.19	414.27
694.32	404.91
694.45	461.09
694.59	442.36
694.72	421.30
694.86	383.85
694.99	404.91
695.13	444.70
695.26	416.62
695.39	386.19
695.53	418.96
695.66	456.40
695.80	430.66
695.93	304.27
696.07	397.89
696.20	472.79
696.33	337.04
696.47	411.93
696.60	425.98
696.73	388.53
696.87	430.66
697.00	421.30
697.14	411.93
697.27	414.27
697.40	517.26
697.54	433.00
697.67	369.80
697.80	404.91
697.94	400.23
698.07	437.68
698.21	414.27
698.34	454.06
698.47	381.51
698.61	458.74
698.74	348.74
698.87	437.68
699.01	475.13
699.14	393.21
699.27	402.57
699.40	430.66
699.54	388.53
699.67	437.68
699.80	360.44
699.94	388.53
700.07	447.04
700.20	482.15
700.34	353.42
700.47	337.04
700.60	409.59
700.73	383.85
700.87	381.51
701.00	395.55
701.13	388.53
701.26	444.70
701.40	397.89
701.53	388.53
701.66	341.72
701.79	458.74
701.93	379.17
702.06	409.59
702.19	430.66
702.32	468.11
702.46	416.62
702.59	425.98
702.72	407.25
702.85	465.77
702.99	393.21
703.12	451.72
703.25	353.42
703.38	344.06
703.51	456.40
703.65	376.83
703.78	414.27
703.91	374.49
704.04	456.40
704.17	390.87
704.31	414.27
704.44	355.76
704.57	440.02
704.70	418.96
704.83	381.51
704.96	458.74
705.10	430.66
705.23	470.45
>>>>>End Processed Spectral Data<<<<<
