SpectraSuite Data File
++++++++++++++++++++++++++++++++++++
Date: Fri Oct 25 12:10:48 EDT 2013
User: price-jones
Dark Spectrum Present: No
Reference Spectrum Present: No
Number of Sampled Component Spectra: 1
Spectrometers: USB2+H05261
Integration Time (usec): 100000 (USB2+H05261)
Spectra Averaged: 1 (USB2+H05261)
Boxcar Smoothing: 0 (USB2+H05261)
Correct for Electrical Dark: No (USB2+H05261)
Strobe/Lamp Enabled: No (USB2+H05261)
Correct for Detector Non-linearity: No (USB2+H05261)
Correct for Stray Light: No (USB2+H05261)
Number of Pixels in Processed Spectrum: 2048
>>>>>Begin Processed Spectral Data<<<<<
365.73	337.04
365.92	337.04
366.12	337.04
366.32	241.08
366.52	273.84
366.72	313.63
366.91	252.78
367.11	166.18
367.31	203.63
367.51	212.99
367.70	280.86
367.90	287.89
368.10	243.42
368.30	194.26
368.49	252.78
368.69	299.59
368.89	266.82
369.09	280.86
369.28	285.55
369.48	280.86
369.68	231.71
369.87	287.89
370.07	315.97
370.27	259.80
370.47	360.44
370.66	330.02
370.86	287.89
371.06	386.19
371.25	397.89
371.45	379.17
371.65	449.38
371.84	346.40
372.04	437.68
372.24	379.17
372.44	404.91
372.63	388.53
372.83	461.09
373.03	458.74
373.22	454.06
373.42	376.83
373.62	390.87
373.81	402.57
374.01	346.40
374.21	472.79
374.40	402.57
374.60	397.89
374.79	411.93
374.99	449.38
375.19	397.89
375.38	407.25
375.58	374.49
375.78	411.93
375.97	421.30
376.17	468.11
376.37	339.38
376.56	388.53
376.76	519.60
376.95	367.46
377.15	435.34
377.35	418.96
377.54	451.72
377.74	395.55
377.93	402.57
378.13	454.06
378.33	416.62
378.52	404.91
378.72	510.24
378.91	400.23
379.11	407.25
379.31	367.46
379.50	449.38
379.70	376.83
379.89	414.27
380.09	421.30
380.28	430.66
380.48	425.98
380.68	418.96
380.87	390.87
381.07	414.27
381.26	362.78
381.46	428.32
381.65	376.83
381.85	365.12
382.04	390.87
382.24	414.27
382.43	383.85
382.63	362.78
382.83	409.59
383.02	437.68
383.22	428.32
383.41	383.85
383.61	388.53
383.80	421.30
384.00	479.81
384.19	379.17
384.39	442.36
384.58	355.76
384.78	409.59
384.97	372.15
385.17	416.62
385.36	449.38
385.56	388.53
385.75	397.89
385.95	334.70
386.14	486.83
386.34	388.53
386.53	418.96
386.72	416.62
386.92	395.55
387.11	395.55
387.31	402.57
387.50	486.83
387.70	442.36
387.89	400.23
388.09	381.51
388.28	362.78
388.48	437.68
388.67	433.00
388.86	365.12
389.06	358.10
389.25	383.85
389.45	388.53
389.64	409.59
389.84	397.89
390.03	423.64
390.22	484.49
390.42	437.68
390.61	383.85
390.81	290.23
391.00	421.30
391.19	463.43
391.39	376.83
391.58	477.47
391.78	435.34
391.97	435.34
392.16	433.00
392.36	489.17
392.55	456.40
392.75	358.10
392.94	353.42
393.13	388.53
393.33	365.12
393.52	353.42
393.71	468.11
393.91	425.98
394.10	388.53
394.29	322.99
394.49	376.83
394.68	390.87
394.88	468.11
395.07	444.70
395.26	461.09
395.46	374.49
395.65	407.25
395.84	440.02
396.04	425.98
396.23	360.44
396.42	423.64
396.62	386.19
396.81	468.11
397.00	444.70
397.19	369.80
397.39	437.68
397.58	407.25
397.77	395.55
397.97	400.23
398.16	465.77
398.35	390.87
398.55	416.62
398.74	308.95
398.93	390.87
399.12	395.55
399.32	430.66
399.51	374.49
399.70	418.96
399.90	423.64
400.09	386.19
400.28	456.40
400.47	320.65
400.67	341.72
400.86	444.70
401.05	381.51
401.24	360.44
401.44	456.40
401.63	313.63
401.82	468.11
402.01	404.91
402.21	358.10
402.40	374.49
402.59	397.89
402.78	379.17
402.97	402.57
403.17	440.02
403.36	348.74
403.55	411.93
403.74	376.83
403.93	411.93
404.13	425.98
404.32	433.00
404.51	362.78
404.70	367.46
404.89	400.23
405.09	425.98
405.28	334.70
405.47	348.74
405.66	409.59
405.85	393.21
406.05	381.51
406.24	386.19
406.43	421.30
406.62	440.02
406.81	437.68
407.00	461.09
407.20	390.87
407.39	376.83
407.58	402.57
407.77	400.23
407.96	376.83
408.15	437.68
408.34	395.55
408.54	430.66
408.73	395.55
408.92	351.08
409.11	454.06
409.30	365.12
409.49	362.78
409.68	379.17
409.87	393.21
410.07	423.64
410.26	444.70
410.45	334.70
410.64	346.40
410.83	433.00
411.02	404.91
411.21	451.72
411.40	437.68
411.59	428.32
411.78	444.70
411.98	449.38
412.17	304.27
412.36	355.76
412.55	339.38
412.74	407.25
412.93	365.12
413.12	461.09
413.31	425.98
413.50	421.30
413.69	402.57
413.88	486.83
414.07	372.15
414.26	416.62
414.45	444.70
414.64	409.59
414.83	383.85
415.02	407.25
415.22	402.57
415.41	421.30
415.60	435.34
415.79	304.27
415.98	463.43
416.17	418.96
416.36	421.30
416.55	402.57
416.74	468.11
416.93	393.21
417.12	433.00
417.31	344.06
417.50	369.80
417.69	444.70
417.88	379.17
418.07	344.06
418.26	411.93
418.45	374.49
418.64	400.23
418.83	440.02
419.02	475.13
419.21	402.57
419.39	500.87
419.58	423.64
419.77	388.53
419.96	407.25
420.15	451.72
420.34	414.27
420.53	433.00
420.72	451.72
420.91	416.62
421.10	463.43
421.29	362.78
421.48	425.98
421.67	433.00
421.86	383.85
422.05	341.72
422.24	332.36
422.43	486.83
422.61	472.79
422.80	358.10
422.99	402.57
423.18	411.93
423.37	402.57
423.56	409.59
423.75	421.30
423.94	355.76
424.13	334.70
424.32	358.10
424.50	409.59
424.69	400.23
424.88	421.30
425.07	360.44
425.26	421.30
425.45	409.59
425.64	418.96
425.83	451.72
426.01	435.34
426.20	400.23
426.39	393.21
426.58	503.22
426.77	414.27
426.96	402.57
427.15	400.23
427.33	397.89
427.52	411.93
427.71	425.98
427.90	435.34
428.09	379.17
428.28	376.83
428.46	353.42
428.65	402.57
428.84	482.15
429.03	437.68
429.22	447.04
429.40	472.79
429.59	423.64
429.78	472.79
429.97	421.30
430.16	344.06
430.34	437.68
430.53	456.40
430.72	465.77
430.91	428.32
431.10	330.02
431.28	416.62
431.47	374.49
431.66	409.59
431.85	418.96
432.03	435.34
432.22	533.64
432.41	411.93
432.60	379.17
432.79	346.40
432.97	402.57
433.16	447.04
433.35	421.30
433.54	395.55
433.72	421.30
433.91	404.91
434.10	372.15
434.28	374.49
434.47	409.59
434.66	374.49
434.85	397.89
435.03	461.09
435.22	433.00
435.41	423.64
435.59	435.34
435.78	416.62
435.97	393.21
436.16	435.34
436.34	451.72
436.53	461.09
436.72	425.98
436.90	418.96
437.09	444.70
437.28	468.11
437.46	479.81
437.65	416.62
437.84	381.51
438.02	383.85
438.21	407.25
438.40	482.15
438.58	393.21
438.77	437.68
438.96	465.77
439.14	365.12
439.33	416.62
439.52	437.68
439.70	344.06
439.89	496.19
440.08	397.89
440.26	442.36
440.45	447.04
440.63	390.87
440.82	388.53
441.01	433.00
441.19	402.57
441.38	397.89
441.57	390.87
441.75	397.89
441.94	430.66
442.12	369.80
442.31	393.21
442.50	479.81
442.68	440.02
442.87	386.19
443.05	395.55
443.24	348.74
443.43	390.87
443.61	444.70
443.80	435.34
443.98	388.53
444.17	463.43
444.35	397.89
444.54	355.76
444.73	416.62
444.91	414.27
445.10	315.97
445.28	374.49
445.47	414.27
445.65	463.43
445.84	404.91
446.02	451.72
446.21	362.78
446.39	348.74
446.58	388.53
446.77	454.06
446.95	430.66
447.14	428.32
447.32	465.77
447.51	414.27
447.69	477.47
447.88	414.27
448.06	411.93
448.25	337.04
448.43	428.32
448.62	454.06
448.80	449.38
448.99	500.87
449.17	386.19
449.36	337.04
449.54	397.89
449.73	315.97
449.91	383.85
450.10	433.00
450.28	491.51
450.46	418.96
450.65	395.55
450.83	383.85
451.02	418.96
451.20	425.98
451.39	423.64
451.57	369.80
451.76	388.53
451.94	360.44
452.13	414.27
452.31	395.55
452.49	423.64
452.68	425.98
452.86	458.74
453.05	428.32
453.23	374.49
453.42	425.98
453.60	418.96
453.78	381.51
453.97	395.55
454.15	367.46
454.34	430.66
454.52	358.10
454.70	472.79
454.89	374.49
455.07	395.55
455.26	388.53
455.44	395.55
455.62	383.85
455.81	372.15
455.99	355.76
456.17	447.04
456.36	376.83
456.54	451.72
456.73	360.44
456.91	341.72
457.09	442.36
457.28	393.21
457.46	365.12
457.64	383.85
457.83	390.87
458.01	444.70
458.19	395.55
458.38	442.36
458.56	362.78
458.74	411.93
458.93	465.77
459.11	402.57
459.29	458.74
459.48	447.04
459.66	376.83
459.84	383.85
460.03	463.43
460.21	376.83
460.39	440.02
460.57	404.91
460.76	447.04
460.94	416.62
461.12	414.27
461.31	418.96
461.49	486.83
461.67	425.98
461.85	449.38
462.04	433.00
462.22	760.67
462.40	376.83
462.59	465.77
462.77	421.30
462.95	477.47
463.13	421.30
463.32	442.36
463.50	430.66
463.68	433.00
463.86	367.46
464.05	416.62
464.23	465.77
464.41	444.70
464.59	400.23
464.78	496.19
464.96	409.59
465.14	381.51
465.32	407.25
465.50	454.06
465.69	435.34
465.87	362.78
466.05	454.06
466.23	421.30
466.41	383.85
466.60	369.80
466.78	433.00
466.96	372.15
467.14	416.62
467.32	407.25
467.51	334.70
467.69	421.30
467.87	428.32
468.05	395.55
468.23	416.62
468.41	418.96
468.60	372.15
468.78	393.21
468.96	425.98
469.14	416.62
469.32	358.10
469.50	425.98
469.69	430.66
469.87	486.83
470.05	425.98
470.23	435.34
470.41	365.12
470.59	358.10
470.77	475.13
470.95	397.89
471.14	456.40
471.32	383.85
471.50	444.70
471.68	397.89
471.86	358.10
472.04	477.47
472.22	414.27
472.40	381.51
472.58	421.30
472.77	365.12
472.95	435.34
473.13	475.13
473.31	416.62
473.49	425.98
473.67	430.66
473.85	395.55
474.03	365.12
474.21	397.89
474.39	493.85
474.57	395.55
474.75	428.32
474.93	358.10
475.12	383.85
475.30	416.62
475.48	360.44
475.66	390.87
475.84	397.89
476.02	383.85
476.20	528.96
476.38	393.21
476.56	447.04
476.74	454.06
476.92	315.97
477.10	402.57
477.28	456.40
477.46	381.51
477.64	379.17
477.82	433.00
478.00	433.00
478.18	285.55
478.36	430.66
478.54	451.72
478.72	414.27
478.90	383.85
479.08	402.57
479.26	454.06
479.44	388.53
479.62	390.87
479.80	414.27
479.98	322.99
480.16	451.72
480.34	425.98
480.52	418.96
480.70	416.62
480.88	416.62
481.06	409.59
481.24	456.40
481.41	430.66
481.59	390.87
481.77	393.21
481.95	341.72
482.13	416.62
482.31	458.74
482.49	435.34
482.67	400.23
482.85	404.91
483.03	454.06
483.21	365.12
483.39	320.65
483.57	437.68
483.74	411.93
483.92	437.68
484.10	369.80
484.28	411.93
484.46	416.62
484.64	337.04
484.82	383.85
485.00	409.59
485.18	418.96
485.35	404.91
485.53	472.79
485.71	435.34
485.89	362.78
486.07	362.78
486.25	472.79
486.43	409.59
486.61	407.25
486.78	444.70
486.96	365.12
487.14	379.17
487.32	411.93
487.50	411.93
487.68	367.46
487.85	400.23
488.03	421.30
488.21	472.79
488.39	386.19
488.57	421.30
488.75	362.78
488.92	437.68
489.10	372.15
489.28	404.91
489.46	369.80
489.64	348.74
489.81	369.80
489.99	423.64
490.17	379.17
490.35	407.25
490.53	449.38
490.70	428.32
490.88	400.23
491.06	430.66
491.24	414.27
491.41	454.06
491.59	486.83
491.77	353.42
491.95	404.91
492.13	344.06
492.30	433.00
492.48	428.32
492.66	437.68
492.84	449.38
493.01	404.91
493.19	388.53
493.37	442.36
493.54	444.70
493.72	472.79
493.90	325.33
494.08	397.89
494.25	433.00
494.43	437.68
494.61	395.55
494.79	360.44
494.96	388.53
495.14	332.36
495.32	390.87
495.49	433.00
495.67	416.62
495.85	407.25
496.02	365.12
496.20	360.44
496.38	400.23
496.55	418.96
496.73	447.04
496.91	379.17
497.09	458.74
497.26	381.51
497.44	472.79
497.62	505.56
497.79	414.27
497.97	447.04
498.14	374.49
498.32	484.49
498.50	437.68
498.67	376.83
498.85	442.36
499.03	386.19
499.20	367.46
499.38	344.06
499.56	325.33
499.73	479.81
499.91	423.64
500.08	442.36
500.26	440.02
500.44	414.27
500.61	397.89
500.79	407.25
500.97	442.36
501.14	484.49
501.32	475.13
501.49	421.30
501.67	428.32
501.84	425.98
502.02	416.62
502.20	428.32
502.37	348.74
502.55	428.32
502.72	409.59
502.90	440.02
503.07	355.76
503.25	430.66
503.43	358.10
503.60	325.33
503.78	449.38
503.95	437.68
504.13	369.80
504.30	418.96
504.48	367.46
504.65	418.96
504.83	444.70
505.01	393.21
505.18	482.15
505.36	468.11
505.53	379.17
505.71	456.40
505.88	397.89
506.06	404.91
506.23	477.47
506.41	458.74
506.58	463.43
506.76	423.64
506.93	463.43
507.11	397.89
507.28	367.46
507.46	374.49
507.63	404.91
507.81	400.23
507.98	414.27
508.16	369.80
508.33	435.34
508.50	376.83
508.68	414.27
508.85	404.91
509.03	360.44
509.20	407.25
509.38	355.76
509.55	430.66
509.73	397.89
509.90	468.11
510.08	397.89
510.25	428.32
510.42	409.59
510.60	390.87
510.77	454.06
510.95	428.32
511.12	407.25
511.30	414.27
511.47	425.98
511.64	507.90
511.82	381.51
511.99	472.79
512.17	362.78
512.34	348.74
512.51	468.11
512.69	418.96
512.86	430.66
513.04	484.49
513.21	407.25
513.38	442.36
513.56	428.32
513.73	390.87
513.90	402.57
514.08	348.74
514.25	376.83
514.43	416.62
514.60	414.27
514.77	498.53
514.95	400.23
515.12	421.30
515.29	362.78
515.47	449.38
515.64	423.64
515.81	421.30
515.99	428.32
516.16	458.74
516.33	442.36
516.51	411.93
516.68	402.57
516.85	411.93
517.03	376.83
517.20	447.04
517.37	365.12
517.54	402.57
517.72	407.25
517.89	418.96
518.06	437.68
518.24	444.70
518.41	454.06
518.58	435.34
518.75	402.57
518.93	421.30
519.10	397.89
519.27	470.45
519.45	409.59
519.62	388.53
519.79	416.62
519.96	407.25
520.14	498.53
520.31	428.32
520.48	369.80
520.65	475.13
520.83	435.34
521.00	463.43
521.17	409.59
521.34	435.34
521.52	421.30
521.69	386.19
521.86	369.80
522.03	383.85
522.20	451.72
522.38	376.83
522.55	402.57
522.72	337.04
522.89	428.32
523.07	381.51
523.24	383.85
523.41	381.51
523.58	414.27
523.75	440.02
523.92	484.49
524.10	435.34
524.27	416.62
524.44	386.19
524.61	418.96
524.78	479.81
524.96	367.46
525.13	365.12
525.30	407.25
525.47	423.64
525.64	411.93
525.81	416.62
525.98	411.93
526.16	414.27
526.33	313.63
526.50	327.68
526.67	440.02
526.84	393.21
527.01	416.62
527.18	409.59
527.36	411.93
527.53	414.27
527.70	454.06
527.87	416.62
528.04	395.55
528.21	433.00
528.38	409.59
528.55	400.23
528.72	454.06
528.89	425.98
529.07	458.74
529.24	440.02
529.41	404.91
529.58	425.98
529.75	372.15
529.92	447.04
530.09	428.32
530.26	348.74
530.43	458.74
530.60	421.30
530.77	451.72
530.94	395.55
531.11	433.00
531.28	489.17
531.46	421.30
531.63	381.51
531.80	449.38
531.97	393.21
532.14	430.66
532.31	475.13
532.48	461.09
532.65	400.23
532.82	334.70
532.99	407.25
533.16	369.80
533.33	454.06
533.50	447.04
533.67	365.12
533.84	409.59
534.01	344.06
534.18	355.76
534.35	416.62
534.52	454.06
534.69	402.57
534.86	440.02
535.03	477.47
535.20	390.87
535.37	486.83
535.54	402.57
535.71	468.11
535.88	440.02
536.05	409.59
536.22	400.23
536.38	418.96
536.55	379.17
536.72	505.56
536.89	355.76
537.06	393.21
537.23	383.85
537.40	393.21
537.57	416.62
537.74	510.24
537.91	421.30
538.08	468.11
538.25	416.62
538.42	390.87
538.59	430.66
538.75	390.87
538.92	425.98
539.09	388.53
539.26	386.19
539.43	397.89
539.60	372.15
539.77	383.85
539.94	421.30
540.11	437.68
540.28	362.78
540.44	423.64
540.61	433.00
540.78	390.87
540.95	360.44
541.12	477.47
541.29	376.83
541.46	472.79
541.62	430.66
541.79	397.89
541.96	411.93
542.13	358.10
542.30	418.96
542.47	386.19
542.63	397.89
542.80	465.77
542.97	458.74
543.14	433.00
543.31	376.83
543.48	440.02
543.64	449.38
543.81	397.89
543.98	348.74
544.15	367.46
544.32	409.59
544.48	404.91
544.65	465.77
544.82	379.17
544.99	409.59
545.16	404.91
545.32	330.02
545.49	388.53
545.66	470.45
545.83	374.49
546.00	437.68
546.16	425.98
546.33	360.44
546.50	416.62
546.67	393.21
546.83	430.66
547.00	440.02
547.17	423.64
547.34	456.40
547.50	360.44
547.67	402.57
547.84	404.91
548.00	500.87
548.17	376.83
548.34	433.00
548.51	425.98
548.67	383.85
548.84	465.77
549.01	437.68
549.18	393.21
549.34	388.53
549.51	374.49
549.68	411.93
549.84	383.85
550.01	442.36
550.18	491.51
550.34	486.83
550.51	496.19
550.68	449.38
550.84	355.76
551.01	433.00
551.18	395.55
551.34	454.06
551.51	465.77
551.68	379.17
551.84	440.02
552.01	430.66
552.18	365.12
552.34	456.40
552.51	407.25
552.68	351.08
552.84	428.32
553.01	442.36
553.18	468.11
553.34	425.98
553.51	423.64
553.67	418.96
553.84	458.74
554.01	430.66
554.17	372.15
554.34	393.21
554.51	463.43
554.67	381.51
554.84	479.81
555.00	365.12
555.17	383.85
555.33	337.04
555.50	521.94
555.67	414.27
555.83	379.17
556.00	414.27
556.16	545.34
556.33	472.79
556.50	418.96
556.66	449.38
556.83	447.04
556.99	372.15
557.16	418.96
557.32	449.38
557.49	409.59
557.65	369.80
557.82	493.85
557.98	423.64
558.15	456.40
558.32	416.62
558.48	423.64
558.65	404.91
558.81	440.02
558.98	414.27
559.14	372.15
559.31	465.77
559.47	421.30
559.64	472.79
559.80	470.45
559.97	369.80
560.13	456.40
560.30	362.78
560.46	325.33
560.63	353.42
560.79	393.21
560.96	456.40
561.12	418.96
561.29	482.15
561.45	496.19
561.61	449.38
561.78	498.53
561.94	435.34
562.11	433.00
562.27	383.85
562.44	344.06
562.60	430.66
562.77	404.91
562.93	421.30
563.10	388.53
563.26	409.59
563.42	447.04
563.59	383.85
563.75	428.32
563.92	435.34
564.08	418.96
564.24	433.00
564.41	414.27
564.57	332.36
564.74	372.15
564.90	376.83
565.07	383.85
565.23	388.53
565.39	418.96
565.56	386.19
565.72	374.49
565.88	428.32
566.05	402.57
566.21	360.44
566.38	435.34
566.54	376.83
566.70	447.04
566.87	411.93
567.03	397.89
567.19	390.87
567.36	433.00
567.52	430.66
567.68	416.62
567.85	425.98
568.01	447.04
568.17	442.36
568.34	430.66
568.50	425.98
568.66	407.25
568.83	479.81
568.99	428.32
569.15	393.21
569.32	332.36
569.48	423.64
569.64	411.93
569.81	402.57
569.97	425.98
570.13	451.72
570.30	454.06
570.46	535.98
570.62	372.15
570.78	435.34
570.95	395.55
571.11	477.47
571.27	418.96
571.43	362.78
571.60	351.08
571.76	442.36
571.92	393.21
572.09	393.21
572.25	430.66
572.41	414.27
572.57	383.85
572.74	393.21
572.90	484.49
573.06	402.57
573.22	388.53
573.38	411.93
573.55	416.62
573.71	390.87
573.87	430.66
574.03	353.42
574.20	372.15
574.36	395.55
574.52	330.02
574.68	353.42
574.84	435.34
575.01	423.64
575.17	372.15
575.33	437.68
575.49	456.40
575.65	503.22
575.82	500.87
575.98	503.22
576.14	360.44
576.30	348.74
576.46	402.57
576.62	468.11
576.79	491.51
576.95	458.74
577.11	383.85
577.27	421.30
577.43	428.32
577.59	430.66
577.75	407.25
577.92	435.34
578.08	390.87
578.24	365.12
578.40	379.17
578.56	475.13
578.72	433.00
578.88	395.55
579.04	454.06
579.21	388.53
579.37	372.15
579.53	425.98
579.69	472.79
579.85	472.79
580.01	407.25
580.17	430.66
580.33	386.19
580.49	416.62
580.65	444.70
580.82	421.30
580.98	388.53
581.14	404.91
581.30	386.19
581.46	409.59
581.62	444.70
581.78	447.04
581.94	418.96
582.10	423.64
582.26	444.70
582.42	386.19
582.58	416.62
582.74	416.62
582.90	444.70
583.06	402.57
583.22	358.10
583.38	395.55
583.54	393.21
583.70	400.23
583.86	507.90
584.02	353.42
584.18	402.57
584.34	433.00
584.50	423.64
584.66	400.23
584.82	376.83
584.98	442.36
585.14	423.64
585.30	414.27
585.46	416.62
585.62	374.49
585.78	348.74
585.94	407.25
586.10	437.68
586.26	428.32
586.42	449.38
586.58	442.36
586.74	351.08
586.90	358.10
587.06	414.27
587.22	440.02
587.38	428.32
587.54	407.25
587.70	421.30
587.86	421.30
588.02	440.02
588.18	365.12
588.34	386.19
588.49	416.62
588.65	437.68
588.81	430.66
588.97	351.08
589.13	393.21
589.29	428.32
589.45	444.70
589.61	411.93
589.77	390.87
589.93	423.64
590.08	369.80
590.24	423.64
590.40	416.62
590.56	472.79
590.72	402.57
590.88	425.98
591.04	449.38
591.20	360.44
591.35	393.21
591.51	447.04
591.67	407.25
591.83	402.57
591.99	442.36
592.15	451.72
592.31	442.36
592.46	402.57
592.62	430.66
592.78	393.21
592.94	498.53
593.10	414.27
593.26	386.19
593.41	428.32
593.57	416.62
593.73	390.87
593.89	358.10
594.05	365.12
594.20	416.62
594.36	341.72
594.52	458.74
594.68	376.83
594.84	376.83
594.99	503.22
595.15	425.98
595.31	374.49
595.47	402.57
595.62	395.55
595.78	456.40
595.94	411.93
596.10	407.25
596.25	322.99
596.41	433.00
596.57	454.06
596.73	449.38
596.88	327.68
597.04	402.57
597.20	374.49
597.36	440.02
597.51	407.25
597.67	400.23
597.83	475.13
597.99	454.06
598.14	383.85
598.30	383.85
598.46	390.87
598.61	440.02
598.77	423.64
598.93	400.23
599.09	461.09
599.24	435.34
599.40	400.23
599.56	362.78
599.71	435.34
599.87	425.98
600.03	355.76
600.18	416.62
600.34	411.93
600.50	465.77
600.65	332.36
600.81	353.42
600.97	449.38
601.12	444.70
601.28	472.79
601.44	461.09
601.59	395.55
601.75	500.87
601.91	437.68
602.06	451.72
602.22	423.64
602.37	477.47
602.53	461.09
602.69	395.55
602.84	379.17
603.00	358.10
603.16	409.59
603.31	383.85
603.47	416.62
603.62	428.32
603.78	416.62
603.94	369.80
604.09	477.47
604.25	390.87
604.40	404.91
604.56	428.32
604.71	402.57
604.87	428.32
605.03	355.76
605.18	395.55
605.34	472.79
605.49	409.59
605.65	379.17
605.80	393.21
605.96	442.36
606.12	433.00
606.27	489.17
606.43	414.27
606.58	444.70
606.74	376.83
606.89	400.23
607.05	447.04
607.20	372.15
607.36	433.00
607.51	418.96
607.67	479.81
607.82	435.34
607.98	447.04
608.13	372.15
608.29	470.45
608.44	440.02
608.60	430.66
608.75	444.70
608.91	428.32
609.06	437.68
609.22	418.96
609.37	447.04
609.53	430.66
609.68	388.53
609.84	404.91
609.99	367.46
610.15	416.62
610.30	433.00
610.46	444.70
610.61	409.59
610.76	379.17
610.92	507.90
611.07	449.38
611.23	507.90
611.38	442.36
611.54	435.34
611.69	430.66
611.84	395.55
612.00	498.53
612.15	444.70
612.31	355.76
612.46	407.25
612.62	400.23
612.77	369.80
612.92	442.36
613.08	423.64
613.23	397.89
613.39	433.00
613.54	393.21
613.69	365.12
613.85	402.57
614.00	372.15
614.15	395.55
614.31	397.89
614.46	442.36
614.62	425.98
614.77	475.13
614.92	493.85
615.08	477.47
615.23	540.66
615.38	402.57
615.54	388.53
615.69	472.79
615.84	334.70
616.00	437.68
616.15	374.49
616.30	454.06
616.46	482.15
616.61	404.91
616.76	362.78
616.92	416.62
617.07	402.57
617.22	449.38
617.37	444.70
617.53	393.21
617.68	358.10
617.83	388.53
617.99	442.36
618.14	454.06
618.29	484.49
618.45	365.12
618.60	393.21
618.75	440.02
618.90	470.45
619.06	390.87
619.21	409.59
619.36	440.02
619.51	404.91
619.67	393.21
619.82	402.57
619.97	404.91
620.12	451.72
620.28	454.06
620.43	421.30
620.58	444.70
620.73	447.04
620.89	451.72
621.04	374.49
621.19	433.00
621.34	400.23
621.49	402.57
621.65	369.80
621.80	367.46
621.95	360.44
622.10	423.64
622.25	414.27
622.41	362.78
622.56	367.46
622.71	421.30
622.86	400.23
623.01	456.40
623.16	437.68
623.32	386.19
623.47	409.59
623.62	400.23
623.77	435.34
623.92	428.32
624.07	414.27
624.23	444.70
624.38	386.19
624.53	388.53
624.68	365.12
624.83	421.30
624.98	430.66
625.13	404.91
625.29	416.62
625.44	416.62
625.59	456.40
625.74	463.43
625.89	390.87
626.04	386.19
626.19	304.27
626.34	395.55
626.49	451.72
626.65	376.83
626.80	322.99
626.95	435.34
627.10	365.12
627.25	486.83
627.40	430.66
627.55	388.53
627.70	330.02
627.85	484.49
628.00	386.19
628.15	348.74
628.30	461.09
628.45	339.38
628.60	442.36
628.76	416.62
628.91	369.80
629.06	383.85
629.21	383.85
629.36	386.19
629.51	411.93
629.66	507.90
629.81	430.66
629.96	404.91
630.11	465.77
630.26	440.02
630.41	409.59
630.56	416.62
630.71	454.06
630.86	437.68
631.01	447.04
631.16	421.30
631.31	423.64
631.46	423.64
631.61	416.62
631.76	388.53
631.91	397.89
632.06	423.64
632.21	458.74
632.36	440.02
632.51	386.19
632.66	430.66
632.81	437.68
632.96	411.93
633.10	435.34
633.25	507.90
633.40	409.59
633.55	353.42
633.70	451.72
633.85	416.62
634.00	358.10
634.15	383.85
634.30	425.98
634.45	383.85
634.60	386.19
634.75	437.68
634.90	376.83
635.05	418.96
635.19	418.96
635.34	418.96
635.49	437.68
635.64	454.06
635.79	372.15
635.94	407.25
636.09	423.64
636.24	444.70
636.39	451.72
636.53	402.57
636.68	402.57
636.83	383.85
636.98	395.55
637.13	365.12
637.28	390.87
637.43	498.53
637.57	416.62
637.72	475.13
637.87	365.12
638.02	421.30
638.17	400.23
638.32	365.12
638.46	409.59
638.61	409.59
638.76	440.02
638.91	390.87
639.06	418.96
639.20	383.85
639.35	332.36
639.50	379.17
639.65	435.34
639.80	479.81
639.94	430.66
640.09	374.49
640.24	386.19
640.39	414.27
640.54	418.96
640.68	418.96
640.83	465.77
640.98	351.08
641.13	418.96
641.27	454.06
641.42	423.64
641.57	383.85
641.72	390.87
641.86	400.23
642.01	374.49
642.16	421.30
642.31	477.47
642.45	447.04
642.60	416.62
642.75	421.30
642.90	414.27
643.04	395.55
643.19	411.93
643.34	440.02
643.48	416.62
643.63	440.02
643.78	519.60
643.93	472.79
644.07	540.66
644.22	491.51
644.37	369.80
644.51	407.25
644.66	407.25
644.81	414.27
644.95	388.53
645.10	390.87
645.25	409.59
645.39	430.66
645.54	428.32
645.69	442.36
645.83	374.49
645.98	451.72
646.13	425.98
646.27	489.17
646.42	339.38
646.57	414.27
646.71	374.49
646.86	393.21
647.00	416.62
647.15	383.85
647.30	400.23
647.44	489.17
647.59	458.74
647.74	404.91
647.88	458.74
648.03	322.99
648.17	404.91
648.32	367.46
648.47	381.51
648.61	365.12
648.76	381.51
648.90	458.74
649.05	411.93
649.20	428.32
649.34	465.77
649.49	339.38
649.63	454.06
649.78	428.32
649.92	456.40
650.07	351.08
650.21	447.04
650.36	444.70
650.51	418.96
650.65	365.12
650.80	365.12
650.94	381.51
651.09	386.19
651.23	372.15
651.38	430.66
651.52	411.93
651.67	362.78
651.81	388.53
651.96	470.45
652.10	404.91
652.25	433.00
652.39	425.98
652.54	475.13
652.68	393.21
652.83	444.70
652.97	449.38
653.12	449.38
653.26	390.87
653.41	440.02
653.55	379.17
653.70	437.68
653.84	440.02
653.99	404.91
654.13	362.78
654.27	351.08
654.42	421.30
654.56	465.77
654.71	444.70
654.85	416.62
655.00	393.21
655.14	486.83
655.29	365.12
655.43	362.78
655.57	400.23
655.72	416.62
655.86	355.76
656.01	470.45
656.15	395.55
656.30	360.44
656.44	402.57
656.58	383.85
656.73	381.51
656.87	365.12
657.01	386.19
657.16	449.38
657.30	447.04
657.45	397.89
657.59	425.98
657.73	369.80
657.88	409.59
658.02	440.02
658.16	425.98
658.31	376.83
658.45	451.72
658.60	430.66
658.74	411.93
658.88	411.93
659.03	421.30
659.17	395.55
659.31	430.66
659.46	435.34
659.60	447.04
659.74	447.04
659.89	315.97
660.03	489.17
660.17	322.99
660.32	397.89
660.46	369.80
660.60	425.98
660.74	442.36
660.89	468.11
661.03	430.66
661.17	416.62
661.32	369.80
661.46	425.98
661.60	440.02
661.74	400.23
661.89	428.32
662.03	458.74
662.17	369.80
662.31	400.23
662.46	397.89
662.60	416.62
662.74	414.27
662.88	397.89
663.03	409.59
663.17	442.36
663.31	428.32
663.45	449.38
663.60	411.93
663.74	437.68
663.88	365.12
664.02	433.00
664.17	304.27
664.31	362.78
664.45	414.27
664.59	383.85
664.73	447.04
664.88	383.85
665.02	423.64
665.16	404.91
665.30	395.55
665.44	440.02
665.59	425.98
665.73	425.98
665.87	470.45
666.01	475.13
666.15	456.40
666.29	421.30
666.44	454.06
666.58	425.98
666.72	400.23
666.86	358.10
667.00	437.68
667.14	435.34
667.28	447.04
667.43	465.77
667.57	402.57
667.71	465.77
667.85	425.98
667.99	437.68
668.13	390.87
668.27	468.11
668.41	496.19
668.56	409.59
668.70	381.51
668.84	400.23
668.98	397.89
669.12	425.98
669.26	383.85
669.40	498.53
669.54	376.83
669.68	374.49
669.82	416.62
669.96	381.51
670.10	454.06
670.25	383.85
670.39	461.09
670.53	390.87
670.67	322.99
670.81	404.91
670.95	386.19
671.09	374.49
671.23	451.72
671.37	456.40
671.51	447.04
671.65	383.85
671.79	468.11
671.93	390.87
672.07	437.68
672.21	365.12
672.35	383.85
672.49	379.17
672.63	440.02
672.77	414.27
672.91	418.96
673.05	353.42
673.19	470.45
673.33	386.19
673.47	437.68
673.61	407.25
673.75	386.19
673.89	454.06
674.03	423.64
674.17	444.70
674.31	404.91
674.45	390.87
674.59	421.30
674.73	468.11
674.87	411.93
675.01	355.76
675.15	402.57
675.29	411.93
675.43	486.83
675.56	423.64
675.70	524.28
675.84	353.42
675.98	414.27
676.12	355.76
676.26	388.53
676.40	369.80
676.54	351.08
676.68	407.25
676.82	437.68
676.96	456.40
677.10	416.62
677.23	500.87
677.37	376.83
677.51	402.57
677.65	423.64
677.79	395.55
677.93	407.25
678.07	411.93
678.21	435.34
678.34	353.42
678.48	416.62
678.62	365.12
678.76	332.36
678.90	442.36
679.04	428.32
679.18	367.46
679.31	433.00
679.45	421.30
679.59	421.30
679.73	409.59
679.87	404.91
680.00	458.74
680.14	430.66
680.28	435.34
680.42	409.59
680.56	433.00
680.70	411.93
680.83	444.70
680.97	346.40
681.11	346.40
681.25	451.72
681.39	449.38
681.52	355.76
681.66	418.96
681.80	440.02
681.94	379.17
682.07	397.89
682.21	358.10
682.35	428.32
682.49	390.87
682.62	360.44
682.76	404.91
682.90	418.96
683.04	395.55
683.17	449.38
683.31	491.51
683.45	402.57
683.59	421.30
683.72	444.70
683.86	381.51
684.00	416.62
684.13	447.04
684.27	393.21
684.41	381.51
684.55	428.32
684.68	447.04
684.82	372.15
684.96	421.30
685.09	423.64
685.23	400.23
685.37	470.45
685.50	454.06
685.64	416.62
685.78	463.43
685.91	416.62
686.05	449.38
686.19	369.80
686.32	379.17
686.46	442.36
686.60	400.23
686.73	407.25
686.87	421.30
687.01	409.59
687.14	458.74
687.28	365.12
687.42	379.17
687.55	414.27
687.69	449.38
687.82	416.62
687.96	365.12
688.10	404.91
688.23	451.72
688.37	374.49
688.50	407.25
688.64	395.55
688.78	388.53
688.91	411.93
689.05	440.02
689.18	449.38
689.32	486.83
689.46	402.57
689.59	482.15
689.73	411.93
689.86	388.53
690.00	362.78
690.13	362.78
690.27	402.57
690.41	372.15
690.54	430.66
690.68	519.60
690.81	418.96
690.95	386.19
691.08	348.74
691.22	402.57
691.35	383.85
691.49	376.83
691.62	428.32
691.76	400.23
691.89	463.43
692.03	407.25
692.16	367.46
692.30	458.74
692.43	409.59
692.57	449.38
692.70	325.33
692.84	454.06
692.97	411.93
693.11	358.10
693.24	386.19
693.38	465.77
693.51	435.34
693.65	482.15
693.78	402.57
693.92	409.59
694.05	428.32
694.19	416.62
694.32	463.43
694.45	344.06
694.59	402.57
694.72	393.21
694.86	400.23
694.99	374.49
695.13	372.15
695.26	407.25
695.39	463.43
695.53	388.53
695.66	269.16
695.80	477.47
695.93	386.19
696.07	437.68
696.20	421.30
696.33	428.32
696.47	348.74
696.60	463.43
696.73	433.00
696.87	465.77
697.00	404.91
697.14	414.27
697.27	395.55
697.40	428.32
697.54	395.55
697.67	430.66
697.80	433.00
697.94	409.59
698.07	390.87
698.21	425.98
698.34	433.00
698.47	334.70
698.61	444.70
698.74	379.17
698.87	421.30
699.01	400.23
699.14	365.12
699.27	451.72
699.40	482.15
699.54	346.40
699.67	430.66
699.80	372.15
699.94	414.27
700.07	421.30
700.20	369.80
700.34	404.91
700.47	440.02
700.60	355.76
700.73	475.13
700.87	400.23
701.00	402.57
701.13	437.68
701.26	428.32
701.40	407.25
701.53	383.85
701.66	423.64
701.79	388.53
701.93	404.91
702.06	430.66
702.19	409.59
702.32	400.23
702.46	425.98
702.59	458.74
702.72	402.57
702.85	418.96
702.99	367.46
703.12	372.15
703.25	411.93
703.38	369.80
703.51	470.45
703.65	491.51
703.78	397.89
703.91	418.96
704.04	484.49
704.17	454.06
704.31	416.62
704.44	416.62
704.57	381.51
704.70	472.79
704.83	463.43
704.96	440.02
705.10	421.30
705.23	379.17
>>>>>End Processed Spectral Data<<<<<
