SpectraSuite Data File
++++++++++++++++++++++++++++++++++++
Date: Fri Oct 25 12:10:35 EDT 2013
User: price-jones
Dark Spectrum Present: No
Reference Spectrum Present: No
Number of Sampled Component Spectra: 1
Spectrometers: USB2+H05261
Integration Time (usec): 100000 (USB2+H05261)
Spectra Averaged: 1 (USB2+H05261)
Boxcar Smoothing: 0 (USB2+H05261)
Correct for Electrical Dark: No (USB2+H05261)
Strobe/Lamp Enabled: No (USB2+H05261)
Correct for Detector Non-linearity: No (USB2+H05261)
Correct for Stray Light: No (USB2+H05261)
Number of Pixels in Processed Spectrum: 2048
>>>>>Begin Processed Spectral Data<<<<<
365.73	367.46
365.92	367.46
366.12	367.46
366.32	353.42
366.52	290.23
366.72	297.25
366.91	269.16
367.11	290.23
367.31	243.42
367.51	280.86
367.70	245.76
367.90	203.63
368.10	201.29
368.30	306.61
368.49	222.35
368.69	248.10
368.89	351.08
369.09	243.42
369.28	344.06
369.48	259.80
369.68	271.50
369.87	217.67
370.07	344.06
370.27	337.04
370.47	311.29
370.66	287.89
370.86	381.51
371.06	362.78
371.25	388.53
371.45	337.04
371.65	414.27
371.84	393.21
372.04	400.23
372.24	383.85
372.44	407.25
372.63	332.36
372.83	381.51
373.03	365.12
373.22	374.49
373.42	409.59
373.62	437.68
373.81	383.85
374.01	383.85
374.21	414.27
374.40	414.27
374.60	477.47
374.79	409.59
374.99	404.91
375.19	449.38
375.38	421.30
375.58	423.64
375.78	430.66
375.97	348.74
376.17	454.06
376.37	369.80
376.56	407.25
376.76	425.98
376.95	390.87
377.15	404.91
377.35	407.25
377.54	376.83
377.74	437.68
377.93	472.79
378.13	369.80
378.33	390.87
378.52	411.93
378.72	390.87
378.91	423.64
379.11	433.00
379.31	444.70
379.50	395.55
379.70	430.66
379.89	402.57
380.09	353.42
380.28	376.83
380.48	428.32
380.68	411.93
380.87	334.70
381.07	416.62
381.26	390.87
381.46	449.38
381.65	458.74
381.85	362.78
382.04	376.83
382.24	365.12
382.43	337.04
382.63	299.59
382.83	381.51
383.02	393.21
383.22	374.49
383.41	435.34
383.61	468.11
383.80	383.85
384.00	358.10
384.19	367.46
384.39	402.57
384.58	407.25
384.78	388.53
384.97	489.17
385.17	376.83
385.36	376.83
385.56	454.06
385.75	325.33
385.95	416.62
386.14	472.79
386.34	388.53
386.53	369.80
386.72	381.51
386.92	414.27
387.11	379.17
387.31	390.87
387.50	390.87
387.70	362.78
387.89	409.59
388.09	348.74
388.28	369.80
388.48	400.23
388.67	409.59
388.86	397.89
389.06	365.12
389.25	381.51
389.45	390.87
389.64	421.30
389.84	407.25
390.03	376.83
390.22	339.38
390.42	475.13
390.61	468.11
390.81	397.89
391.00	407.25
391.19	428.32
391.39	386.19
391.58	433.00
391.78	397.89
391.97	381.51
392.16	442.36
392.36	402.57
392.55	430.66
392.75	433.00
392.94	362.78
393.13	348.74
393.33	369.80
393.52	416.62
393.71	491.51
393.91	372.15
394.10	440.02
394.29	411.93
394.49	430.66
394.68	390.87
394.88	421.30
395.07	435.34
395.26	411.93
395.46	425.98
395.65	393.21
395.84	418.96
396.04	458.74
396.23	386.19
396.42	458.74
396.62	435.34
396.81	409.59
397.00	421.30
397.19	388.53
397.39	425.98
397.58	433.00
397.77	367.46
397.97	409.59
398.16	461.09
398.35	479.81
398.55	365.12
398.74	372.15
398.93	402.57
399.12	365.12
399.32	409.59
399.51	395.55
399.70	362.78
399.90	423.64
400.09	435.34
400.28	440.02
400.47	397.89
400.67	451.72
400.86	372.15
401.05	388.53
401.24	442.36
401.44	428.32
401.63	376.83
401.82	372.15
402.01	411.93
402.21	358.10
402.40	451.72
402.59	440.02
402.78	409.59
402.97	353.42
403.17	299.59
403.36	458.74
403.55	425.98
403.74	411.93
403.93	372.15
404.13	510.24
404.32	379.17
404.51	395.55
404.70	407.25
404.89	442.36
405.09	430.66
405.28	383.85
405.47	454.06
405.66	418.96
405.85	414.27
406.05	468.11
406.24	372.15
406.43	440.02
406.62	376.83
406.81	442.36
407.00	496.19
407.20	463.43
407.39	348.74
407.58	456.40
407.77	440.02
407.96	362.78
408.15	369.80
408.34	388.53
408.54	416.62
408.73	498.53
408.92	456.40
409.11	416.62
409.30	423.64
409.49	374.49
409.68	430.66
409.87	416.62
410.07	395.55
410.26	428.32
410.45	404.91
410.64	437.68
410.83	348.74
411.02	442.36
411.21	472.79
411.40	409.59
411.59	428.32
411.78	393.21
411.98	395.55
412.17	388.53
412.36	390.87
412.55	421.30
412.74	397.89
412.93	449.38
413.12	402.57
413.31	290.23
413.50	390.87
413.69	423.64
413.88	479.81
414.07	367.46
414.26	367.46
414.45	416.62
414.64	418.96
414.83	421.30
415.02	397.89
415.22	442.36
415.41	407.25
415.60	395.55
415.79	425.98
415.98	407.25
416.17	425.98
416.36	390.87
416.55	423.64
416.74	344.06
416.93	442.36
417.12	458.74
417.31	365.12
417.50	393.21
417.69	428.32
417.88	360.44
418.07	400.23
418.26	411.93
418.45	414.27
418.64	454.06
418.83	423.64
419.02	437.68
419.21	411.93
419.39	411.93
419.58	381.51
419.77	454.06
419.96	407.25
420.15	500.87
420.34	421.30
420.53	381.51
420.72	369.80
420.91	409.59
421.10	409.59
421.29	472.79
421.48	376.83
421.67	440.02
421.86	376.83
422.05	418.96
422.24	355.76
422.43	468.11
422.61	372.15
422.80	390.87
422.99	395.55
423.18	383.85
423.37	360.44
423.56	348.74
423.75	433.00
423.94	440.02
424.13	447.04
424.32	468.11
424.50	479.81
424.69	393.21
424.88	407.25
425.07	381.51
425.26	374.49
425.45	402.57
425.64	348.74
425.83	397.89
426.01	458.74
426.20	341.72
426.39	372.15
426.58	416.62
426.77	400.23
426.96	454.06
427.15	327.68
427.33	379.17
427.52	374.49
427.71	369.80
427.90	402.57
428.09	428.32
428.28	355.76
428.46	400.23
428.65	402.57
428.84	400.23
429.03	491.51
429.22	360.44
429.40	418.96
429.59	369.80
429.78	355.76
429.97	430.66
430.16	407.25
430.34	437.68
430.53	390.87
430.72	477.47
430.91	461.09
431.10	365.12
431.28	425.98
431.47	468.11
431.66	479.81
431.85	360.44
432.03	348.74
432.22	475.13
432.41	404.91
432.60	484.49
432.79	404.91
432.97	379.17
433.16	353.42
433.35	383.85
433.54	479.81
433.72	362.78
433.91	428.32
434.10	400.23
434.28	475.13
434.47	411.93
434.66	468.11
434.85	383.85
435.03	423.64
435.22	397.89
435.41	423.64
435.59	472.79
435.78	491.51
435.97	454.06
436.16	411.93
436.34	407.25
436.53	468.11
436.72	369.80
436.90	444.70
437.09	461.09
437.28	442.36
437.46	374.49
437.65	447.04
437.84	376.83
438.02	395.55
438.21	425.98
438.40	423.64
438.58	344.06
438.77	489.17
438.96	444.70
439.14	393.21
439.33	440.02
439.52	397.89
439.70	461.09
439.89	393.21
440.08	414.27
440.26	430.66
440.45	416.62
440.63	409.59
440.82	376.83
441.01	330.02
441.19	369.80
441.38	339.38
441.57	433.00
441.75	379.17
441.94	463.43
442.12	428.32
442.31	414.27
442.50	421.30
442.68	339.38
442.87	423.64
443.05	418.96
443.24	428.32
443.43	367.46
443.61	470.45
443.80	416.62
443.98	407.25
444.17	395.55
444.35	421.30
444.54	433.00
444.73	414.27
444.91	479.81
445.10	400.23
445.28	423.64
445.47	423.64
445.65	330.02
445.84	402.57
446.02	425.98
446.21	489.17
446.39	428.32
446.58	423.64
446.77	428.32
446.95	369.80
447.14	435.34
447.32	421.30
447.51	465.77
447.69	397.89
447.88	433.00
448.06	409.59
448.25	369.80
448.43	416.62
448.62	458.74
448.80	442.36
448.99	425.98
449.17	395.55
449.36	395.55
449.54	386.19
449.73	402.57
449.91	428.32
450.10	421.30
450.28	468.11
450.46	484.49
450.65	404.91
450.83	472.79
451.02	407.25
451.20	381.51
451.39	381.51
451.57	428.32
451.76	369.80
451.94	435.34
452.13	418.96
452.31	425.98
452.49	381.51
452.68	376.83
452.86	369.80
453.05	468.11
453.23	393.21
453.42	400.23
453.60	416.62
453.78	442.36
453.97	414.27
454.15	440.02
454.34	444.70
454.52	393.21
454.70	458.74
454.89	411.93
455.07	386.19
455.26	421.30
455.44	477.47
455.62	442.36
455.81	381.51
455.99	395.55
456.17	440.02
456.36	390.87
456.54	381.51
456.73	360.44
456.91	414.27
457.09	390.87
457.28	454.06
457.46	454.06
457.64	416.62
457.83	358.10
458.01	463.43
458.19	482.15
458.38	430.66
458.56	433.00
458.74	379.17
458.93	430.66
459.11	404.91
459.29	393.21
459.48	440.02
459.66	435.34
459.84	383.85
460.03	461.09
460.21	404.91
460.39	409.59
460.57	423.64
460.76	376.83
460.94	383.85
461.12	451.72
461.31	573.43
461.49	440.02
461.67	421.30
461.85	369.80
462.04	402.57
462.22	753.65
462.40	454.06
462.59	400.23
462.77	355.76
462.95	433.00
463.13	351.08
463.32	440.02
463.50	402.57
463.68	444.70
463.86	484.49
464.05	435.34
464.23	435.34
464.41	428.32
464.59	400.23
464.78	402.57
464.96	451.72
465.14	449.38
465.32	341.72
465.50	407.25
465.69	400.23
465.87	430.66
466.05	454.06
466.23	390.87
466.41	468.11
466.60	400.23
466.78	411.93
466.96	447.04
467.14	397.89
467.32	435.34
467.51	435.34
467.69	425.98
467.87	433.00
468.05	444.70
468.23	470.45
468.41	428.32
468.60	407.25
468.78	372.15
468.96	402.57
469.14	425.98
469.32	425.98
469.50	442.36
469.69	454.06
469.87	454.06
470.05	482.15
470.23	393.21
470.41	353.42
470.59	386.19
470.77	442.36
470.95	383.85
471.14	440.02
471.32	433.00
471.50	376.83
471.68	353.42
471.86	376.83
472.04	395.55
472.22	435.34
472.40	404.91
472.58	491.51
472.77	409.59
472.95	404.91
473.13	421.30
473.31	449.38
473.49	430.66
473.67	369.80
473.85	435.34
474.03	465.77
474.21	465.77
474.39	416.62
474.57	386.19
474.75	484.49
474.93	423.64
475.12	451.72
475.30	388.53
475.48	423.64
475.66	390.87
475.84	414.27
476.02	388.53
476.20	435.34
476.38	421.30
476.56	454.06
476.74	369.80
476.92	430.66
477.10	407.25
477.28	430.66
477.46	428.32
477.64	475.13
477.82	444.70
478.00	423.64
478.18	402.57
478.36	411.93
478.54	320.65
478.72	447.04
478.90	388.53
479.08	379.17
479.26	444.70
479.44	409.59
479.62	402.57
479.80	358.10
479.98	433.00
480.16	475.13
480.34	477.47
480.52	339.38
480.70	468.11
480.88	430.66
481.06	400.23
481.24	404.91
481.41	400.23
481.59	411.93
481.77	423.64
481.95	463.43
482.13	477.47
482.31	402.57
482.49	344.06
482.67	397.89
482.85	489.17
483.03	421.30
483.21	423.64
483.39	458.74
483.57	397.89
483.74	437.68
483.92	461.09
484.10	381.51
484.28	409.59
484.46	528.96
484.64	362.78
484.82	353.42
485.00	325.33
485.18	454.06
485.35	402.57
485.53	369.80
485.71	465.77
485.89	346.40
486.07	386.19
486.25	444.70
486.43	465.77
486.61	484.49
486.78	400.23
486.96	388.53
487.14	400.23
487.32	461.09
487.50	425.98
487.68	456.40
487.85	421.30
488.03	353.42
488.21	425.98
488.39	339.38
488.57	400.23
488.75	402.57
488.92	564.07
489.10	409.59
489.28	461.09
489.46	367.46
489.64	416.62
489.81	404.91
489.99	407.25
490.17	423.64
490.35	407.25
490.53	386.19
490.70	383.85
490.88	390.87
491.06	428.32
491.24	435.34
491.41	463.43
491.59	433.00
491.77	397.89
491.95	409.59
492.13	393.21
492.30	397.89
492.48	386.19
492.66	393.21
492.84	358.10
493.01	421.30
493.19	414.27
493.37	416.62
493.54	430.66
493.72	395.55
493.90	461.09
494.08	393.21
494.25	447.04
494.43	383.85
494.61	397.89
494.79	379.17
494.96	435.34
495.14	404.91
495.32	416.62
495.49	433.00
495.67	379.17
495.85	339.38
496.02	388.53
496.20	451.72
496.38	500.87
496.55	402.57
496.73	454.06
496.91	332.36
497.09	351.08
497.26	414.27
497.44	402.57
497.62	418.96
497.79	372.15
497.97	418.96
498.14	355.76
498.32	428.32
498.50	425.98
498.67	418.96
498.85	479.81
499.03	407.25
499.20	353.42
499.38	369.80
499.56	355.76
499.73	442.36
499.91	456.40
500.08	447.04
500.26	376.83
500.44	390.87
500.61	421.30
500.79	435.34
500.97	395.55
501.14	454.06
501.32	365.12
501.49	369.80
501.67	475.13
501.84	369.80
502.02	472.79
502.20	470.45
502.37	489.17
502.55	482.15
502.72	358.10
502.90	435.34
503.07	362.78
503.25	472.79
503.43	421.30
503.60	414.27
503.78	433.00
503.95	421.30
504.13	451.72
504.30	416.62
504.48	414.27
504.65	414.27
504.83	374.49
505.01	409.59
505.18	404.91
505.36	433.00
505.53	437.68
505.71	397.89
505.88	402.57
506.06	369.80
506.23	409.59
506.41	397.89
506.58	362.78
506.76	365.12
506.93	390.87
507.11	444.70
507.28	456.40
507.46	395.55
507.63	383.85
507.81	372.15
507.98	372.15
508.16	477.47
508.33	358.10
508.50	390.87
508.68	447.04
508.85	411.93
509.03	402.57
509.20	425.98
509.38	472.79
509.55	461.09
509.73	442.36
509.90	416.62
510.08	404.91
510.25	346.40
510.42	468.11
510.60	374.49
510.77	393.21
510.95	395.55
511.12	465.77
511.30	489.17
511.47	409.59
511.64	433.00
511.82	369.80
511.99	440.02
512.17	440.02
512.34	393.21
512.51	388.53
512.69	425.98
512.86	435.34
513.04	360.44
513.21	425.98
513.38	435.34
513.56	454.06
513.73	376.83
513.90	397.89
514.08	425.98
514.25	416.62
514.43	334.70
514.60	393.21
514.77	400.23
514.95	325.33
515.12	383.85
515.29	369.80
515.47	430.66
515.64	386.19
515.81	379.17
515.99	397.89
516.16	428.32
516.33	461.09
516.51	353.42
516.68	358.10
516.85	423.64
517.03	482.15
517.20	358.10
517.37	383.85
517.54	433.00
517.72	407.25
517.89	383.85
518.06	442.36
518.24	442.36
518.41	489.17
518.58	444.70
518.75	383.85
518.93	421.30
519.10	421.30
519.27	379.17
519.45	463.43
519.62	390.87
519.79	482.15
519.96	421.30
520.14	379.17
520.31	458.74
520.48	435.34
520.65	358.10
520.83	411.93
521.00	400.23
521.17	416.62
521.34	362.78
521.52	418.96
521.69	428.32
521.86	330.02
522.03	388.53
522.20	433.00
522.38	397.89
522.55	456.40
522.72	339.38
522.89	465.77
523.07	493.85
523.24	433.00
523.41	397.89
523.58	444.70
523.75	374.49
523.92	379.17
524.10	425.98
524.27	407.25
524.44	355.76
524.61	454.06
524.78	397.89
524.96	477.47
525.13	407.25
525.30	400.23
525.47	447.04
525.64	402.57
525.81	409.59
525.98	430.66
526.16	454.06
526.33	400.23
526.50	447.04
526.67	376.83
526.84	411.93
527.01	435.34
527.18	458.74
527.36	400.23
527.53	383.85
527.70	430.66
527.87	397.89
528.04	463.43
528.21	404.91
528.38	404.91
528.55	388.53
528.72	374.49
528.89	428.32
529.07	360.44
529.24	360.44
529.41	470.45
529.58	358.10
529.75	402.57
529.92	416.62
530.09	388.53
530.26	388.53
530.43	376.83
530.60	369.80
530.77	379.17
530.94	433.00
531.11	442.36
531.28	423.64
531.46	409.59
531.63	313.63
531.80	430.66
531.97	521.94
532.14	461.09
532.31	461.09
532.48	409.59
532.65	454.06
532.82	463.43
532.99	383.85
533.16	400.23
533.33	355.76
533.50	348.74
533.67	416.62
533.84	423.64
534.01	425.98
534.18	414.27
534.35	383.85
534.52	318.31
534.69	447.04
534.86	430.66
535.03	456.40
535.20	456.40
535.37	425.98
535.54	397.89
535.71	465.77
535.88	454.06
536.05	479.81
536.22	444.70
536.38	386.19
536.55	482.15
536.72	409.59
536.89	360.44
537.06	435.34
537.23	411.93
537.40	395.55
537.57	397.89
537.74	461.09
537.91	442.36
538.08	421.30
538.25	369.80
538.42	374.49
538.59	489.17
538.75	369.80
538.92	456.40
539.09	416.62
539.26	407.25
539.43	489.17
539.60	475.13
539.77	428.32
539.94	404.91
540.11	425.98
540.28	437.68
540.44	414.27
540.61	374.49
540.78	388.53
540.95	421.30
541.12	409.59
541.29	390.87
541.46	461.09
541.62	388.53
541.79	400.23
541.96	423.64
542.13	435.34
542.30	421.30
542.47	435.34
542.63	402.57
542.80	447.04
542.97	416.62
543.14	390.87
543.31	500.87
543.48	407.25
543.64	435.34
543.81	355.76
543.98	353.42
544.15	379.17
544.32	456.40
544.48	430.66
544.65	430.66
544.82	414.27
544.99	440.02
545.16	461.09
545.32	402.57
545.49	430.66
545.66	365.12
545.83	451.72
546.00	428.32
546.16	447.04
546.33	421.30
546.50	437.68
546.67	449.38
546.83	470.45
547.00	421.30
547.17	346.40
547.34	369.80
547.50	470.45
547.67	344.06
547.84	475.13
548.00	395.55
548.17	409.59
548.34	388.53
548.51	451.72
548.67	407.25
548.84	409.59
549.01	379.17
549.18	437.68
549.34	416.62
549.51	437.68
549.68	369.80
549.84	386.19
550.01	390.87
550.18	566.41
550.34	454.06
550.51	416.62
550.68	442.36
550.84	376.83
551.01	461.09
551.18	402.57
551.34	390.87
551.51	395.55
551.68	444.70
551.84	430.66
552.01	472.79
552.18	465.77
552.34	400.23
552.51	477.47
552.68	442.36
552.84	442.36
553.01	454.06
553.18	444.70
553.34	374.49
553.51	383.85
553.67	402.57
553.84	440.02
554.01	461.09
554.17	395.55
554.34	393.21
554.51	409.59
554.67	430.66
554.84	365.12
555.00	365.12
555.17	454.06
555.33	470.45
555.50	484.49
555.67	414.27
555.83	449.38
556.00	372.15
556.16	540.66
556.33	451.72
556.50	411.93
556.66	566.41
556.83	437.68
556.99	397.89
557.16	379.17
557.32	388.53
557.49	397.89
557.65	388.53
557.82	433.00
557.98	411.93
558.15	423.64
558.32	402.57
558.48	400.23
558.65	423.64
558.81	376.83
558.98	465.77
559.14	447.04
559.31	395.55
559.47	430.66
559.64	447.04
559.80	461.09
559.97	475.13
560.13	428.32
560.30	491.51
560.46	393.21
560.63	379.17
560.79	437.68
560.96	409.59
561.12	353.42
561.29	444.70
561.45	414.27
561.61	486.83
561.78	505.56
561.94	374.49
562.11	423.64
562.27	458.74
562.44	383.85
562.60	454.06
562.77	442.36
562.93	458.74
563.10	400.23
563.26	400.23
563.42	409.59
563.59	425.98
563.75	472.79
563.92	428.32
564.08	442.36
564.24	369.80
564.41	470.45
564.57	449.38
564.74	421.30
564.90	386.19
565.07	395.55
565.23	393.21
565.39	330.02
565.56	442.36
565.72	433.00
565.88	458.74
566.05	390.87
566.21	390.87
566.38	369.80
566.54	423.64
566.70	388.53
566.87	395.55
567.03	362.78
567.19	313.63
567.36	433.00
567.52	400.23
567.68	388.53
567.85	372.15
568.01	414.27
568.17	395.55
568.34	348.74
568.50	479.81
568.66	390.87
568.83	461.09
568.99	365.12
569.15	451.72
569.32	435.34
569.48	458.74
569.64	353.42
569.81	503.22
569.97	414.27
570.13	390.87
570.30	374.49
570.46	468.11
570.62	374.49
570.78	433.00
570.95	435.34
571.11	425.98
571.27	409.59
571.43	358.10
571.60	449.38
571.76	449.38
571.92	416.62
572.09	451.72
572.25	425.98
572.41	425.98
572.57	416.62
572.74	447.04
572.90	353.42
573.06	381.51
573.22	362.78
573.38	425.98
573.55	433.00
573.71	390.87
573.87	447.04
574.03	400.23
574.20	395.55
574.36	470.45
574.52	414.27
574.68	444.70
574.84	442.36
575.01	433.00
575.17	379.17
575.33	313.63
575.49	456.40
575.65	472.79
575.82	465.77
575.98	486.83
576.14	463.43
576.30	416.62
576.46	428.32
576.62	430.66
576.79	444.70
576.95	491.51
577.11	379.17
577.27	358.10
577.43	486.83
577.59	444.70
577.75	472.79
577.92	493.85
578.08	348.74
578.24	423.64
578.40	519.60
578.56	482.15
578.72	475.13
578.88	360.44
579.04	414.27
579.21	489.17
579.37	334.70
579.53	425.98
579.69	411.93
579.85	416.62
580.01	433.00
580.17	360.44
580.33	435.34
580.49	437.68
580.65	416.62
580.82	430.66
580.98	376.83
581.14	402.57
581.30	449.38
581.46	404.91
581.62	482.15
581.78	344.06
581.94	437.68
582.10	435.34
582.26	395.55
582.42	395.55
582.58	449.38
582.74	393.21
582.90	386.19
583.06	344.06
583.22	411.93
583.38	393.21
583.54	411.93
583.70	472.79
583.86	386.19
584.02	437.68
584.18	465.77
584.34	379.17
584.50	400.23
584.66	435.34
584.82	365.12
584.98	376.83
585.14	433.00
585.30	433.00
585.46	418.96
585.62	409.59
585.78	421.30
585.94	430.66
586.10	423.64
586.26	397.89
586.42	465.77
586.58	456.40
586.74	404.91
586.90	477.47
587.06	416.62
587.22	369.80
587.38	393.21
587.54	393.21
587.70	521.94
587.86	442.36
588.02	404.91
588.18	388.53
588.34	479.81
588.49	414.27
588.65	355.76
588.81	407.25
588.97	376.83
589.13	442.36
589.29	454.06
589.45	414.27
589.61	423.64
589.77	449.38
589.93	374.49
590.08	416.62
590.24	388.53
590.40	435.34
590.56	461.09
590.72	425.98
590.88	351.08
591.04	369.80
591.20	395.55
591.35	430.66
591.51	414.27
591.67	379.17
591.83	372.15
591.99	514.92
592.15	393.21
592.31	458.74
592.46	411.93
592.62	433.00
592.78	353.42
592.94	341.72
593.10	416.62
593.26	454.06
593.41	444.70
593.57	397.89
593.73	360.44
593.89	458.74
594.05	402.57
594.20	435.34
594.36	421.30
594.52	414.27
594.68	339.38
594.84	409.59
594.99	414.27
595.15	456.40
595.31	437.68
595.47	496.19
595.62	409.59
595.78	447.04
595.94	433.00
596.10	489.17
596.25	372.15
596.41	433.00
596.57	423.64
596.73	456.40
596.88	386.19
597.04	386.19
597.20	465.77
597.36	388.53
597.51	390.87
597.67	425.98
597.83	418.96
597.99	386.19
598.14	315.97
598.30	400.23
598.46	463.43
598.61	414.27
598.77	463.43
598.93	428.32
599.09	442.36
599.24	409.59
599.40	421.30
599.56	437.68
599.71	440.02
599.87	451.72
600.03	379.17
600.18	395.55
600.34	409.59
600.50	447.04
600.65	423.64
600.81	390.87
600.97	402.57
601.12	461.09
601.28	454.06
601.44	411.93
601.59	437.68
601.75	458.74
601.91	414.27
602.06	379.17
602.22	498.53
602.37	451.72
602.53	404.91
602.69	489.17
602.84	383.85
603.00	374.49
603.16	360.44
603.31	390.87
603.47	423.64
603.62	365.12
603.78	376.83
603.94	416.62
604.09	442.36
604.25	430.66
604.40	470.45
604.56	395.55
604.71	440.02
604.87	400.23
605.03	402.57
605.18	355.76
605.34	388.53
605.49	435.34
605.65	440.02
605.80	372.15
605.96	397.89
606.12	454.06
606.27	386.19
606.43	449.38
606.58	531.30
606.74	479.81
606.89	428.32
607.05	440.02
607.20	400.23
607.36	376.83
607.51	421.30
607.67	409.59
607.82	390.87
607.98	402.57
608.13	458.74
608.29	447.04
608.44	386.19
608.60	435.34
608.75	451.72
608.91	397.89
609.06	423.64
609.22	465.77
609.37	435.34
609.53	409.59
609.68	388.53
609.84	390.87
609.99	402.57
610.15	404.91
610.30	433.00
610.46	442.36
610.61	416.62
610.76	386.19
610.92	414.27
611.07	442.36
611.23	461.09
611.38	447.04
611.54	404.91
611.69	430.66
611.84	416.62
612.00	383.85
612.15	332.36
612.31	393.21
612.46	395.55
612.62	308.95
612.77	433.00
612.92	461.09
613.08	425.98
613.23	442.36
613.39	393.21
613.54	411.93
613.69	365.12
613.85	442.36
614.00	430.66
614.15	407.25
614.31	414.27
614.46	435.34
614.62	435.34
614.77	365.12
614.92	414.27
615.08	374.49
615.23	430.66
615.38	461.09
615.54	362.78
615.69	458.74
615.84	461.09
616.00	402.57
616.15	374.49
616.30	397.89
616.46	386.19
616.61	397.89
616.76	388.53
616.92	430.66
617.07	447.04
617.22	416.62
617.37	348.74
617.53	395.55
617.68	454.06
617.83	365.12
617.99	444.70
618.14	435.34
618.29	409.59
618.45	388.53
618.60	428.32
618.75	449.38
618.90	381.51
619.06	390.87
619.21	435.34
619.36	435.34
619.51	433.00
619.67	374.49
619.82	369.80
619.97	409.59
620.12	390.87
620.28	451.72
620.43	414.27
620.58	444.70
620.73	447.04
620.89	409.59
621.04	404.91
621.19	461.09
621.34	400.23
621.49	390.87
621.65	407.25
621.80	397.89
621.95	416.62
622.10	430.66
622.25	386.19
622.41	411.93
622.56	411.93
622.71	390.87
622.86	449.38
623.01	395.55
623.16	430.66
623.32	407.25
623.47	484.49
623.62	416.62
623.77	498.53
623.92	435.34
624.07	318.31
624.23	358.10
624.38	346.40
624.53	475.13
624.68	414.27
624.83	463.43
624.98	440.02
625.13	376.83
625.29	435.34
625.44	402.57
625.59	374.49
625.74	449.38
625.89	395.55
626.04	388.53
626.19	423.64
626.34	477.47
626.49	334.70
626.65	393.21
626.80	442.36
626.95	397.89
627.10	390.87
627.25	433.00
627.40	505.56
627.55	461.09
627.70	355.76
627.85	435.34
628.00	369.80
628.15	402.57
628.30	369.80
628.45	430.66
628.60	372.15
628.76	428.32
628.91	348.74
629.06	428.32
629.21	407.25
629.36	369.80
629.51	503.22
629.66	374.49
629.81	376.83
629.96	383.85
630.11	404.91
630.26	451.72
630.41	416.62
630.56	437.68
630.71	358.10
630.86	444.70
631.01	360.44
631.16	390.87
631.31	454.06
631.46	421.30
631.61	449.38
631.76	404.91
631.91	454.06
632.06	390.87
632.21	416.62
632.36	479.81
632.51	428.32
632.66	437.68
632.81	365.12
632.96	425.98
633.10	409.59
633.25	386.19
633.40	430.66
633.55	411.93
633.70	447.04
633.85	437.68
634.00	376.83
634.15	404.91
634.30	447.04
634.45	472.79
634.60	447.04
634.75	374.49
634.90	397.89
635.05	484.49
635.19	407.25
635.34	397.89
635.49	388.53
635.64	355.76
635.79	433.00
635.94	395.55
636.09	454.06
636.24	402.57
636.39	332.36
636.53	477.47
636.68	416.62
636.83	334.70
636.98	451.72
637.13	402.57
637.28	468.11
637.43	411.93
637.57	369.80
637.72	440.02
637.87	407.25
638.02	369.80
638.17	407.25
638.32	463.43
638.46	400.23
638.61	435.34
638.76	395.55
638.91	503.22
639.06	461.09
639.20	416.62
639.35	451.72
639.50	407.25
639.65	433.00
639.80	451.72
639.94	472.79
640.09	372.15
640.24	416.62
640.39	411.93
640.54	435.34
640.68	430.66
640.83	409.59
640.98	451.72
641.13	362.78
641.27	379.17
641.42	400.23
641.57	447.04
641.72	407.25
641.86	451.72
642.01	435.34
642.16	402.57
642.31	433.00
642.45	468.11
642.60	430.66
642.75	423.64
642.90	421.30
643.04	355.76
643.19	421.30
643.34	433.00
643.48	372.15
643.63	390.87
643.78	500.87
643.93	418.96
644.07	393.21
644.22	397.89
644.37	365.12
644.51	369.80
644.66	442.36
644.81	400.23
644.95	386.19
645.10	395.55
645.25	407.25
645.39	407.25
645.54	351.08
645.69	468.11
645.83	374.49
645.98	425.98
646.13	400.23
646.27	437.68
646.42	379.17
646.57	416.62
646.71	393.21
646.86	430.66
647.00	358.10
647.15	411.93
647.30	390.87
647.44	372.15
647.59	379.17
647.74	425.98
647.88	428.32
648.03	395.55
648.17	498.53
648.32	416.62
648.47	440.02
648.61	416.62
648.76	447.04
648.90	421.30
649.05	477.47
649.20	425.98
649.34	407.25
649.49	341.72
649.63	418.96
649.78	362.78
649.92	418.96
650.07	456.40
650.21	430.66
650.36	397.89
650.51	414.27
650.65	491.51
650.80	470.45
650.94	386.19
651.09	484.49
651.23	397.89
651.38	393.21
651.52	404.91
651.67	437.68
651.81	344.06
651.96	484.49
652.10	475.13
652.25	395.55
652.39	468.11
652.54	367.46
652.68	409.59
652.83	386.19
652.97	381.51
653.12	449.38
653.26	430.66
653.41	440.02
653.55	411.93
653.70	416.62
653.84	447.04
653.99	344.06
654.13	376.83
654.27	456.40
654.42	442.36
654.56	386.19
654.71	407.25
654.85	435.34
655.00	451.72
655.14	341.72
655.29	421.30
655.43	402.57
655.57	400.23
655.72	379.17
655.86	411.93
656.01	430.66
656.15	407.25
656.30	475.13
656.44	416.62
656.58	435.34
656.73	383.85
656.87	372.15
657.01	414.27
657.16	482.15
657.30	393.21
657.45	454.06
657.59	428.32
657.73	400.23
657.88	437.68
658.02	496.19
658.16	365.12
658.31	433.00
658.45	456.40
658.60	416.62
658.74	437.68
658.88	372.15
659.03	400.23
659.17	374.49
659.31	468.11
659.46	355.76
659.60	421.30
659.74	430.66
659.89	444.70
660.03	365.12
660.17	531.30
660.32	435.34
660.46	449.38
660.60	409.59
660.74	381.51
660.89	397.89
661.03	388.53
661.17	454.06
661.32	414.27
661.46	433.00
661.60	367.46
661.74	423.64
661.89	353.42
662.03	416.62
662.17	369.80
662.31	475.13
662.46	428.32
662.60	468.11
662.74	418.96
662.88	475.13
663.03	402.57
663.17	421.30
663.31	407.25
663.45	411.93
663.60	332.36
663.74	322.99
663.88	341.72
664.02	348.74
664.17	348.74
664.31	381.51
664.45	411.93
664.59	437.68
664.73	407.25
664.88	358.10
665.02	400.23
665.16	404.91
665.30	461.09
665.44	407.25
665.59	402.57
665.73	374.49
665.87	425.98
666.01	383.85
666.15	437.68
666.29	322.99
666.44	477.47
666.58	482.15
666.72	348.74
666.86	416.62
667.00	425.98
667.14	353.42
667.28	400.23
667.43	381.51
667.57	369.80
667.71	388.53
667.85	418.96
667.99	416.62
668.13	428.32
668.27	454.06
668.41	477.47
668.56	416.62
668.70	440.02
668.84	442.36
668.98	404.91
669.12	315.97
669.26	470.45
669.40	517.26
669.54	451.72
669.68	437.68
669.82	430.66
669.96	433.00
670.10	367.46
670.25	409.59
670.39	386.19
670.53	489.17
670.67	374.49
670.81	400.23
670.95	425.98
671.09	418.96
671.23	423.64
671.37	442.36
671.51	503.22
671.65	482.15
671.79	456.40
671.93	402.57
672.07	524.28
672.21	400.23
672.35	367.46
672.49	411.93
672.63	440.02
672.77	414.27
672.91	409.59
673.05	416.62
673.19	425.98
673.33	430.66
673.47	414.27
673.61	332.36
673.75	374.49
673.89	355.76
674.03	482.15
674.17	402.57
674.31	407.25
674.45	367.46
674.59	461.09
674.73	416.62
674.87	383.85
675.01	416.62
675.15	383.85
675.29	465.77
675.43	416.62
675.56	409.59
675.70	430.66
675.84	388.53
675.98	435.34
676.12	390.87
676.26	379.17
676.40	435.34
676.54	414.27
676.68	381.51
676.82	383.85
676.96	383.85
677.10	449.38
677.23	418.96
677.37	404.91
677.51	393.21
677.65	447.04
677.79	393.21
677.93	348.74
678.07	372.15
678.21	454.06
678.34	425.98
678.48	423.64
678.62	435.34
678.76	402.57
678.90	393.21
679.04	433.00
679.18	376.83
679.31	407.25
679.45	332.36
679.59	402.57
679.73	400.23
679.87	362.78
680.00	330.02
680.14	505.56
680.28	379.17
680.42	393.21
680.56	407.25
680.70	311.29
680.83	362.78
680.97	433.00
681.11	388.53
681.25	477.47
681.39	435.34
681.52	315.97
681.66	409.59
681.80	458.74
681.94	395.55
682.07	421.30
682.21	418.96
682.35	395.55
682.49	447.04
682.62	442.36
682.76	447.04
682.90	430.66
683.04	376.83
683.17	400.23
683.31	404.91
683.45	454.06
683.59	355.76
683.72	465.77
683.86	428.32
684.00	390.87
684.13	461.09
684.27	351.08
684.41	475.13
684.55	386.19
684.68	475.13
684.82	409.59
684.96	404.91
685.09	367.46
685.23	430.66
685.37	423.64
685.50	468.11
685.64	353.42
685.78	404.91
685.91	407.25
686.05	416.62
686.19	435.34
686.32	472.79
686.46	404.91
686.60	369.80
686.73	486.83
686.87	440.02
687.01	433.00
687.14	353.42
687.28	376.83
687.42	381.51
687.55	411.93
687.69	479.81
687.82	362.78
687.96	397.89
688.10	393.21
688.23	414.27
688.37	458.74
688.50	489.17
688.64	362.78
688.78	449.38
688.91	395.55
689.05	397.89
689.18	409.59
689.32	444.70
689.46	390.87
689.59	390.87
689.73	444.70
689.86	409.59
690.00	461.09
690.13	437.68
690.27	409.59
690.41	355.76
690.54	430.66
690.68	435.34
690.81	390.87
690.95	395.55
691.08	395.55
691.22	470.45
691.35	449.38
691.49	425.98
691.62	395.55
691.76	458.74
691.89	390.87
692.03	379.17
692.16	386.19
692.30	376.83
692.43	358.10
692.57	407.25
692.70	362.78
692.84	397.89
692.97	383.85
693.11	367.46
693.24	339.38
693.38	390.87
693.51	397.89
693.65	397.89
693.78	376.83
693.92	383.85
694.05	353.42
694.19	351.08
694.32	376.83
694.45	447.04
694.59	348.74
694.72	393.21
694.86	437.68
694.99	472.79
695.13	463.43
695.26	421.30
695.39	425.98
695.53	449.38
695.66	407.25
695.80	423.64
695.93	456.40
696.07	414.27
696.20	404.91
696.33	376.83
696.47	430.66
696.60	421.30
696.73	376.83
696.87	442.36
697.00	435.34
697.14	404.91
697.27	461.09
697.40	414.27
697.54	442.36
697.67	437.68
697.80	351.08
697.94	470.45
698.07	414.27
698.21	344.06
698.34	404.91
698.47	402.57
698.61	465.77
698.74	411.93
698.87	374.49
699.01	435.34
699.14	416.62
699.27	472.79
699.40	470.45
699.54	433.00
699.67	367.46
699.80	390.87
699.94	367.46
700.07	355.76
700.20	421.30
700.34	402.57
700.47	386.19
700.60	393.21
700.73	451.72
700.87	444.70
701.00	477.47
701.13	421.30
701.26	447.04
701.40	388.53
701.53	414.27
701.66	365.12
701.79	325.33
701.93	360.44
702.06	428.32
702.19	421.30
702.32	433.00
702.46	449.38
702.59	374.49
702.72	355.76
702.85	458.74
702.99	425.98
703.12	407.25
703.25	339.38
703.38	393.21
703.51	344.06
703.65	447.04
703.78	383.85
703.91	376.83
704.04	451.72
704.17	416.62
704.31	386.19
704.44	365.12
704.57	393.21
704.70	395.55
704.83	430.66
704.96	404.91
705.10	451.72
705.23	475.13
>>>>>End Processed Spectral Data<<<<<
