SpectraSuite Data File
++++++++++++++++++++++++++++++++++++
Date: Fri Oct 25 12:11:21 EDT 2013
User: price-jones
Dark Spectrum Present: No
Reference Spectrum Present: No
Number of Sampled Component Spectra: 1
Spectrometers: USB2+H05261
Integration Time (usec): 100000 (USB2+H05261)
Spectra Averaged: 1 (USB2+H05261)
Boxcar Smoothing: 0 (USB2+H05261)
Correct for Electrical Dark: No (USB2+H05261)
Strobe/Lamp Enabled: No (USB2+H05261)
Correct for Detector Non-linearity: No (USB2+H05261)
Correct for Stray Light: No (USB2+H05261)
Number of Pixels in Processed Spectrum: 2048
>>>>>Begin Processed Spectral Data<<<<<
365.73	388.53
365.92	388.53
366.12	388.53
366.32	276.18
366.52	236.39
366.72	330.02
366.91	241.08
367.11	215.33
367.31	241.08
367.51	252.78
367.70	201.29
367.90	264.48
368.10	283.20
368.30	250.44
368.49	234.05
368.69	266.82
368.89	238.73
369.09	292.57
369.28	276.18
369.48	264.48
369.68	304.27
369.87	276.18
370.07	332.36
370.27	325.33
370.47	287.89
370.66	332.36
370.86	353.42
371.06	362.78
371.25	404.91
371.45	395.55
371.65	376.83
371.84	362.78
372.04	425.98
372.24	414.27
372.44	390.87
372.63	421.30
372.83	477.47
373.03	388.53
373.22	372.15
373.42	430.66
373.62	458.74
373.81	372.15
374.01	437.68
374.21	435.34
374.40	299.59
374.60	433.00
374.79	416.62
374.99	388.53
375.19	315.97
375.38	402.57
375.58	407.25
375.78	430.66
375.97	423.64
376.17	463.43
376.37	383.85
376.56	404.91
376.76	456.40
376.95	339.38
377.15	435.34
377.35	416.62
377.54	353.42
377.74	372.15
377.93	383.85
378.13	411.93
378.33	358.10
378.52	358.10
378.72	400.23
378.91	444.70
379.11	430.66
379.31	390.87
379.50	365.12
379.70	425.98
379.89	465.77
380.09	433.00
380.28	395.55
380.48	447.04
380.68	390.87
380.87	407.25
381.07	362.78
381.26	468.11
381.46	440.02
381.65	421.30
381.85	416.62
382.04	299.59
382.24	444.70
382.43	400.23
382.63	421.30
382.83	393.21
383.02	397.89
383.22	416.62
383.41	425.98
383.61	421.30
383.80	472.79
384.00	418.96
384.19	402.57
384.39	418.96
384.58	411.93
384.78	376.83
384.97	376.83
385.17	346.40
385.36	402.57
385.56	414.27
385.75	454.06
385.95	358.10
386.14	430.66
386.34	404.91
386.53	393.21
386.72	395.55
386.92	442.36
387.11	437.68
387.31	428.32
387.50	400.23
387.70	374.49
387.89	402.57
388.09	299.59
388.28	440.02
388.48	365.12
388.67	397.89
388.86	404.91
389.06	395.55
389.25	425.98
389.45	444.70
389.64	458.74
389.84	458.74
390.03	430.66
390.22	433.00
390.42	393.21
390.61	416.62
390.81	341.72
391.00	393.21
391.19	372.15
391.39	447.04
391.58	437.68
391.78	372.15
391.97	383.85
392.16	440.02
392.36	418.96
392.55	407.25
392.75	449.38
392.94	407.25
393.13	442.36
393.33	407.25
393.52	400.23
393.71	430.66
393.91	449.38
394.10	353.42
394.29	404.91
394.49	430.66
394.68	486.83
394.88	435.34
395.07	379.17
395.26	444.70
395.46	449.38
395.65	365.12
395.84	315.97
396.04	444.70
396.23	369.80
396.42	367.46
396.62	447.04
396.81	484.49
397.00	395.55
397.19	369.80
397.39	411.93
397.58	330.02
397.77	369.80
397.97	381.51
398.16	365.12
398.35	449.38
398.55	472.79
398.74	346.40
398.93	404.91
399.12	477.47
399.32	376.83
399.51	416.62
399.70	433.00
399.90	463.43
400.09	416.62
400.28	472.79
400.47	430.66
400.67	402.57
400.86	404.91
401.05	421.30
401.24	395.55
401.44	369.80
401.63	353.42
401.82	358.10
402.01	421.30
402.21	332.36
402.40	461.09
402.59	430.66
402.78	365.12
402.97	365.12
403.17	388.53
403.36	451.72
403.55	447.04
403.74	322.99
403.93	404.91
404.13	440.02
404.32	400.23
404.51	372.15
404.70	449.38
404.89	390.87
405.09	404.91
405.28	353.42
405.47	451.72
405.66	451.72
405.85	395.55
406.05	437.68
406.24	383.85
406.43	451.72
406.62	451.72
406.81	456.40
407.00	404.91
407.20	409.59
407.39	414.27
407.58	365.12
407.77	416.62
407.96	390.87
408.15	451.72
408.34	449.38
408.54	348.74
408.73	339.38
408.92	421.30
409.11	447.04
409.30	437.68
409.49	461.09
409.68	411.93
409.87	409.59
410.07	381.51
410.26	465.77
410.45	433.00
410.64	421.30
410.83	421.30
411.02	421.30
411.21	404.91
411.40	414.27
411.59	409.59
411.78	447.04
411.98	449.38
412.17	454.06
412.36	355.76
412.55	351.08
412.74	425.98
412.93	442.36
413.12	435.34
413.31	454.06
413.50	355.76
413.69	397.89
413.88	414.27
414.07	425.98
414.26	435.34
414.45	418.96
414.64	388.53
414.83	397.89
415.02	428.32
415.22	411.93
415.41	451.72
415.60	318.31
415.79	491.51
415.98	404.91
416.17	423.64
416.36	435.34
416.55	421.30
416.74	470.45
416.93	423.64
417.12	365.12
417.31	369.80
417.50	447.04
417.69	447.04
417.88	409.59
418.07	367.46
418.26	444.70
418.45	442.36
418.64	421.30
418.83	449.38
419.02	402.57
419.21	430.66
419.39	416.62
419.58	355.76
419.77	411.93
419.96	376.83
420.15	388.53
420.34	411.93
420.53	550.03
420.72	444.70
420.91	346.40
421.10	449.38
421.29	442.36
421.48	451.72
421.67	477.47
421.86	386.19
422.05	435.34
422.24	444.70
422.43	421.30
422.61	421.30
422.80	390.87
422.99	411.93
423.18	372.15
423.37	447.04
423.56	433.00
423.75	404.91
423.94	365.12
424.13	397.89
424.32	440.02
424.50	477.47
424.69	395.55
424.88	367.46
425.07	327.68
425.26	376.83
425.45	435.34
425.64	421.30
425.83	411.93
426.01	454.06
426.20	411.93
426.39	411.93
426.58	351.08
426.77	360.44
426.96	386.19
427.15	400.23
427.33	374.49
427.52	365.12
427.71	437.68
427.90	430.66
428.09	425.98
428.28	390.87
428.46	353.42
428.65	463.43
428.84	358.10
429.03	428.32
429.22	376.83
429.40	423.64
429.59	418.96
429.78	411.93
429.97	456.40
430.16	402.57
430.34	428.32
430.53	437.68
430.72	360.44
430.91	400.23
431.10	388.53
431.28	425.98
431.47	407.25
431.66	383.85
431.85	393.21
432.03	348.74
432.22	425.98
432.41	395.55
432.60	416.62
432.79	374.49
432.97	531.30
433.16	381.51
433.35	360.44
433.54	451.72
433.72	407.25
433.91	444.70
434.10	482.15
434.28	447.04
434.47	423.64
434.66	535.98
434.85	404.91
435.03	409.59
435.22	496.19
435.41	372.15
435.59	454.06
435.78	411.93
435.97	393.21
436.16	447.04
436.34	454.06
436.53	327.68
436.72	414.27
436.90	388.53
437.09	407.25
437.28	447.04
437.46	397.89
437.65	498.53
437.84	425.98
438.02	414.27
438.21	470.45
438.40	395.55
438.58	442.36
438.77	393.21
438.96	447.04
439.14	367.46
439.33	472.79
439.52	404.91
439.70	395.55
439.89	454.06
440.08	456.40
440.26	433.00
440.45	421.30
440.63	386.19
440.82	425.98
441.01	418.96
441.19	409.59
441.38	376.83
441.57	358.10
441.75	367.46
441.94	477.47
442.12	383.85
442.31	433.00
442.50	400.23
442.68	421.30
442.87	465.77
443.05	388.53
443.24	456.40
443.43	421.30
443.61	430.66
443.80	402.57
443.98	458.74
444.17	346.40
444.35	402.57
444.54	367.46
444.73	355.76
444.91	369.80
445.10	353.42
445.28	461.09
445.47	379.17
445.65	430.66
445.84	409.59
446.02	428.32
446.21	332.36
446.39	400.23
446.58	458.74
446.77	433.00
446.95	402.57
447.14	395.55
447.32	482.15
447.51	411.93
447.69	475.13
447.88	404.91
448.06	430.66
448.25	379.17
448.43	425.98
448.62	418.96
448.80	461.09
448.99	451.72
449.17	407.25
449.36	479.81
449.54	475.13
449.73	482.15
449.91	386.19
450.10	416.62
450.28	505.56
450.46	486.83
450.65	454.06
450.83	397.89
451.02	468.11
451.20	477.47
451.39	458.74
451.57	416.62
451.76	397.89
451.94	411.93
452.13	433.00
452.31	379.17
452.49	433.00
452.68	379.17
452.86	376.83
453.05	510.24
453.23	416.62
453.42	440.02
453.60	447.04
453.78	493.85
453.97	440.02
454.15	404.91
454.34	437.68
454.52	402.57
454.70	463.43
454.89	404.91
455.07	404.91
455.26	449.38
455.44	393.21
455.62	351.08
455.81	437.68
455.99	465.77
456.17	461.09
456.36	334.70
456.54	416.62
456.73	463.43
456.91	362.78
457.09	395.55
457.28	393.21
457.46	433.00
457.64	402.57
457.83	437.68
458.01	444.70
458.19	407.25
458.38	416.62
458.56	447.04
458.74	390.87
458.93	372.15
459.11	421.30
459.29	411.93
459.48	449.38
459.66	479.81
459.84	447.04
460.03	449.38
460.21	397.89
460.39	442.36
460.57	447.04
460.76	449.38
460.94	421.30
461.12	440.02
461.31	512.58
461.49	395.55
461.67	351.08
461.85	472.79
462.04	369.80
462.22	767.70
462.40	468.11
462.59	465.77
462.77	456.40
462.95	433.00
463.13	437.68
463.32	454.06
463.50	400.23
463.68	423.64
463.86	425.98
464.05	362.78
464.23	475.13
464.41	472.79
464.59	381.51
464.78	369.80
464.96	404.91
465.14	369.80
465.32	313.63
465.50	533.64
465.69	437.68
465.87	393.21
466.05	407.25
466.23	404.91
466.41	348.74
466.60	430.66
466.78	451.72
466.96	390.87
467.14	400.23
467.32	421.30
467.51	376.83
467.69	369.80
467.87	507.90
468.05	327.68
468.23	425.98
468.41	428.32
468.60	374.49
468.78	372.15
468.96	411.93
469.14	360.44
469.32	414.27
469.50	369.80
469.69	397.89
469.87	402.57
470.05	447.04
470.23	404.91
470.41	416.62
470.59	442.36
470.77	437.68
470.95	407.25
471.14	465.77
471.32	416.62
471.50	414.27
471.68	362.78
471.86	465.77
472.04	358.10
472.22	379.17
472.40	407.25
472.58	386.19
472.77	442.36
472.95	465.77
473.13	404.91
473.31	395.55
473.49	440.02
473.67	425.98
473.85	379.17
474.03	409.59
474.21	430.66
474.39	449.38
474.57	404.91
474.75	397.89
474.93	400.23
475.12	433.00
475.30	465.77
475.48	425.98
475.66	348.74
475.84	402.57
476.02	444.70
476.20	517.26
476.38	496.19
476.56	486.83
476.74	411.93
476.92	390.87
477.10	400.23
477.28	397.89
477.46	465.77
477.64	379.17
477.82	379.17
478.00	409.59
478.18	411.93
478.36	351.08
478.54	355.76
478.72	428.32
478.90	376.83
479.08	447.04
479.26	435.34
479.44	425.98
479.62	351.08
479.80	386.19
479.98	435.34
480.16	402.57
480.34	393.21
480.52	425.98
480.70	409.59
480.88	454.06
481.06	397.89
481.24	468.11
481.41	454.06
481.59	444.70
481.77	407.25
481.95	390.87
482.13	449.38
482.31	470.45
482.49	440.02
482.67	442.36
482.85	454.06
483.03	447.04
483.21	416.62
483.39	400.23
483.57	379.17
483.74	407.25
483.92	440.02
484.10	454.06
484.28	442.36
484.46	430.66
484.64	341.72
484.82	404.91
485.00	437.68
485.18	423.64
485.35	461.09
485.53	425.98
485.71	491.51
485.89	334.70
486.07	355.76
486.25	411.93
486.43	397.89
486.61	440.02
486.78	407.25
486.96	379.17
487.14	440.02
487.32	479.81
487.50	388.53
487.68	390.87
487.85	367.46
488.03	435.34
488.21	463.43
488.39	414.27
488.57	484.49
488.75	451.72
488.92	550.03
489.10	440.02
489.28	454.06
489.46	433.00
489.64	386.19
489.81	397.89
489.99	362.78
490.17	395.55
490.35	376.83
490.53	346.40
490.70	423.64
490.88	433.00
491.06	433.00
491.24	489.17
491.41	458.74
491.59	433.00
491.77	418.96
491.95	430.66
492.13	414.27
492.30	430.66
492.48	409.59
492.66	430.66
492.84	337.04
493.01	411.93
493.19	393.21
493.37	421.30
493.54	400.23
493.72	404.91
493.90	435.34
494.08	388.53
494.25	416.62
494.43	484.49
494.61	397.89
494.79	425.98
494.96	355.76
495.14	409.59
495.32	414.27
495.49	437.68
495.67	440.02
495.85	421.30
496.02	360.44
496.20	397.89
496.38	423.64
496.55	397.89
496.73	306.61
496.91	395.55
497.09	498.53
497.26	395.55
497.44	395.55
497.62	470.45
497.79	383.85
497.97	425.98
498.14	360.44
498.32	433.00
498.50	456.40
498.67	465.77
498.85	337.04
499.03	400.23
499.20	390.87
499.38	416.62
499.56	355.76
499.73	484.49
499.91	449.38
500.08	468.11
500.26	444.70
500.44	437.68
500.61	442.36
500.79	416.62
500.97	430.66
501.14	435.34
501.32	463.43
501.49	447.04
501.67	402.57
501.84	423.64
502.02	386.19
502.20	470.45
502.37	440.02
502.55	456.40
502.72	362.78
502.90	411.93
503.07	379.17
503.25	411.93
503.43	407.25
503.60	376.83
503.78	367.46
503.95	433.00
504.13	440.02
504.30	451.72
504.48	418.96
504.65	463.43
504.83	454.06
505.01	430.66
505.18	465.77
505.36	409.59
505.53	423.64
505.71	414.27
505.88	505.56
506.06	449.38
506.23	421.30
506.41	437.68
506.58	418.96
506.76	440.02
506.93	428.32
507.11	449.38
507.28	334.70
507.46	383.85
507.63	355.76
507.81	416.62
507.98	428.32
508.16	404.91
508.33	376.83
508.50	351.08
508.68	437.68
508.85	451.72
509.03	395.55
509.20	397.89
509.38	374.49
509.55	414.27
509.73	461.09
509.90	425.98
510.08	425.98
510.25	390.87
510.42	365.12
510.60	397.89
510.77	365.12
510.95	425.98
511.12	365.12
511.30	400.23
511.47	428.32
511.64	489.17
511.82	421.30
511.99	425.98
512.17	414.27
512.34	353.42
512.51	416.62
512.69	418.96
512.86	425.98
513.04	383.85
513.21	348.74
513.38	376.83
513.56	440.02
513.73	425.98
513.90	351.08
514.08	437.68
514.25	425.98
514.43	421.30
514.60	456.40
514.77	388.53
514.95	393.21
515.12	465.77
515.29	465.77
515.47	386.19
515.64	435.34
515.81	458.74
515.99	468.11
516.16	498.53
516.33	397.89
516.51	416.62
516.68	348.74
516.85	435.34
517.03	449.38
517.20	407.25
517.37	442.36
517.54	470.45
517.72	461.09
517.89	404.91
518.06	360.44
518.24	503.22
518.41	437.68
518.58	400.23
518.75	390.87
518.93	397.89
519.10	461.09
519.27	407.25
519.45	358.10
519.62	442.36
519.79	416.62
519.96	404.91
520.14	395.55
520.31	400.23
520.48	433.00
520.65	414.27
520.83	454.06
521.00	465.77
521.17	397.89
521.34	444.70
521.52	428.32
521.69	381.51
521.86	428.32
522.03	451.72
522.20	491.51
522.38	393.21
522.55	402.57
522.72	477.47
522.89	418.96
523.07	465.77
523.24	376.83
523.41	409.59
523.58	479.81
523.75	334.70
523.92	332.36
524.10	325.33
524.27	500.87
524.44	428.32
524.61	409.59
524.78	435.34
524.96	435.34
525.13	414.27
525.30	442.36
525.47	477.47
525.64	404.91
525.81	400.23
525.98	379.17
526.16	447.04
526.33	411.93
526.50	322.99
526.67	418.96
526.84	449.38
527.01	496.19
527.18	472.79
527.36	404.91
527.53	390.87
527.70	393.21
527.87	407.25
528.04	423.64
528.21	376.83
528.38	470.45
528.55	484.49
528.72	447.04
528.89	435.34
529.07	395.55
529.24	444.70
529.41	479.81
529.58	447.04
529.75	409.59
529.92	449.38
530.09	409.59
530.26	447.04
530.43	545.34
530.60	383.85
530.77	404.91
530.94	416.62
531.11	477.47
531.28	449.38
531.46	416.62
531.63	418.96
531.80	435.34
531.97	461.09
532.14	407.25
532.31	475.13
532.48	409.59
532.65	386.19
532.82	355.76
532.99	388.53
533.16	433.00
533.33	348.74
533.50	376.83
533.67	404.91
533.84	435.34
534.01	442.36
534.18	423.64
534.35	456.40
534.52	484.49
534.69	402.57
534.86	437.68
535.03	454.06
535.20	447.04
535.37	491.51
535.54	369.80
535.71	388.53
535.88	430.66
536.05	400.23
536.22	414.27
536.38	428.32
536.55	411.93
536.72	449.38
536.89	423.64
537.06	397.89
537.23	463.43
537.40	322.99
537.57	418.96
537.74	421.30
537.91	484.49
538.08	437.68
538.25	430.66
538.42	381.51
538.59	409.59
538.75	379.17
538.92	409.59
539.09	362.78
539.26	395.55
539.43	451.72
539.60	521.94
539.77	418.96
539.94	454.06
540.11	418.96
540.28	442.36
540.44	414.27
540.61	479.81
540.78	386.19
540.95	447.04
541.12	435.34
541.29	397.89
541.46	463.43
541.62	428.32
541.79	397.89
541.96	414.27
542.13	390.87
542.30	376.83
542.47	414.27
542.63	416.62
542.80	461.09
542.97	482.15
543.14	376.83
543.31	442.36
543.48	428.32
543.64	402.57
543.81	374.49
543.98	414.27
544.15	421.30
544.32	409.59
544.48	409.59
544.65	344.06
544.82	430.66
544.99	454.06
545.16	416.62
545.32	374.49
545.49	421.30
545.66	386.19
545.83	367.46
546.00	390.87
546.16	360.44
546.33	428.32
546.50	451.72
546.67	433.00
546.83	468.11
547.00	411.93
547.17	407.25
547.34	390.87
547.50	454.06
547.67	355.76
547.84	414.27
548.00	458.74
548.17	346.40
548.34	449.38
548.51	463.43
548.67	440.02
548.84	461.09
549.01	383.85
549.18	458.74
549.34	500.87
549.51	444.70
549.68	472.79
549.84	393.21
550.01	337.04
550.18	496.19
550.34	435.34
550.51	461.09
550.68	500.87
550.84	454.06
551.01	449.38
551.18	486.83
551.34	372.15
551.51	402.57
551.68	416.62
551.84	479.81
552.01	381.51
552.18	437.68
552.34	454.06
552.51	447.04
552.68	484.49
552.84	477.47
553.01	348.74
553.18	379.17
553.34	353.42
553.51	451.72
553.67	444.70
553.84	447.04
554.01	435.34
554.17	381.51
554.34	407.25
554.51	489.17
554.67	414.27
554.84	461.09
555.00	493.85
555.17	409.59
555.33	421.30
555.50	351.08
555.67	444.70
555.83	433.00
556.00	470.45
556.16	543.00
556.33	447.04
556.50	395.55
556.66	365.12
556.83	358.10
556.99	421.30
557.16	433.00
557.32	421.30
557.49	444.70
557.65	423.64
557.82	414.27
557.98	451.72
558.15	437.68
558.32	376.83
558.48	484.49
558.65	435.34
558.81	465.77
558.98	386.19
559.14	393.21
559.31	456.40
559.47	400.23
559.64	416.62
559.80	402.57
559.97	444.70
560.13	397.89
560.30	414.27
560.46	423.64
560.63	458.74
560.79	374.49
560.96	430.66
561.12	386.19
561.29	365.12
561.45	393.21
561.61	505.56
561.78	503.22
561.94	447.04
562.11	456.40
562.27	404.91
562.44	449.38
562.60	397.89
562.77	493.85
562.93	458.74
563.10	411.93
563.26	423.64
563.42	449.38
563.59	339.38
563.75	409.59
563.92	400.23
564.08	369.80
564.24	514.92
564.41	416.62
564.57	393.21
564.74	444.70
564.90	433.00
565.07	360.44
565.23	491.51
565.39	479.81
565.56	411.93
565.72	390.87
565.88	454.06
566.05	411.93
566.21	393.21
566.38	327.68
566.54	440.02
566.70	367.46
566.87	402.57
567.03	454.06
567.19	512.58
567.36	367.46
567.52	367.46
567.68	430.66
567.85	397.89
568.01	386.19
568.17	360.44
568.34	491.51
568.50	433.00
568.66	500.87
568.83	472.79
568.99	411.93
569.15	435.34
569.32	341.72
569.48	433.00
569.64	423.64
569.81	402.57
569.97	437.68
570.13	472.79
570.30	479.81
570.46	397.89
570.62	402.57
570.78	421.30
570.95	365.12
571.11	409.59
571.27	404.91
571.43	411.93
571.60	355.76
571.76	437.68
571.92	437.68
572.09	411.93
572.25	395.55
572.41	454.06
572.57	388.53
572.74	430.66
572.90	435.34
573.06	376.83
573.22	414.27
573.38	440.02
573.55	369.80
573.71	458.74
573.87	400.23
574.03	372.15
574.20	411.93
574.36	421.30
574.52	425.98
574.68	411.93
574.84	444.70
575.01	353.42
575.17	458.74
575.33	486.83
575.49	482.15
575.65	418.96
575.82	505.56
575.98	430.66
576.14	468.11
576.30	341.72
576.46	456.40
576.62	416.62
576.79	393.21
576.95	393.21
577.11	365.12
577.27	395.55
577.43	456.40
577.59	425.98
577.75	461.09
577.92	397.89
578.08	404.91
578.24	435.34
578.40	433.00
578.56	456.40
578.72	510.24
578.88	449.38
579.04	425.98
579.21	468.11
579.37	468.11
579.53	355.76
579.69	449.38
579.85	322.99
580.01	416.62
580.17	428.32
580.33	449.38
580.49	442.36
580.65	386.19
580.82	376.83
580.98	367.46
581.14	437.68
581.30	461.09
581.46	393.21
581.62	440.02
581.78	416.62
581.94	404.91
582.10	381.51
582.26	444.70
582.42	442.36
582.58	407.25
582.74	367.46
582.90	454.06
583.06	383.85
583.22	365.12
583.38	491.51
583.54	409.59
583.70	477.47
583.86	461.09
584.02	437.68
584.18	447.04
584.34	433.00
584.50	472.79
584.66	388.53
584.82	372.15
584.98	430.66
585.14	423.64
585.30	451.72
585.46	510.24
585.62	423.64
585.78	355.76
585.94	440.02
586.10	393.21
586.26	489.17
586.42	451.72
586.58	379.17
586.74	472.79
586.90	339.38
587.06	395.55
587.22	325.33
587.38	376.83
587.54	447.04
587.70	390.87
587.86	404.91
588.02	390.87
588.18	447.04
588.34	362.78
588.49	369.80
588.65	367.46
588.81	416.62
588.97	362.78
589.13	372.15
589.29	463.43
589.45	433.00
589.61	425.98
589.77	470.45
589.93	407.25
590.08	428.32
590.24	404.91
590.40	472.79
590.56	449.38
590.72	496.19
590.88	411.93
591.04	397.89
591.20	421.30
591.35	447.04
591.51	435.34
591.67	418.96
591.83	393.21
591.99	395.55
592.15	407.25
592.31	437.68
592.46	402.57
592.62	463.43
592.78	360.44
592.94	503.22
593.10	397.89
593.26	390.87
593.41	444.70
593.57	463.43
593.73	411.93
593.89	472.79
594.05	388.53
594.20	430.66
594.36	510.24
594.52	421.30
594.68	379.17
594.84	470.45
594.99	402.57
595.15	465.77
595.31	437.68
595.47	414.27
595.62	407.25
595.78	418.96
595.94	416.62
596.10	418.96
596.25	418.96
596.41	435.34
596.57	404.91
596.73	397.89
596.88	425.98
597.04	416.62
597.20	393.21
597.36	376.83
597.51	411.93
597.67	414.27
597.83	437.68
597.99	442.36
598.14	444.70
598.30	433.00
598.46	444.70
598.61	440.02
598.77	339.38
598.93	414.27
599.09	397.89
599.24	458.74
599.40	486.83
599.56	428.32
599.71	386.19
599.87	386.19
600.03	475.13
600.18	463.43
600.34	435.34
600.50	397.89
600.65	418.96
600.81	433.00
600.97	484.49
601.12	461.09
601.28	472.79
601.44	458.74
601.59	430.66
601.75	433.00
601.91	440.02
602.06	451.72
602.22	433.00
602.37	463.43
602.53	470.45
602.69	425.98
602.84	402.57
603.00	397.89
603.16	386.19
603.31	447.04
603.47	390.87
603.62	440.02
603.78	421.30
603.94	447.04
604.09	442.36
604.25	444.70
604.40	465.77
604.56	435.34
604.71	374.49
604.87	430.66
605.03	458.74
605.18	451.72
605.34	393.21
605.49	433.00
605.65	475.13
605.80	407.25
605.96	404.91
606.12	418.96
606.27	435.34
606.43	411.93
606.58	327.68
606.74	437.68
606.89	395.55
607.05	430.66
607.20	500.87
607.36	425.98
607.51	308.95
607.67	437.68
607.82	496.19
607.98	411.93
608.13	390.87
608.29	365.12
608.44	360.44
608.60	381.51
608.75	442.36
608.91	491.51
609.06	407.25
609.22	451.72
609.37	425.98
609.53	440.02
609.68	386.19
609.84	433.00
609.99	334.70
610.15	411.93
610.30	423.64
610.46	402.57
610.61	402.57
610.76	358.10
610.92	447.04
611.07	496.19
611.23	409.59
611.38	489.17
611.54	383.85
611.69	330.02
611.84	454.06
612.00	393.21
612.15	433.00
612.31	395.55
612.46	393.21
612.62	414.27
612.77	451.72
612.92	458.74
613.08	461.09
613.23	447.04
613.39	409.59
613.54	400.23
613.69	458.74
613.85	423.64
614.00	430.66
614.15	383.85
614.31	404.91
614.46	435.34
614.62	414.27
614.77	360.44
614.92	404.91
615.08	402.57
615.23	461.09
615.38	447.04
615.54	468.11
615.69	428.32
615.84	334.70
616.00	421.30
616.15	421.30
616.30	339.38
616.46	440.02
616.61	397.89
616.76	414.27
616.92	423.64
617.07	435.34
617.22	430.66
617.37	456.40
617.53	351.08
617.68	430.66
617.83	440.02
617.99	388.53
618.14	416.62
618.29	437.68
618.45	372.15
618.60	404.91
618.75	416.62
618.90	411.93
619.06	372.15
619.21	423.64
619.36	409.59
619.51	367.46
619.67	383.85
619.82	433.00
619.97	465.77
620.12	411.93
620.28	477.47
620.43	444.70
620.58	379.17
620.73	388.53
620.89	404.91
621.04	402.57
621.19	409.59
621.34	376.83
621.49	386.19
621.65	433.00
621.80	437.68
621.95	425.98
622.10	479.81
622.25	318.31
622.41	386.19
622.56	409.59
622.71	442.36
622.86	447.04
623.01	374.49
623.16	435.34
623.32	372.15
623.47	393.21
623.62	411.93
623.77	409.59
623.92	393.21
624.07	414.27
624.23	414.27
624.38	402.57
624.53	369.80
624.68	451.72
624.83	463.43
624.98	372.15
625.13	339.38
625.29	479.81
625.44	407.25
625.59	418.96
625.74	435.34
625.89	435.34
626.04	386.19
626.19	479.81
626.34	435.34
626.49	491.51
626.65	374.49
626.80	397.89
626.95	416.62
627.10	362.78
627.25	430.66
627.40	463.43
627.55	395.55
627.70	435.34
627.85	386.19
628.00	421.30
628.15	339.38
628.30	423.64
628.45	397.89
628.60	458.74
628.76	421.30
628.91	404.91
629.06	433.00
629.21	435.34
629.36	465.77
629.51	440.02
629.66	386.19
629.81	358.10
629.96	393.21
630.11	512.58
630.26	444.70
630.41	372.15
630.56	491.51
630.71	360.44
630.86	397.89
631.01	400.23
631.16	451.72
631.31	397.89
631.46	386.19
631.61	418.96
631.76	414.27
631.91	351.08
632.06	351.08
632.21	421.30
632.36	416.62
632.51	383.85
632.66	444.70
632.81	353.42
632.96	472.79
633.10	437.68
633.25	477.47
633.40	358.10
633.55	472.79
633.70	402.57
633.85	454.06
634.00	407.25
634.15	362.78
634.30	400.23
634.45	454.06
634.60	351.08
634.75	435.34
634.90	395.55
635.05	383.85
635.19	421.30
635.34	407.25
635.49	442.36
635.64	435.34
635.79	423.64
635.94	451.72
636.09	367.46
636.24	381.51
636.39	383.85
636.53	411.93
636.68	425.98
636.83	505.56
636.98	461.09
637.13	449.38
637.28	383.85
637.43	456.40
637.57	376.83
637.72	393.21
637.87	407.25
638.02	433.00
638.17	435.34
638.32	449.38
638.46	447.04
638.61	449.38
638.76	440.02
638.91	411.93
639.06	400.23
639.20	465.77
639.35	454.06
639.50	360.44
639.65	437.68
639.80	355.76
639.94	423.64
640.09	500.87
640.24	451.72
640.39	411.93
640.54	454.06
640.68	332.36
640.83	416.62
640.98	325.33
641.13	461.09
641.27	400.23
641.42	337.04
641.57	416.62
641.72	393.21
641.86	440.02
642.01	425.98
642.16	449.38
642.31	381.51
642.45	421.30
642.60	463.43
642.75	409.59
642.90	477.47
643.04	430.66
643.19	386.19
643.34	423.64
643.48	411.93
643.63	393.21
643.78	433.00
643.93	451.72
644.07	411.93
644.22	400.23
644.37	437.68
644.51	414.27
644.66	468.11
644.81	477.47
644.95	486.83
645.10	379.17
645.25	484.49
645.39	388.53
645.54	444.70
645.69	393.21
645.83	416.62
645.98	535.98
646.13	404.91
646.27	463.43
646.42	470.45
646.57	379.17
646.71	442.36
646.86	402.57
647.00	402.57
647.15	451.72
647.30	430.66
647.44	433.00
647.59	404.91
647.74	390.87
647.88	425.98
648.03	397.89
648.17	421.30
648.32	404.91
648.47	440.02
648.61	404.91
648.76	423.64
648.90	374.49
649.05	418.96
649.20	372.15
649.34	360.44
649.49	390.87
649.63	393.21
649.78	416.62
649.92	369.80
650.07	418.96
650.21	435.34
650.36	416.62
650.51	454.06
650.65	425.98
650.80	421.30
650.94	393.21
651.09	337.04
651.23	425.98
651.38	416.62
651.52	313.63
651.67	444.70
651.81	411.93
651.96	390.87
652.10	472.79
652.25	358.10
652.39	433.00
652.54	421.30
652.68	379.17
652.83	451.72
652.97	458.74
653.12	423.64
653.26	463.43
653.41	451.72
653.55	425.98
653.70	362.78
653.84	388.53
653.99	449.38
654.13	435.34
654.27	386.19
654.42	372.15
654.56	416.62
654.71	463.43
654.85	407.25
655.00	472.79
655.14	360.44
655.29	404.91
655.43	353.42
655.57	430.66
655.72	374.49
655.86	425.98
656.01	449.38
656.15	442.36
656.30	440.02
656.44	454.06
656.58	369.80
656.73	409.59
656.87	369.80
657.01	435.34
657.16	390.87
657.30	479.81
657.45	470.45
657.59	437.68
657.73	465.77
657.88	346.40
658.02	437.68
658.16	421.30
658.31	418.96
658.45	482.15
658.60	404.91
658.74	447.04
658.88	311.29
659.03	386.19
659.17	503.22
659.31	444.70
659.46	444.70
659.60	489.17
659.74	428.32
659.89	365.12
660.03	400.23
660.17	430.66
660.32	360.44
660.46	421.30
660.60	440.02
660.74	477.47
660.89	468.11
661.03	449.38
661.17	451.72
661.32	404.91
661.46	416.62
661.60	416.62
661.74	341.72
661.89	421.30
662.03	461.09
662.17	404.91
662.31	397.89
662.46	400.23
662.60	379.17
662.74	360.44
662.88	454.06
663.03	360.44
663.17	440.02
663.31	425.98
663.45	458.74
663.60	423.64
663.74	423.64
663.88	393.21
664.02	351.08
664.17	372.15
664.31	400.23
664.45	444.70
664.59	388.53
664.73	430.66
664.88	414.27
665.02	367.46
665.16	344.06
665.30	393.21
665.44	449.38
665.59	465.77
665.73	411.93
665.87	423.64
666.01	353.42
666.15	418.96
666.29	461.09
666.44	442.36
666.58	470.45
666.72	428.32
666.86	353.42
667.00	451.72
667.14	430.66
667.28	411.93
667.43	430.66
667.57	400.23
667.71	489.17
667.85	428.32
667.99	393.21
668.13	376.83
668.27	449.38
668.41	440.02
668.56	430.66
668.70	479.81
668.84	442.36
668.98	388.53
669.12	475.13
669.26	437.68
669.40	479.81
669.54	409.59
669.68	414.27
669.82	416.62
669.96	451.72
670.10	449.38
670.25	430.66
670.39	407.25
670.53	425.98
670.67	407.25
670.81	421.30
670.95	433.00
671.09	355.76
671.23	498.53
671.37	381.51
671.51	475.13
671.65	407.25
671.79	411.93
671.93	451.72
672.07	409.59
672.21	465.77
672.35	437.68
672.49	416.62
672.63	477.47
672.77	414.27
672.91	379.17
673.05	353.42
673.19	374.49
673.33	400.23
673.47	423.64
673.61	498.53
673.75	369.80
673.89	372.15
674.03	367.46
674.17	433.00
674.31	376.83
674.45	463.43
674.59	519.60
674.73	383.85
674.87	428.32
675.01	435.34
675.15	458.74
675.29	421.30
675.43	437.68
675.56	463.43
675.70	465.77
675.84	374.49
675.98	411.93
676.12	409.59
676.26	463.43
676.40	489.17
676.54	458.74
676.68	430.66
676.82	421.30
676.96	442.36
677.10	425.98
677.23	489.17
677.37	505.56
677.51	393.21
677.65	519.60
677.79	386.19
677.93	416.62
678.07	386.19
678.21	475.13
678.34	442.36
678.48	374.49
678.62	543.00
678.76	425.98
678.90	404.91
679.04	381.51
679.18	440.02
679.31	430.66
679.45	430.66
679.59	428.32
679.73	440.02
679.87	454.06
680.00	447.04
680.14	407.25
680.28	423.64
680.42	393.21
680.56	533.64
680.70	409.59
680.83	425.98
680.97	402.57
681.11	430.66
681.25	428.32
681.39	400.23
681.52	411.93
681.66	444.70
681.80	407.25
681.94	409.59
682.07	390.87
682.21	444.70
682.35	386.19
682.49	425.98
682.62	425.98
682.76	440.02
682.90	383.85
683.04	479.81
683.17	430.66
683.31	414.27
683.45	423.64
683.59	395.55
683.72	421.30
683.86	367.46
684.00	407.25
684.13	414.27
684.27	425.98
684.41	388.53
684.55	409.59
684.68	454.06
684.82	407.25
684.96	428.32
685.09	411.93
685.23	393.21
685.37	376.83
685.50	430.66
685.64	430.66
685.78	355.76
685.91	397.89
686.05	489.17
686.19	421.30
686.32	456.40
686.46	400.23
686.60	409.59
686.73	486.83
686.87	507.90
687.01	353.42
687.14	451.72
687.28	330.02
687.42	456.40
687.55	430.66
687.69	437.68
687.82	454.06
687.96	409.59
688.10	400.23
688.23	369.80
688.37	421.30
688.50	397.89
688.64	379.17
688.78	355.76
688.91	360.44
689.05	358.10
689.18	421.30
689.32	344.06
689.46	397.89
689.59	428.32
689.73	428.32
689.86	393.21
690.00	442.36
690.13	449.38
690.27	379.17
690.41	430.66
690.54	369.80
690.68	437.68
690.81	475.13
690.95	421.30
691.08	402.57
691.22	444.70
691.35	440.02
691.49	395.55
691.62	486.83
691.76	437.68
691.89	475.13
692.03	395.55
692.16	346.40
692.30	423.64
692.43	400.23
692.57	383.85
692.70	353.42
692.84	400.23
692.97	463.43
693.11	402.57
693.24	402.57
693.38	379.17
693.51	397.89
693.65	348.74
693.78	442.36
693.92	425.98
694.05	379.17
694.19	358.10
694.32	374.49
694.45	416.62
694.59	386.19
694.72	451.72
694.86	376.83
694.99	440.02
695.13	407.25
695.26	423.64
695.39	440.02
695.53	428.32
695.66	407.25
695.80	440.02
695.93	433.00
696.07	454.06
696.20	365.12
696.33	400.23
696.47	407.25
696.60	376.83
696.73	479.81
696.87	327.68
697.00	444.70
697.14	440.02
697.27	369.80
697.40	409.59
697.54	388.53
697.67	404.91
697.80	435.34
697.94	458.74
698.07	397.89
698.21	414.27
698.34	475.13
698.47	454.06
698.61	407.25
698.74	449.38
698.87	425.98
699.01	416.62
699.14	402.57
699.27	414.27
699.40	528.96
699.54	425.98
699.67	421.30
699.80	383.85
699.94	353.42
700.07	447.04
700.20	416.62
700.34	456.40
700.47	430.66
700.60	414.27
700.73	437.68
700.87	390.87
701.00	421.30
701.13	470.45
701.26	381.51
701.40	400.23
701.53	372.15
701.66	339.38
701.79	461.09
701.93	421.30
702.06	461.09
702.19	428.32
702.32	407.25
702.46	409.59
702.59	390.87
702.72	325.33
702.85	442.36
702.99	407.25
703.12	433.00
703.25	397.89
703.38	435.34
703.51	421.30
703.65	421.30
703.78	365.12
703.91	470.45
704.04	362.78
704.17	423.64
704.31	351.08
704.44	351.08
704.57	393.21
704.70	411.93
704.83	428.32
704.96	381.51
705.10	388.53
705.23	390.87
>>>>>End Processed Spectral Data<<<<<
