SpectraSuite Data File
++++++++++++++++++++++++++++++++++++
Date: Fri Oct 25 12:10:53 EDT 2013
User: price-jones
Dark Spectrum Present: No
Reference Spectrum Present: No
Number of Sampled Component Spectra: 1
Spectrometers: USB2+H05261
Integration Time (usec): 100000 (USB2+H05261)
Spectra Averaged: 1 (USB2+H05261)
Boxcar Smoothing: 0 (USB2+H05261)
Correct for Electrical Dark: No (USB2+H05261)
Strobe/Lamp Enabled: No (USB2+H05261)
Correct for Detector Non-linearity: No (USB2+H05261)
Correct for Stray Light: No (USB2+H05261)
Number of Pixels in Processed Spectrum: 2048
>>>>>Begin Processed Spectral Data<<<<<
365.73	449.38
365.92	449.38
366.12	449.38
366.32	208.31
366.52	269.16
366.72	255.12
366.91	203.63
367.11	248.10
367.31	198.95
367.51	217.67
367.70	264.48
367.90	184.90
368.10	224.69
368.30	248.10
368.49	248.10
368.69	255.12
368.89	262.14
369.09	266.82
369.28	245.76
369.48	243.42
369.68	234.05
369.87	332.36
370.07	273.84
370.27	365.12
370.47	322.99
370.66	351.08
370.86	330.02
371.06	381.51
371.25	407.25
371.45	346.40
371.65	358.10
371.84	435.34
372.04	341.72
372.24	407.25
372.44	423.64
372.63	407.25
372.83	346.40
373.03	423.64
373.22	428.32
373.42	433.00
373.62	433.00
373.81	477.47
374.01	414.27
374.21	414.27
374.40	456.40
374.60	428.32
374.79	472.79
374.99	468.11
375.19	437.68
375.38	521.94
375.58	337.04
375.78	383.85
375.97	430.66
376.17	456.40
376.37	360.44
376.56	447.04
376.76	491.51
376.95	447.04
377.15	454.06
377.35	388.53
377.54	468.11
377.74	397.89
377.93	400.23
378.13	423.64
378.33	447.04
378.52	376.83
378.72	397.89
378.91	407.25
379.11	451.72
379.31	390.87
379.50	390.87
379.70	451.72
379.89	440.02
380.09	411.93
380.28	411.93
380.48	339.38
380.68	430.66
380.87	306.61
381.07	395.55
381.26	484.49
381.46	390.87
381.65	404.91
381.85	414.27
382.04	437.68
382.24	461.09
382.43	362.78
382.63	348.74
382.83	365.12
383.02	425.98
383.22	505.56
383.41	423.64
383.61	390.87
383.80	425.98
384.00	397.89
384.19	390.87
384.39	425.98
384.58	444.70
384.78	454.06
384.97	372.15
385.17	440.02
385.36	379.17
385.56	404.91
385.75	348.74
385.95	404.91
386.14	409.59
386.34	428.32
386.53	367.46
386.72	435.34
386.92	437.68
387.11	435.34
387.31	360.44
387.50	348.74
387.70	416.62
387.89	388.53
388.09	407.25
388.28	381.51
388.48	390.87
388.67	418.96
388.86	421.30
389.06	409.59
389.25	440.02
389.45	418.96
389.64	449.38
389.84	358.10
390.03	313.63
390.22	358.10
390.42	435.34
390.61	341.72
390.81	269.16
391.00	411.93
391.19	433.00
391.39	458.74
391.58	390.87
391.78	395.55
391.97	470.45
392.16	390.87
392.36	390.87
392.55	447.04
392.75	435.34
392.94	435.34
393.13	346.40
393.33	390.87
393.52	421.30
393.71	430.66
393.91	353.42
394.10	411.93
394.29	437.68
394.49	379.17
394.68	376.83
394.88	369.80
395.07	402.57
395.26	423.64
395.46	393.21
395.65	397.89
395.84	404.91
396.04	505.56
396.23	435.34
396.42	451.72
396.62	369.80
396.81	402.57
397.00	409.59
397.19	402.57
397.39	409.59
397.58	461.09
397.77	428.32
397.97	418.96
398.16	393.21
398.35	425.98
398.55	327.68
398.74	397.89
398.93	444.70
399.12	376.83
399.32	416.62
399.51	355.76
399.70	416.62
399.90	454.06
400.09	374.49
400.28	367.46
400.47	332.36
400.67	393.21
400.86	447.04
401.05	465.77
401.24	379.17
401.44	435.34
401.63	386.19
401.82	416.62
402.01	423.64
402.21	402.57
402.40	475.13
402.59	409.59
402.78	383.85
402.97	381.51
403.17	470.45
403.36	383.85
403.55	428.32
403.74	416.62
403.93	381.51
404.13	351.08
404.32	365.12
404.51	383.85
404.70	463.43
404.89	379.17
405.09	437.68
405.28	440.02
405.47	400.23
405.66	458.74
405.85	472.79
406.05	428.32
406.24	386.19
406.43	416.62
406.62	397.89
406.81	451.72
407.00	390.87
407.20	411.93
407.39	369.80
407.58	379.17
407.77	379.17
407.96	393.21
408.15	376.83
408.34	435.34
408.54	404.91
408.73	332.36
408.92	386.19
409.11	402.57
409.30	372.15
409.49	341.72
409.68	395.55
409.87	383.85
410.07	409.59
410.26	423.64
410.45	374.49
410.64	318.31
410.83	383.85
411.02	440.02
411.21	383.85
411.40	383.85
411.59	386.19
411.78	362.78
411.98	435.34
412.17	348.74
412.36	395.55
412.55	404.91
412.74	421.30
412.93	454.06
413.12	374.49
413.31	437.68
413.50	433.00
413.69	470.45
413.88	381.51
414.07	416.62
414.26	367.46
414.45	395.55
414.64	369.80
414.83	395.55
415.02	435.34
415.22	451.72
415.41	388.53
415.60	397.89
415.79	404.91
415.98	416.62
416.17	475.13
416.36	440.02
416.55	404.91
416.74	397.89
416.93	421.30
417.12	407.25
417.31	358.10
417.50	435.34
417.69	470.45
417.88	362.78
418.07	428.32
418.26	365.12
418.45	425.98
418.64	484.49
418.83	451.72
419.02	416.62
419.21	423.64
419.39	442.36
419.58	400.23
419.77	358.10
419.96	456.40
420.15	367.46
420.34	458.74
420.53	437.68
420.72	386.19
420.91	444.70
421.10	400.23
421.29	437.68
421.48	367.46
421.67	423.64
421.86	351.08
422.05	386.19
422.24	414.27
422.43	423.64
422.61	435.34
422.80	416.62
422.99	369.80
423.18	318.31
423.37	390.87
423.56	334.70
423.75	402.57
423.94	376.83
424.13	388.53
424.32	468.11
424.50	386.19
424.69	367.46
424.88	456.40
425.07	465.77
425.26	360.44
425.45	430.66
425.64	475.13
425.83	477.47
426.01	397.89
426.20	386.19
426.39	383.85
426.58	456.40
426.77	421.30
426.96	430.66
427.15	367.46
427.33	397.89
427.52	416.62
427.71	365.12
427.90	428.32
428.09	421.30
428.28	416.62
428.46	404.91
428.65	393.21
428.84	395.55
429.03	465.77
429.22	397.89
429.40	421.30
429.59	414.27
429.78	395.55
429.97	437.68
430.16	407.25
430.34	383.85
430.53	362.78
430.72	407.25
430.91	468.11
431.10	369.80
431.28	404.91
431.47	379.17
431.66	428.32
431.85	402.57
432.03	379.17
432.22	470.45
432.41	433.00
432.60	444.70
432.79	395.55
432.97	428.32
433.16	367.46
433.35	379.17
433.54	397.89
433.72	449.38
433.91	423.64
434.10	411.93
434.28	379.17
434.47	463.43
434.66	489.17
434.85	395.55
435.03	428.32
435.22	404.91
435.41	418.96
435.59	416.62
435.78	381.51
435.97	311.29
436.16	428.32
436.34	418.96
436.53	407.25
436.72	461.09
436.90	447.04
437.09	421.30
437.28	423.64
437.46	416.62
437.65	433.00
437.84	486.83
438.02	442.36
438.21	430.66
438.40	463.43
438.58	353.42
438.77	421.30
438.96	367.46
439.14	433.00
439.33	400.23
439.52	437.68
439.70	322.99
439.89	444.70
440.08	411.93
440.26	444.70
440.45	418.96
440.63	414.27
440.82	458.74
441.01	416.62
441.19	486.83
441.38	362.78
441.57	463.43
441.75	372.15
441.94	407.25
442.12	444.70
442.31	414.27
442.50	379.17
442.68	503.22
442.87	477.47
443.05	339.38
443.24	409.59
443.43	430.66
443.61	407.25
443.80	428.32
443.98	341.72
444.17	425.98
444.35	393.21
444.54	344.06
444.73	409.59
444.91	440.02
445.10	334.70
445.28	379.17
445.47	465.77
445.65	397.89
445.84	470.45
446.02	411.93
446.21	416.62
446.39	430.66
446.58	430.66
446.77	454.06
446.95	390.87
447.14	440.02
447.32	477.47
447.51	458.74
447.69	425.98
447.88	435.34
448.06	421.30
448.25	425.98
448.43	367.46
448.62	322.99
448.80	397.89
448.99	425.98
449.17	430.66
449.36	500.87
449.54	440.02
449.73	454.06
449.91	393.21
450.10	451.72
450.28	440.02
450.46	428.32
450.65	430.66
450.83	407.25
451.02	442.36
451.20	465.77
451.39	397.89
451.57	358.10
451.76	437.68
451.94	341.72
452.13	458.74
452.31	416.62
452.49	440.02
452.68	379.17
452.86	400.23
453.05	409.59
453.23	400.23
453.42	437.68
453.60	451.72
453.78	386.19
453.97	315.97
454.15	294.91
454.34	433.00
454.52	379.17
454.70	397.89
454.89	407.25
455.07	465.77
455.26	428.32
455.44	465.77
455.62	447.04
455.81	388.53
455.99	451.72
456.17	430.66
456.36	437.68
456.54	421.30
456.73	372.15
456.91	491.51
457.09	402.57
457.28	454.06
457.46	421.30
457.64	470.45
457.83	428.32
458.01	390.87
458.19	461.09
458.38	402.57
458.56	351.08
458.74	383.85
458.93	433.00
459.11	463.43
459.29	353.42
459.48	376.83
459.66	489.17
459.84	447.04
460.03	421.30
460.21	423.64
460.39	395.55
460.57	414.27
460.76	404.91
460.94	400.23
461.12	470.45
461.31	421.30
461.49	430.66
461.67	379.17
461.85	442.36
462.04	465.77
462.22	793.44
462.40	421.30
462.59	383.85
462.77	369.80
462.95	332.36
463.13	362.78
463.32	482.15
463.50	400.23
463.68	411.93
463.86	388.53
464.05	454.06
464.23	407.25
464.41	388.53
464.59	353.42
464.78	409.59
464.96	397.89
465.14	414.27
465.32	376.83
465.50	486.83
465.69	390.87
465.87	411.93
466.05	425.98
466.23	381.51
466.41	451.72
466.60	493.85
466.78	376.83
466.96	454.06
467.14	395.55
467.32	397.89
467.51	416.62
467.69	414.27
467.87	428.32
468.05	346.40
468.23	421.30
468.41	430.66
468.60	442.36
468.78	425.98
468.96	468.11
469.14	404.91
469.32	425.98
469.50	400.23
469.69	346.40
469.87	404.91
470.05	404.91
470.23	484.49
470.41	472.79
470.59	362.78
470.77	472.79
470.95	444.70
471.14	418.96
471.32	418.96
471.50	428.32
471.68	393.21
471.86	461.09
472.04	430.66
472.22	433.00
472.40	379.17
472.58	383.85
472.77	430.66
472.95	407.25
473.13	407.25
473.31	470.45
473.49	388.53
473.67	367.46
473.85	416.62
474.03	482.15
474.21	437.68
474.39	409.59
474.57	486.83
474.75	395.55
474.93	442.36
475.12	393.21
475.30	390.87
475.48	454.06
475.66	407.25
475.84	461.09
476.02	456.40
476.20	428.32
476.38	388.53
476.56	447.04
476.74	423.64
476.92	395.55
477.10	423.64
477.28	442.36
477.46	404.91
477.64	440.02
477.82	353.42
478.00	402.57
478.18	362.78
478.36	470.45
478.54	386.19
478.72	372.15
478.90	386.19
479.08	400.23
479.26	440.02
479.44	374.49
479.62	458.74
479.80	421.30
479.98	402.57
480.16	454.06
480.34	470.45
480.52	421.30
480.70	425.98
480.88	404.91
481.06	414.27
481.24	402.57
481.41	421.30
481.59	400.23
481.77	451.72
481.95	442.36
482.13	444.70
482.31	416.62
482.49	416.62
482.67	461.09
482.85	428.32
483.03	355.76
483.21	425.98
483.39	421.30
483.57	418.96
483.74	435.34
483.92	341.72
484.10	421.30
484.28	421.30
484.46	472.79
484.64	433.00
484.82	435.34
485.00	421.30
485.18	327.68
485.35	447.04
485.53	376.83
485.71	472.79
485.89	383.85
486.07	449.38
486.25	449.38
486.43	440.02
486.61	355.76
486.78	451.72
486.96	433.00
487.14	372.15
487.32	397.89
487.50	381.51
487.68	362.78
487.85	428.32
488.03	428.32
488.21	404.91
488.39	402.57
488.57	437.68
488.75	430.66
488.92	472.79
489.10	447.04
489.28	421.30
489.46	400.23
489.64	440.02
489.81	484.49
489.99	409.59
490.17	390.87
490.35	423.64
490.53	461.09
490.70	404.91
490.88	407.25
491.06	362.78
491.24	425.98
491.41	416.62
491.59	416.62
491.77	390.87
491.95	430.66
492.13	425.98
492.30	353.42
492.48	372.15
492.66	390.87
492.84	400.23
493.01	381.51
493.19	435.34
493.37	477.47
493.54	397.89
493.72	472.79
493.90	397.89
494.08	456.40
494.25	376.83
494.43	402.57
494.61	416.62
494.79	461.09
494.96	390.87
495.14	379.17
495.32	414.27
495.49	388.53
495.67	484.49
495.85	477.47
496.02	449.38
496.20	505.56
496.38	433.00
496.55	409.59
496.73	491.51
496.91	367.46
497.09	444.70
497.26	425.98
497.44	407.25
497.62	512.58
497.79	379.17
497.97	414.27
498.14	465.77
498.32	428.32
498.50	411.93
498.67	337.04
498.85	428.32
499.03	447.04
499.20	435.34
499.38	418.96
499.56	376.83
499.73	454.06
499.91	437.68
500.08	475.13
500.26	433.00
500.44	428.32
500.61	451.72
500.79	362.78
500.97	365.12
501.14	477.47
501.32	433.00
501.49	416.62
501.67	428.32
501.84	353.42
502.02	365.12
502.20	458.74
502.37	325.33
502.55	477.47
502.72	435.34
502.90	428.32
503.07	423.64
503.25	449.38
503.43	411.93
503.60	411.93
503.78	435.34
503.95	449.38
504.13	433.00
504.30	437.68
504.48	397.89
504.65	414.27
504.83	440.02
505.01	458.74
505.18	479.81
505.36	360.44
505.53	425.98
505.71	409.59
505.88	416.62
506.06	418.96
506.23	414.27
506.41	411.93
506.58	404.91
506.76	409.59
506.93	425.98
507.11	362.78
507.28	355.76
507.46	423.64
507.63	400.23
507.81	423.64
507.98	463.43
508.16	402.57
508.33	393.21
508.50	374.49
508.68	430.66
508.85	372.15
509.03	425.98
509.20	411.93
509.38	425.98
509.55	512.58
509.73	498.53
509.90	395.55
510.08	388.53
510.25	418.96
510.42	395.55
510.60	397.89
510.77	395.55
510.95	458.74
511.12	447.04
511.30	407.25
511.47	409.59
511.64	411.93
511.82	440.02
511.99	393.21
512.17	367.46
512.34	369.80
512.51	376.83
512.69	411.93
512.86	416.62
513.04	360.44
513.21	421.30
513.38	367.46
513.56	418.96
513.73	456.40
513.90	400.23
514.08	486.83
514.25	444.70
514.43	449.38
514.60	461.09
514.77	351.08
514.95	379.17
515.12	341.72
515.29	456.40
515.47	435.34
515.64	433.00
515.81	402.57
515.99	421.30
516.16	379.17
516.33	440.02
516.51	409.59
516.68	435.34
516.85	400.23
517.03	393.21
517.20	442.36
517.37	379.17
517.54	386.19
517.72	444.70
517.89	372.15
518.06	367.46
518.24	437.68
518.41	472.79
518.58	409.59
518.75	386.19
518.93	503.22
519.10	428.32
519.27	409.59
519.45	425.98
519.62	381.51
519.79	430.66
519.96	348.74
520.14	425.98
520.31	435.34
520.48	402.57
520.65	425.98
520.83	472.79
521.00	374.49
521.17	374.49
521.34	402.57
521.52	454.06
521.69	397.89
521.86	430.66
522.03	407.25
522.20	512.58
522.38	447.04
522.55	484.49
522.72	407.25
522.89	379.17
523.07	430.66
523.24	440.02
523.41	407.25
523.58	400.23
523.75	393.21
523.92	402.57
524.10	484.49
524.27	437.68
524.44	390.87
524.61	486.83
524.78	414.27
524.96	425.98
525.13	400.23
525.30	484.49
525.47	374.49
525.64	411.93
525.81	414.27
525.98	437.68
526.16	397.89
526.33	372.15
526.50	402.57
526.67	447.04
526.84	360.44
527.01	402.57
527.18	411.93
527.36	358.10
527.53	437.68
527.70	447.04
527.87	362.78
528.04	470.45
528.21	425.98
528.38	475.13
528.55	451.72
528.72	477.47
528.89	449.38
529.07	465.77
529.24	409.59
529.41	435.34
529.58	486.83
529.75	479.81
529.92	482.15
530.09	397.89
530.26	407.25
530.43	369.80
530.60	376.83
530.77	374.49
530.94	372.15
531.11	444.70
531.28	423.64
531.46	397.89
531.63	461.09
531.80	418.96
531.97	379.17
532.14	416.62
532.31	442.36
532.48	411.93
532.65	367.46
532.82	468.11
532.99	468.11
533.16	440.02
533.33	402.57
533.50	409.59
533.67	351.08
533.84	388.53
534.01	395.55
534.18	369.80
534.35	428.32
534.52	414.27
534.69	402.57
534.86	390.87
535.03	421.30
535.20	493.85
535.37	400.23
535.54	411.93
535.71	442.36
535.88	433.00
536.05	430.66
536.22	440.02
536.38	454.06
536.55	372.15
536.72	425.98
536.89	372.15
537.06	395.55
537.23	463.43
537.40	395.55
537.57	409.59
537.74	447.04
537.91	379.17
538.08	416.62
538.25	496.19
538.42	397.89
538.59	433.00
538.75	404.91
538.92	421.30
539.09	395.55
539.26	484.49
539.43	468.11
539.60	409.59
539.77	344.06
539.94	430.66
540.11	409.59
540.28	442.36
540.44	500.87
540.61	395.55
540.78	425.98
540.95	376.83
541.12	442.36
541.29	337.04
541.46	451.72
541.62	421.30
541.79	365.12
541.96	409.59
542.13	454.06
542.30	433.00
542.47	440.02
542.63	390.87
542.80	428.32
542.97	454.06
543.14	362.78
543.31	416.62
543.48	402.57
543.64	376.83
543.81	407.25
543.98	404.91
544.15	416.62
544.32	407.25
544.48	381.51
544.65	388.53
544.82	379.17
544.99	444.70
545.16	376.83
545.32	440.02
545.49	458.74
545.66	456.40
545.83	437.68
546.00	411.93
546.16	411.93
546.33	372.15
546.50	472.79
546.67	484.49
546.83	395.55
547.00	381.51
547.17	472.79
547.34	386.19
547.50	472.79
547.67	458.74
547.84	470.45
548.00	477.47
548.17	430.66
548.34	440.02
548.51	442.36
548.67	400.23
548.84	430.66
549.01	404.91
549.18	449.38
549.34	421.30
549.51	475.13
549.68	447.04
549.84	388.53
550.01	402.57
550.18	484.49
550.34	491.51
550.51	454.06
550.68	496.19
550.84	479.81
551.01	472.79
551.18	454.06
551.34	388.53
551.51	430.66
551.68	330.02
551.84	477.47
552.01	388.53
552.18	458.74
552.34	411.93
552.51	407.25
552.68	369.80
552.84	411.93
553.01	400.23
553.18	407.25
553.34	397.89
553.51	395.55
553.67	451.72
553.84	416.62
554.01	400.23
554.17	465.77
554.34	388.53
554.51	355.76
554.67	458.74
554.84	386.19
555.00	444.70
555.17	451.72
555.33	479.81
555.50	461.09
555.67	449.38
555.83	388.53
556.00	451.72
556.16	526.62
556.33	322.99
556.50	402.57
556.66	423.64
556.83	402.57
556.99	409.59
557.16	374.49
557.32	437.68
557.49	470.45
557.65	447.04
557.82	444.70
557.98	381.51
558.15	440.02
558.32	442.36
558.48	407.25
558.65	400.23
558.81	461.09
558.98	414.27
559.14	386.19
559.31	456.40
559.47	369.80
559.64	376.83
559.80	332.36
559.97	388.53
560.13	442.36
560.30	397.89
560.46	362.78
560.63	383.85
560.79	397.89
560.96	365.12
561.12	311.29
561.29	400.23
561.45	482.15
561.61	437.68
561.78	524.28
561.94	425.98
562.11	379.17
562.27	402.57
562.44	425.98
562.60	402.57
562.77	454.06
562.93	510.24
563.10	442.36
563.26	386.19
563.42	493.85
563.59	365.12
563.75	428.32
563.92	416.62
564.08	414.27
564.24	425.98
564.41	475.13
564.57	372.15
564.74	447.04
564.90	337.04
565.07	472.79
565.23	566.41
565.39	435.34
565.56	484.49
565.72	479.81
565.88	479.81
566.05	447.04
566.21	444.70
566.38	390.87
566.54	393.21
566.70	449.38
566.87	433.00
567.03	449.38
567.19	475.13
567.36	411.93
567.52	402.57
567.68	301.93
567.85	411.93
568.01	362.78
568.17	409.59
568.34	409.59
568.50	510.24
568.66	390.87
568.83	535.98
568.99	414.27
569.15	507.90
569.32	414.27
569.48	468.11
569.64	463.43
569.81	428.32
569.97	421.30
570.13	430.66
570.30	388.53
570.46	416.62
570.62	379.17
570.78	418.96
570.95	425.98
571.11	418.96
571.27	454.06
571.43	409.59
571.60	416.62
571.76	444.70
571.92	418.96
572.09	433.00
572.25	416.62
572.41	376.83
572.57	379.17
572.74	425.98
572.90	433.00
573.06	465.77
573.22	425.98
573.38	489.17
573.55	409.59
573.71	397.89
573.87	447.04
574.03	414.27
574.20	402.57
574.36	463.43
574.52	374.49
574.68	456.40
574.84	397.89
575.01	409.59
575.17	447.04
575.33	468.11
575.49	458.74
575.65	402.57
575.82	430.66
575.98	418.96
576.14	416.62
576.30	411.93
576.46	437.68
576.62	468.11
576.79	425.98
576.95	425.98
577.11	444.70
577.27	430.66
577.43	498.53
577.59	526.62
577.75	458.74
577.92	411.93
578.08	451.72
578.24	400.23
578.40	393.21
578.56	521.94
578.72	388.53
578.88	475.13
579.04	514.92
579.21	468.11
579.37	433.00
579.53	425.98
579.69	437.68
579.85	477.47
580.01	390.87
580.17	365.12
580.33	444.70
580.49	409.59
580.65	388.53
580.82	440.02
580.98	416.62
581.14	404.91
581.30	390.87
581.46	397.89
581.62	449.38
581.78	404.91
581.94	397.89
582.10	407.25
582.26	360.44
582.42	411.93
582.58	433.00
582.74	393.21
582.90	440.02
583.06	442.36
583.22	379.17
583.38	402.57
583.54	386.19
583.70	484.49
583.86	374.49
584.02	383.85
584.18	461.09
584.34	402.57
584.50	393.21
584.66	383.85
584.82	372.15
584.98	416.62
585.14	414.27
585.30	393.21
585.46	479.81
585.62	355.76
585.78	414.27
585.94	454.06
586.10	421.30
586.26	447.04
586.42	437.68
586.58	362.78
586.74	449.38
586.90	367.46
587.06	430.66
587.22	463.43
587.38	395.55
587.54	484.49
587.70	393.21
587.86	409.59
588.02	348.74
588.18	390.87
588.34	421.30
588.49	404.91
588.65	353.42
588.81	444.70
588.97	358.10
589.13	454.06
589.29	369.80
589.45	428.32
589.61	388.53
589.77	414.27
589.93	386.19
590.08	404.91
590.24	397.89
590.40	400.23
590.56	449.38
590.72	423.64
590.88	402.57
591.04	423.64
591.20	395.55
591.35	409.59
591.51	369.80
591.67	334.70
591.83	390.87
591.99	423.64
592.15	362.78
592.31	430.66
592.46	456.40
592.62	390.87
592.78	418.96
592.94	355.76
593.10	428.32
593.26	325.33
593.41	367.46
593.57	444.70
593.73	425.98
593.89	414.27
594.05	440.02
594.20	425.98
594.36	425.98
594.52	421.30
594.68	458.74
594.84	428.32
594.99	397.89
595.15	416.62
595.31	447.04
595.47	397.89
595.62	409.59
595.78	383.85
595.94	341.72
596.10	421.30
596.25	414.27
596.41	402.57
596.57	344.06
596.73	472.79
596.88	379.17
597.04	468.11
597.20	416.62
597.36	395.55
597.51	374.49
597.67	351.08
597.83	400.23
597.99	421.30
598.14	395.55
598.30	458.74
598.46	315.97
598.61	411.93
598.77	397.89
598.93	418.96
599.09	463.43
599.24	407.25
599.40	428.32
599.56	395.55
599.71	437.68
599.87	425.98
600.03	390.87
600.18	404.91
600.34	411.93
600.50	465.77
600.65	390.87
600.81	470.45
600.97	470.45
601.12	447.04
601.28	407.25
601.44	397.89
601.59	428.32
601.75	362.78
601.91	353.42
602.06	418.96
602.22	538.32
602.37	447.04
602.53	451.72
602.69	383.85
602.84	454.06
603.00	433.00
603.16	430.66
603.31	411.93
603.47	484.49
603.62	320.65
603.78	435.34
603.94	414.27
604.09	395.55
604.25	404.91
604.40	444.70
604.56	372.15
604.71	447.04
604.87	418.96
605.03	365.12
605.18	437.68
605.34	454.06
605.49	430.66
605.65	409.59
605.80	409.59
605.96	402.57
606.12	421.30
606.27	458.74
606.43	393.21
606.58	430.66
606.74	341.72
606.89	449.38
607.05	458.74
607.20	428.32
607.36	404.91
607.51	379.17
607.67	397.89
607.82	409.59
607.98	404.91
608.13	393.21
608.29	442.36
608.44	414.27
608.60	376.83
608.75	402.57
608.91	414.27
609.06	491.51
609.22	447.04
609.37	334.70
609.53	428.32
609.68	465.77
609.84	430.66
609.99	423.64
610.15	423.64
610.30	393.21
610.46	489.17
610.61	360.44
610.76	411.93
610.92	475.13
611.07	397.89
611.23	402.57
611.38	397.89
611.54	414.27
611.69	428.32
611.84	409.59
612.00	409.59
612.15	353.42
612.31	407.25
612.46	374.49
612.62	395.55
612.77	416.62
612.92	425.98
613.08	421.30
613.23	454.06
613.39	390.87
613.54	372.15
613.69	435.34
613.85	425.98
614.00	456.40
614.15	388.53
614.31	351.08
614.46	407.25
614.62	479.81
614.77	423.64
614.92	355.76
615.08	414.27
615.23	379.17
615.38	404.91
615.54	470.45
615.69	397.89
615.84	418.96
616.00	421.30
616.15	367.46
616.30	442.36
616.46	400.23
616.61	472.79
616.76	404.91
616.92	423.64
617.07	383.85
617.22	440.02
617.37	325.33
617.53	355.76
617.68	456.40
617.83	362.78
617.99	449.38
618.14	372.15
618.29	437.68
618.45	421.30
618.60	407.25
618.75	423.64
618.90	400.23
619.06	440.02
619.21	447.04
619.36	435.34
619.51	449.38
619.67	395.55
619.82	395.55
619.97	440.02
620.12	386.19
620.28	421.30
620.43	381.51
620.58	451.72
620.73	393.21
620.89	369.80
621.04	418.96
621.19	463.43
621.34	395.55
621.49	428.32
621.65	454.06
621.80	379.17
621.95	400.23
622.10	390.87
622.25	414.27
622.41	402.57
622.56	423.64
622.71	388.53
622.86	526.62
623.01	451.72
623.16	440.02
623.32	435.34
623.47	458.74
623.62	383.85
623.77	454.06
623.92	475.13
624.07	397.89
624.23	402.57
624.38	390.87
624.53	400.23
624.68	503.22
624.83	458.74
624.98	433.00
625.13	418.96
625.29	379.17
625.44	463.43
625.59	381.51
625.74	470.45
625.89	465.77
626.04	428.32
626.19	444.70
626.34	388.53
626.49	444.70
626.65	397.89
626.80	376.83
626.95	463.43
627.10	374.49
627.25	393.21
627.40	337.04
627.55	383.85
627.70	376.83
627.85	414.27
628.00	456.40
628.15	404.91
628.30	407.25
628.45	407.25
628.60	372.15
628.76	444.70
628.91	397.89
629.06	433.00
629.21	386.19
629.36	461.09
629.51	400.23
629.66	397.89
629.81	418.96
629.96	379.17
630.11	379.17
630.26	400.23
630.41	404.91
630.56	379.17
630.71	358.10
630.86	334.70
631.01	458.74
631.16	461.09
631.31	416.62
631.46	393.21
631.61	418.96
631.76	367.46
631.91	444.70
632.06	360.44
632.21	425.98
632.36	456.40
632.51	369.80
632.66	400.23
632.81	428.32
632.96	423.64
633.10	428.32
633.25	425.98
633.40	433.00
633.55	425.98
633.70	341.72
633.85	421.30
634.00	491.51
634.15	383.85
634.30	475.13
634.45	344.06
634.60	388.53
634.75	421.30
634.90	372.15
635.05	425.98
635.19	458.74
635.34	440.02
635.49	465.77
635.64	388.53
635.79	397.89
635.94	411.93
636.09	444.70
636.24	430.66
636.39	379.17
636.53	435.34
636.68	433.00
636.83	416.62
636.98	402.57
637.13	348.74
637.28	409.59
637.43	414.27
637.57	461.09
637.72	402.57
637.87	454.06
638.02	397.89
638.17	388.53
638.32	444.70
638.46	381.51
638.61	521.94
638.76	362.78
638.91	388.53
639.06	507.90
639.20	425.98
639.35	369.80
639.50	479.81
639.65	402.57
639.80	374.49
639.94	468.11
640.09	400.23
640.24	393.21
640.39	418.96
640.54	418.96
640.68	379.17
640.83	435.34
640.98	334.70
641.13	393.21
641.27	407.25
641.42	395.55
641.57	407.25
641.72	388.53
641.86	402.57
642.01	395.55
642.16	444.70
642.31	440.02
642.45	433.00
642.60	418.96
642.75	404.91
642.90	383.85
643.04	379.17
643.19	409.59
643.34	355.76
643.48	447.04
643.63	388.53
643.78	430.66
643.93	491.51
644.07	512.58
644.22	311.29
644.37	416.62
644.51	430.66
644.66	475.13
644.81	360.44
644.95	447.04
645.10	397.89
645.25	395.55
645.39	425.98
645.54	393.21
645.69	500.87
645.83	397.89
645.98	496.19
646.13	400.23
646.27	512.58
646.42	451.72
646.57	423.64
646.71	353.42
646.86	461.09
647.00	374.49
647.15	454.06
647.30	397.89
647.44	414.27
647.59	386.19
647.74	372.15
647.88	383.85
648.03	421.30
648.17	442.36
648.32	407.25
648.47	407.25
648.61	346.40
648.76	355.76
648.90	463.43
649.05	491.51
649.20	397.89
649.34	379.17
649.49	421.30
649.63	404.91
649.78	397.89
649.92	379.17
650.07	360.44
650.21	402.57
650.36	433.00
650.51	435.34
650.65	444.70
650.80	381.51
650.94	402.57
651.09	437.68
651.23	428.32
651.38	449.38
651.52	388.53
651.67	411.93
651.81	395.55
651.96	447.04
652.10	440.02
652.25	360.44
652.39	503.22
652.54	379.17
652.68	365.12
652.83	369.80
652.97	442.36
653.12	447.04
653.26	388.53
653.41	451.72
653.55	437.68
653.70	414.27
653.84	376.83
653.99	388.53
654.13	409.59
654.27	334.70
654.42	339.38
654.56	451.72
654.71	425.98
654.85	407.25
655.00	402.57
655.14	465.77
655.29	423.64
655.43	425.98
655.57	388.53
655.72	440.02
655.86	421.30
656.01	463.43
656.15	472.79
656.30	421.30
656.44	414.27
656.58	358.10
656.73	456.40
656.87	402.57
657.01	404.91
657.16	442.36
657.30	425.98
657.45	472.79
657.59	374.49
657.73	449.38
657.88	416.62
658.02	451.72
658.16	435.34
658.31	381.51
658.45	425.98
658.60	360.44
658.74	388.53
658.88	430.66
659.03	407.25
659.17	435.34
659.31	346.40
659.46	456.40
659.60	386.19
659.74	383.85
659.89	404.91
660.03	395.55
660.17	465.77
660.32	414.27
660.46	449.38
660.60	416.62
660.74	496.19
660.89	475.13
661.03	421.30
661.17	374.49
661.32	353.42
661.46	433.00
661.60	372.15
661.74	404.91
661.89	346.40
662.03	458.74
662.17	449.38
662.31	449.38
662.46	414.27
662.60	400.23
662.74	393.21
662.88	433.00
663.03	404.91
663.17	379.17
663.31	447.04
663.45	461.09
663.60	395.55
663.74	414.27
663.88	379.17
664.02	372.15
664.17	407.25
664.31	475.13
664.45	423.64
664.59	409.59
664.73	400.23
664.88	423.64
665.02	416.62
665.16	430.66
665.30	461.09
665.44	414.27
665.59	383.85
665.73	479.81
665.87	418.96
666.01	435.34
666.15	421.30
666.29	381.51
666.44	484.49
666.58	451.72
666.72	353.42
666.86	430.66
667.00	482.15
667.14	423.64
667.28	449.38
667.43	449.38
667.57	390.87
667.71	451.72
667.85	355.76
667.99	486.83
668.13	416.62
668.27	411.93
668.41	458.74
668.56	442.36
668.70	404.91
668.84	456.40
668.98	437.68
669.12	315.97
669.26	479.81
669.40	461.09
669.54	339.38
669.68	393.21
669.82	444.70
669.96	449.38
670.10	428.32
670.25	414.27
670.39	493.85
670.53	393.21
670.67	447.04
670.81	320.65
670.95	402.57
671.09	358.10
671.23	411.93
671.37	470.45
671.51	381.51
671.65	456.40
671.79	393.21
671.93	463.43
672.07	493.85
672.21	374.49
672.35	416.62
672.49	468.11
672.63	472.79
672.77	454.06
672.91	374.49
673.05	390.87
673.19	388.53
673.33	390.87
673.47	458.74
673.61	374.49
673.75	463.43
673.89	400.23
674.03	440.02
674.17	360.44
674.31	418.96
674.45	404.91
674.59	402.57
674.73	461.09
674.87	428.32
675.01	425.98
675.15	437.68
675.29	374.49
675.43	433.00
675.56	411.93
675.70	423.64
675.84	423.64
675.98	416.62
676.12	388.53
676.26	393.21
676.40	463.43
676.54	465.77
676.68	379.17
676.82	397.89
676.96	409.59
677.10	425.98
677.23	500.87
677.37	374.49
677.51	421.30
677.65	428.32
677.79	365.12
677.93	421.30
678.07	421.30
678.21	393.21
678.34	454.06
678.48	416.62
678.62	367.46
678.76	376.83
678.90	390.87
679.04	390.87
679.18	402.57
679.31	435.34
679.45	421.30
679.59	456.40
679.73	416.62
679.87	395.55
680.00	428.32
680.14	472.79
680.28	409.59
680.42	367.46
680.56	435.34
680.70	397.89
680.83	365.12
680.97	400.23
681.11	435.34
681.25	451.72
681.39	416.62
681.52	435.34
681.66	376.83
681.80	449.38
681.94	411.93
682.07	456.40
682.21	346.40
682.35	367.46
682.49	425.98
682.62	411.93
682.76	374.49
682.90	344.06
683.04	463.43
683.17	418.96
683.31	404.91
683.45	461.09
683.59	454.06
683.72	388.53
683.86	390.87
684.00	461.09
684.13	379.17
684.27	454.06
684.41	395.55
684.55	472.79
684.68	416.62
684.82	337.04
684.96	449.38
685.09	358.10
685.23	442.36
685.37	468.11
685.50	400.23
685.64	433.00
685.78	369.80
685.91	463.43
686.05	409.59
686.19	430.66
686.32	433.00
686.46	444.70
686.60	411.93
686.73	517.26
686.87	470.45
687.01	451.72
687.14	409.59
687.28	444.70
687.42	411.93
687.55	388.53
687.69	451.72
687.82	425.98
687.96	461.09
688.10	519.60
688.23	395.55
688.37	402.57
688.50	437.68
688.64	440.02
688.78	425.98
688.91	463.43
689.05	433.00
689.18	360.44
689.32	475.13
689.46	374.49
689.59	379.17
689.73	409.59
689.86	414.27
690.00	367.46
690.13	383.85
690.27	423.64
690.41	447.04
690.54	344.06
690.68	418.96
690.81	421.30
690.95	414.27
691.08	379.17
691.22	351.08
691.35	379.17
691.49	421.30
691.62	454.06
691.76	360.44
691.89	458.74
692.03	407.25
692.16	393.21
692.30	465.77
692.43	397.89
692.57	334.70
692.70	353.42
692.84	390.87
692.97	433.00
693.11	341.72
693.24	454.06
693.38	374.49
693.51	372.15
693.65	468.11
693.78	346.40
693.92	411.93
694.05	447.04
694.19	383.85
694.32	433.00
694.45	348.74
694.59	440.02
694.72	451.72
694.86	437.68
694.99	402.57
695.13	477.47
695.26	449.38
695.39	400.23
695.53	454.06
695.66	451.72
695.80	465.77
695.93	390.87
696.07	369.80
696.20	411.93
696.33	402.57
696.47	409.59
696.60	411.93
696.73	376.83
696.87	386.19
697.00	428.32
697.14	449.38
697.27	393.21
697.40	449.38
697.54	372.15
697.67	402.57
697.80	390.87
697.94	425.98
698.07	379.17
698.21	423.64
698.34	374.49
698.47	411.93
698.61	355.76
698.74	437.68
698.87	526.62
699.01	428.32
699.14	442.36
699.27	423.64
699.40	547.69
699.54	400.23
699.67	444.70
699.80	444.70
699.94	400.23
700.07	374.49
700.20	416.62
700.34	423.64
700.47	365.12
700.60	411.93
700.73	374.49
700.87	386.19
701.00	334.70
701.13	393.21
701.26	397.89
701.40	379.17
701.53	346.40
701.66	388.53
701.79	346.40
701.93	372.15
702.06	381.51
702.19	372.15
702.32	416.62
702.46	414.27
702.59	440.02
702.72	421.30
702.85	383.85
702.99	390.87
703.12	447.04
703.25	411.93
703.38	379.17
703.51	433.00
703.65	416.62
703.78	397.89
703.91	407.25
704.04	442.36
704.17	414.27
704.31	395.55
704.44	402.57
704.57	402.57
704.70	390.87
704.83	489.17
704.96	383.85
705.10	404.91
705.23	404.91
>>>>>End Processed Spectral Data<<<<<
