SpectraSuite Data File
++++++++++++++++++++++++++++++++++++
Date: Fri Oct 25 12:10:45 EDT 2013
User: price-jones
Dark Spectrum Present: No
Reference Spectrum Present: No
Number of Sampled Component Spectra: 1
Spectrometers: USB2+H05261
Integration Time (usec): 100000 (USB2+H05261)
Spectra Averaged: 1 (USB2+H05261)
Boxcar Smoothing: 0 (USB2+H05261)
Correct for Electrical Dark: No (USB2+H05261)
Strobe/Lamp Enabled: No (USB2+H05261)
Correct for Detector Non-linearity: No (USB2+H05261)
Correct for Stray Light: No (USB2+H05261)
Number of Pixels in Processed Spectrum: 2048
>>>>>Begin Processed Spectral Data<<<<<
365.73	332.36
365.92	332.36
366.12	332.36
366.32	327.68
366.52	227.03
366.72	245.76
366.91	273.84
367.11	264.48
367.31	245.76
367.51	220.01
367.70	170.86
367.90	292.57
368.10	315.97
368.30	159.16
368.49	283.20
368.69	297.25
368.89	292.57
369.09	201.29
369.28	245.76
369.48	257.46
369.68	322.99
369.87	311.29
370.07	325.33
370.27	367.46
370.47	367.46
370.66	372.15
370.86	287.89
371.06	334.70
371.25	348.74
371.45	383.85
371.65	390.87
371.84	404.91
372.04	313.63
372.24	332.36
372.44	416.62
372.63	444.70
372.83	341.72
373.03	400.23
373.22	334.70
373.42	381.51
373.62	388.53
373.81	479.81
374.01	440.02
374.21	449.38
374.40	402.57
374.60	503.22
374.79	400.23
374.99	411.93
375.19	428.32
375.38	388.53
375.58	369.80
375.78	421.30
375.97	374.49
376.17	470.45
376.37	465.77
376.56	402.57
376.76	411.93
376.95	365.12
377.15	404.91
377.35	444.70
377.54	472.79
377.74	388.53
377.93	376.83
378.13	400.23
378.33	365.12
378.52	411.93
378.72	425.98
378.91	421.30
379.11	409.59
379.31	341.72
379.50	442.36
379.70	449.38
379.89	404.91
380.09	388.53
380.28	374.49
380.48	332.36
380.68	458.74
380.87	374.49
381.07	407.25
381.26	458.74
381.46	402.57
381.65	397.89
381.85	421.30
382.04	393.21
382.24	447.04
382.43	395.55
382.63	428.32
382.83	358.10
383.02	390.87
383.22	458.74
383.41	374.49
383.61	395.55
383.80	418.96
384.00	304.27
384.19	379.17
384.39	367.46
384.58	411.93
384.78	423.64
384.97	330.02
385.17	393.21
385.36	437.68
385.56	372.15
385.75	365.12
385.95	433.00
386.14	386.19
386.34	454.06
386.53	402.57
386.72	411.93
386.92	428.32
387.11	386.19
387.31	318.31
387.50	425.98
387.70	430.66
387.89	444.70
388.09	414.27
388.28	381.51
388.48	367.46
388.67	482.15
388.86	397.89
389.06	388.53
389.25	390.87
389.45	411.93
389.64	437.68
389.84	451.72
390.03	400.23
390.22	404.91
390.42	330.02
390.61	430.66
390.81	325.33
391.00	337.04
391.19	379.17
391.39	351.08
391.58	404.91
391.78	423.64
391.97	367.46
392.16	322.99
392.36	418.96
392.55	400.23
392.75	395.55
392.94	433.00
393.13	411.93
393.33	334.70
393.52	390.87
393.71	376.83
393.91	397.89
394.10	337.04
394.29	430.66
394.49	348.74
394.68	416.62
394.88	407.25
395.07	423.64
395.26	458.74
395.46	416.62
395.65	430.66
395.84	379.17
396.04	428.32
396.23	433.00
396.42	407.25
396.62	440.02
396.81	404.91
397.00	383.85
397.19	353.42
397.39	421.30
397.58	454.06
397.77	430.66
397.97	402.57
398.16	390.87
398.35	407.25
398.55	465.77
398.74	404.91
398.93	440.02
399.12	414.27
399.32	421.30
399.51	393.21
399.70	416.62
399.90	425.98
400.09	383.85
400.28	376.83
400.47	386.19
400.67	355.76
400.86	477.47
401.05	388.53
401.24	418.96
401.44	374.49
401.63	397.89
401.82	388.53
402.01	346.40
402.21	493.85
402.40	461.09
402.59	339.38
402.78	330.02
402.97	341.72
403.17	376.83
403.36	447.04
403.55	372.15
403.74	472.79
403.93	423.64
404.13	353.42
404.32	372.15
404.51	379.17
404.70	430.66
404.89	388.53
405.09	425.98
405.28	444.70
405.47	372.15
405.66	416.62
405.85	465.77
406.05	383.85
406.24	416.62
406.43	428.32
406.62	442.36
406.81	442.36
407.00	379.17
407.20	388.53
407.39	393.21
407.58	435.34
407.77	339.38
407.96	402.57
408.15	337.04
408.34	418.96
408.54	402.57
408.73	451.72
408.92	409.59
409.11	367.46
409.30	322.99
409.49	386.19
409.68	383.85
409.87	440.02
410.07	315.97
410.26	379.17
410.45	341.72
410.64	430.66
410.83	358.10
411.02	421.30
411.21	482.15
411.40	433.00
411.59	421.30
411.78	313.63
411.98	421.30
412.17	388.53
412.36	437.68
412.55	348.74
412.74	360.44
412.93	472.79
413.12	390.87
413.31	440.02
413.50	404.91
413.69	418.96
413.88	386.19
414.07	444.70
414.26	425.98
414.45	388.53
414.64	435.34
414.83	486.83
415.02	379.17
415.22	388.53
415.41	367.46
415.60	332.36
415.79	425.98
415.98	454.06
416.17	416.62
416.36	369.80
416.55	430.66
416.74	409.59
416.93	435.34
417.12	404.91
417.31	395.55
417.50	416.62
417.69	358.10
417.88	400.23
418.07	353.42
418.26	346.40
418.45	418.96
418.64	449.38
418.83	437.68
419.02	416.62
419.21	414.27
419.39	383.85
419.58	477.47
419.77	433.00
419.96	383.85
420.15	367.46
420.34	416.62
420.53	369.80
420.72	456.40
420.91	411.93
421.10	421.30
421.29	386.19
421.48	461.09
421.67	430.66
421.86	362.78
422.05	407.25
422.24	395.55
422.43	421.30
422.61	393.21
422.80	369.80
422.99	468.11
423.18	423.64
423.37	395.55
423.56	369.80
423.75	461.09
423.94	339.38
424.13	355.76
424.32	409.59
424.50	451.72
424.69	428.32
424.88	383.85
425.07	379.17
425.26	409.59
425.45	435.34
425.64	409.59
425.83	393.21
426.01	442.36
426.20	447.04
426.39	395.55
426.58	376.83
426.77	425.98
426.96	425.98
427.15	421.30
427.33	414.27
427.52	404.91
427.71	388.53
427.90	421.30
428.09	447.04
428.28	386.19
428.46	388.53
428.65	395.55
428.84	407.25
429.03	411.93
429.22	404.91
429.40	437.68
429.59	379.17
429.78	472.79
429.97	449.38
430.16	395.55
430.34	318.31
430.53	400.23
430.72	376.83
430.91	447.04
431.10	341.72
431.28	374.49
431.47	512.58
431.66	381.51
431.85	421.30
432.03	383.85
432.22	472.79
432.41	414.27
432.60	379.17
432.79	440.02
432.97	423.64
433.16	458.74
433.35	444.70
433.54	367.46
433.72	442.36
433.91	423.64
434.10	440.02
434.28	362.78
434.47	388.53
434.66	374.49
434.85	374.49
435.03	440.02
435.22	393.21
435.41	449.38
435.59	454.06
435.78	456.40
435.97	421.30
436.16	433.00
436.34	482.15
436.53	468.11
436.72	397.89
436.90	447.04
437.09	407.25
437.28	390.87
437.46	369.80
437.65	444.70
437.84	458.74
438.02	372.15
438.21	400.23
438.40	395.55
438.58	397.89
438.77	414.27
438.96	430.66
439.14	278.52
439.33	409.59
439.52	437.68
439.70	383.85
439.89	475.13
440.08	400.23
440.26	383.85
440.45	425.98
440.63	397.89
440.82	353.42
441.01	411.93
441.19	355.76
441.38	369.80
441.57	390.87
441.75	381.51
441.94	402.57
442.12	402.57
442.31	440.02
442.50	388.53
442.68	367.46
442.87	442.36
443.05	456.40
443.24	402.57
443.43	393.21
443.61	433.00
443.80	360.44
443.98	388.53
444.17	435.34
444.35	400.23
444.54	456.40
444.73	440.02
444.91	470.45
445.10	428.32
445.28	414.27
445.47	416.62
445.65	339.38
445.84	369.80
446.02	374.49
446.21	362.78
446.39	489.17
446.58	456.40
446.77	416.62
446.95	404.91
447.14	409.59
447.32	491.51
447.51	407.25
447.69	433.00
447.88	402.57
448.06	402.57
448.25	468.11
448.43	390.87
448.62	381.51
448.80	393.21
448.99	451.72
449.17	437.68
449.36	442.36
449.54	454.06
449.73	344.06
449.91	414.27
450.10	416.62
450.28	416.62
450.46	526.62
450.65	397.89
450.83	435.34
451.02	409.59
451.20	369.80
451.39	416.62
451.57	411.93
451.76	374.49
451.94	402.57
452.13	435.34
452.31	484.49
452.49	379.17
452.68	409.59
452.86	435.34
453.05	468.11
453.23	388.53
453.42	388.53
453.60	470.45
453.78	507.90
453.97	418.96
454.15	428.32
454.34	404.91
454.52	397.89
454.70	369.80
454.89	472.79
455.07	346.40
455.26	421.30
455.44	486.83
455.62	447.04
455.81	491.51
455.99	388.53
456.17	409.59
456.36	423.64
456.54	383.85
456.73	407.25
456.91	421.30
457.09	374.49
457.28	353.42
457.46	397.89
457.64	423.64
457.83	423.64
458.01	386.19
458.19	388.53
458.38	390.87
458.56	449.38
458.74	388.53
458.93	390.87
459.11	358.10
459.29	468.11
459.48	379.17
459.66	451.72
459.84	430.66
460.03	421.30
460.21	526.62
460.39	489.17
460.57	435.34
460.76	353.42
460.94	402.57
461.12	477.47
461.31	458.74
461.49	423.64
461.67	430.66
461.85	372.15
462.04	430.66
462.22	786.42
462.40	390.87
462.59	437.68
462.77	369.80
462.95	458.74
463.13	390.87
463.32	414.27
463.50	435.34
463.68	458.74
463.86	374.49
464.05	418.96
464.23	449.38
464.41	407.25
464.59	297.25
464.78	390.87
464.96	463.43
465.14	444.70
465.32	437.68
465.50	372.15
465.69	430.66
465.87	416.62
466.05	437.68
466.23	425.98
466.41	383.85
466.60	402.57
466.78	353.42
466.96	449.38
467.14	379.17
467.32	442.36
467.51	358.10
467.69	409.59
467.87	393.21
468.05	397.89
468.23	477.47
468.41	526.62
468.60	372.15
468.78	472.79
468.96	475.13
469.14	456.40
469.32	372.15
469.50	440.02
469.69	435.34
469.87	386.19
470.05	318.31
470.23	416.62
470.41	395.55
470.59	367.46
470.77	372.15
470.95	440.02
471.14	463.43
471.32	355.76
471.50	372.15
471.68	440.02
471.86	484.49
472.04	388.53
472.22	360.44
472.40	400.23
472.58	351.08
472.77	418.96
472.95	402.57
473.13	519.60
473.31	454.06
473.49	430.66
473.67	337.04
473.85	362.78
474.03	376.83
474.21	414.27
474.39	353.42
474.57	479.81
474.75	409.59
474.93	365.12
475.12	397.89
475.30	337.04
475.48	477.47
475.66	334.70
475.84	379.17
476.02	444.70
476.20	358.10
476.38	447.04
476.56	430.66
476.74	372.15
476.92	383.85
477.10	437.68
477.28	461.09
477.46	423.64
477.64	447.04
477.82	386.19
478.00	386.19
478.18	416.62
478.36	348.74
478.54	402.57
478.72	428.32
478.90	395.55
479.08	358.10
479.26	461.09
479.44	421.30
479.62	411.93
479.80	379.17
479.98	409.59
480.16	330.02
480.34	442.36
480.52	353.42
480.70	435.34
480.88	433.00
481.06	423.64
481.24	423.64
481.41	358.10
481.59	428.32
481.77	449.38
481.95	433.00
482.13	390.87
482.31	407.25
482.49	332.36
482.67	332.36
482.85	383.85
483.03	505.56
483.21	402.57
483.39	339.38
483.57	442.36
483.74	383.85
483.92	395.55
484.10	388.53
484.28	407.25
484.46	395.55
484.64	379.17
484.82	409.59
485.00	411.93
485.18	416.62
485.35	407.25
485.53	360.44
485.71	390.87
485.89	437.68
486.07	411.93
486.25	449.38
486.43	428.32
486.61	440.02
486.78	379.17
486.96	322.99
487.14	435.34
487.32	383.85
487.50	348.74
487.68	414.27
487.85	414.27
488.03	381.51
488.21	416.62
488.39	442.36
488.57	404.91
488.75	435.34
488.92	500.87
489.10	430.66
489.28	482.15
489.46	402.57
489.64	425.98
489.81	376.83
489.99	344.06
490.17	463.43
490.35	461.09
490.53	376.83
490.70	402.57
490.88	458.74
491.06	358.10
491.24	442.36
491.41	454.06
491.59	425.98
491.77	416.62
491.95	355.76
492.13	376.83
492.30	416.62
492.48	418.96
492.66	397.89
492.84	360.44
493.01	435.34
493.19	341.72
493.37	416.62
493.54	479.81
493.72	397.89
493.90	374.49
494.08	386.19
494.25	425.98
494.43	365.12
494.61	447.04
494.79	395.55
494.96	437.68
495.14	468.11
495.32	418.96
495.49	404.91
495.67	395.55
495.85	395.55
496.02	358.10
496.20	451.72
496.38	365.12
496.55	325.33
496.73	397.89
496.91	393.21
497.09	386.19
497.26	447.04
497.44	376.83
497.62	437.68
497.79	395.55
497.97	458.74
498.14	411.93
498.32	397.89
498.50	491.51
498.67	379.17
498.85	409.59
499.03	425.98
499.20	437.68
499.38	390.87
499.56	423.64
499.73	423.64
499.91	430.66
500.08	308.95
500.26	376.83
500.44	421.30
500.61	337.04
500.79	423.64
500.97	440.02
501.14	409.59
501.32	444.70
501.49	440.02
501.67	383.85
501.84	411.93
502.02	421.30
502.20	447.04
502.37	461.09
502.55	374.49
502.72	376.83
502.90	433.00
503.07	454.06
503.25	454.06
503.43	423.64
503.60	425.98
503.78	409.59
503.95	472.79
504.13	369.80
504.30	369.80
504.48	418.96
504.65	423.64
504.83	376.83
505.01	465.77
505.18	484.49
505.36	458.74
505.53	444.70
505.71	425.98
505.88	463.43
506.06	360.44
506.23	416.62
506.41	358.10
506.58	461.09
506.76	407.25
506.93	411.93
507.11	416.62
507.28	442.36
507.46	381.51
507.63	376.83
507.81	388.53
507.98	402.57
508.16	411.93
508.33	400.23
508.50	416.62
508.68	313.63
508.85	407.25
509.03	407.25
509.20	418.96
509.38	423.64
509.55	362.78
509.73	414.27
509.90	475.13
510.08	379.17
510.25	409.59
510.42	421.30
510.60	430.66
510.77	479.81
510.95	479.81
511.12	461.09
511.30	365.12
511.47	421.30
511.64	447.04
511.82	379.17
511.99	346.40
512.17	433.00
512.34	425.98
512.51	411.93
512.69	454.06
512.86	475.13
513.04	407.25
513.21	402.57
513.38	365.12
513.56	442.36
513.73	416.62
513.90	341.72
514.08	409.59
514.25	430.66
514.43	404.91
514.60	411.93
514.77	332.36
514.95	365.12
515.12	418.96
515.29	440.02
515.47	433.00
515.64	395.55
515.81	418.96
515.99	379.17
516.16	454.06
516.33	411.93
516.51	421.30
516.68	477.47
516.85	428.32
517.03	388.53
517.20	435.34
517.37	386.19
517.54	479.81
517.72	440.02
517.89	411.93
518.06	407.25
518.24	470.45
518.41	400.23
518.58	397.89
518.75	337.04
518.93	423.64
519.10	449.38
519.27	416.62
519.45	386.19
519.62	376.83
519.79	395.55
519.96	358.10
520.14	440.02
520.31	465.77
520.48	372.15
520.65	362.78
520.83	461.09
521.00	444.70
521.17	447.04
521.34	411.93
521.52	395.55
521.69	390.87
521.86	472.79
522.03	505.56
522.20	447.04
522.38	376.83
522.55	437.68
522.72	461.09
522.89	435.34
523.07	449.38
523.24	353.42
523.41	470.45
523.58	386.19
523.75	360.44
523.92	482.15
524.10	376.83
524.27	437.68
524.44	376.83
524.61	414.27
524.78	395.55
524.96	362.78
525.13	468.11
525.30	472.79
525.47	430.66
525.64	416.62
525.81	493.85
525.98	437.68
526.16	369.80
526.33	376.83
526.50	414.27
526.67	325.33
526.84	374.49
527.01	433.00
527.18	404.91
527.36	472.79
527.53	365.12
527.70	367.46
527.87	451.72
528.04	430.66
528.21	381.51
528.38	435.34
528.55	390.87
528.72	414.27
528.89	444.70
529.07	369.80
529.24	369.80
529.41	421.30
529.58	461.09
529.75	379.17
529.92	404.91
530.09	468.11
530.26	489.17
530.43	386.19
530.60	390.87
530.77	397.89
530.94	468.11
531.11	423.64
531.28	362.78
531.46	456.40
531.63	451.72
531.80	409.59
531.97	444.70
532.14	414.27
532.31	409.59
532.48	416.62
532.65	416.62
532.82	444.70
532.99	428.32
533.16	440.02
533.33	433.00
533.50	433.00
533.67	461.09
533.84	425.98
534.01	388.53
534.18	383.85
534.35	409.59
534.52	411.93
534.69	376.83
534.86	435.34
535.03	430.66
535.20	390.87
535.37	472.79
535.54	379.17
535.71	449.38
535.88	470.45
536.05	433.00
536.22	472.79
536.38	372.15
536.55	383.85
536.72	383.85
536.89	390.87
537.06	402.57
537.23	400.23
537.40	402.57
537.57	425.98
537.74	472.79
537.91	428.32
538.08	409.59
538.25	468.11
538.42	362.78
538.59	397.89
538.75	447.04
538.92	414.27
539.09	430.66
539.26	428.32
539.43	423.64
539.60	379.17
539.77	440.02
539.94	447.04
540.11	414.27
540.28	458.74
540.44	463.43
540.61	355.76
540.78	409.59
540.95	360.44
541.12	444.70
541.29	435.34
541.46	451.72
541.62	393.21
541.79	353.42
541.96	409.59
542.13	362.78
542.30	376.83
542.47	428.32
542.63	400.23
542.80	449.38
542.97	449.38
543.14	400.23
543.31	421.30
543.48	404.91
543.64	442.36
543.81	386.19
543.98	365.12
544.15	386.19
544.32	437.68
544.48	454.06
544.65	330.02
544.82	447.04
544.99	402.57
545.16	388.53
545.32	386.19
545.49	379.17
545.66	337.04
545.83	433.00
546.00	451.72
546.16	397.89
546.33	404.91
546.50	444.70
546.67	477.47
546.83	397.89
547.00	423.64
547.17	423.64
547.34	402.57
547.50	390.87
547.67	447.04
547.84	393.21
548.00	397.89
548.17	430.66
548.34	458.74
548.51	388.53
548.67	402.57
548.84	404.91
549.01	444.70
549.18	451.72
549.34	402.57
549.51	395.55
549.68	430.66
549.84	414.27
550.01	451.72
550.18	496.19
550.34	486.83
550.51	447.04
550.68	355.76
550.84	411.93
551.01	379.17
551.18	367.46
551.34	397.89
551.51	440.02
551.68	381.51
551.84	456.40
552.01	402.57
552.18	348.74
552.34	416.62
552.51	442.36
552.68	411.93
552.84	461.09
553.01	372.15
553.18	433.00
553.34	400.23
553.51	451.72
553.67	404.91
553.84	428.32
554.01	416.62
554.17	416.62
554.34	404.91
554.51	383.85
554.67	397.89
554.84	428.32
555.00	416.62
555.17	379.17
555.33	423.64
555.50	376.83
555.67	341.72
555.83	395.55
556.00	372.15
556.16	552.37
556.33	437.68
556.50	397.89
556.66	423.64
556.83	475.13
556.99	416.62
557.16	393.21
557.32	430.66
557.49	442.36
557.65	414.27
557.82	393.21
557.98	484.49
558.15	383.85
558.32	339.38
558.48	304.27
558.65	425.98
558.81	458.74
558.98	461.09
559.14	477.47
559.31	428.32
559.47	437.68
559.64	395.55
559.80	411.93
559.97	376.83
560.13	425.98
560.30	393.21
560.46	458.74
560.63	395.55
560.79	411.93
560.96	437.68
561.12	454.06
561.29	454.06
561.45	437.68
561.61	416.62
561.78	411.93
561.94	369.80
562.11	421.30
562.27	428.32
562.44	414.27
562.60	411.93
562.77	428.32
562.93	484.49
563.10	400.23
563.26	421.30
563.42	444.70
563.59	421.30
563.75	433.00
563.92	425.98
564.08	430.66
564.24	437.68
564.41	484.49
564.57	404.91
564.74	322.99
564.90	388.53
565.07	400.23
565.23	421.30
565.39	414.27
565.56	421.30
565.72	327.68
565.88	458.74
566.05	400.23
566.21	442.36
566.38	465.77
566.54	552.37
566.70	479.81
566.87	425.98
567.03	421.30
567.19	388.53
567.36	461.09
567.52	402.57
567.68	400.23
567.85	451.72
568.01	407.25
568.17	400.23
568.34	425.98
568.50	404.91
568.66	383.85
568.83	477.47
568.99	411.93
569.15	451.72
569.32	435.34
569.48	388.53
569.64	475.13
569.81	472.79
569.97	397.89
570.13	425.98
570.30	416.62
570.46	383.85
570.62	402.57
570.78	425.98
570.95	369.80
571.11	461.09
571.27	437.68
571.43	362.78
571.60	400.23
571.76	397.89
571.92	369.80
572.09	409.59
572.25	416.62
572.41	379.17
572.57	400.23
572.74	411.93
572.90	418.96
573.06	404.91
573.22	383.85
573.38	486.83
573.55	486.83
573.71	428.32
573.87	411.93
574.03	383.85
574.20	440.02
574.36	449.38
574.52	428.32
574.68	449.38
574.84	400.23
575.01	421.30
575.17	430.66
575.33	423.64
575.49	484.49
575.65	414.27
575.82	423.64
575.98	430.66
576.14	430.66
576.30	458.74
576.46	437.68
576.62	470.45
576.79	465.77
576.95	472.79
577.11	369.80
577.27	407.25
577.43	425.98
577.59	498.53
577.75	510.24
577.92	393.21
578.08	372.15
578.24	330.02
578.40	397.89
578.56	461.09
578.72	447.04
578.88	449.38
579.04	383.85
579.21	477.47
579.37	360.44
579.53	351.08
579.69	388.53
579.85	418.96
580.01	418.96
580.17	442.36
580.33	430.66
580.49	423.64
580.65	444.70
580.82	407.25
580.98	519.60
581.14	484.49
581.30	423.64
581.46	411.93
581.62	449.38
581.78	409.59
581.94	388.53
582.10	418.96
582.26	449.38
582.42	411.93
582.58	477.47
582.74	409.59
582.90	411.93
583.06	435.34
583.22	390.87
583.38	390.87
583.54	376.83
583.70	425.98
583.86	416.62
584.02	465.77
584.18	388.53
584.34	418.96
584.50	372.15
584.66	433.00
584.82	463.43
584.98	430.66
585.14	458.74
585.30	486.83
585.46	421.30
585.62	470.45
585.78	383.85
585.94	407.25
586.10	409.59
586.26	458.74
586.42	404.91
586.58	388.53
586.74	451.72
586.90	442.36
587.06	411.93
587.22	400.23
587.38	444.70
587.54	407.25
587.70	454.06
587.86	468.11
588.02	416.62
588.18	479.81
588.34	365.12
588.49	421.30
588.65	355.76
588.81	418.96
588.97	383.85
589.13	463.43
589.29	360.44
589.45	395.55
589.61	496.19
589.77	442.36
589.93	433.00
590.08	386.19
590.24	451.72
590.40	353.42
590.56	458.74
590.72	435.34
590.88	428.32
591.04	425.98
591.20	449.38
591.35	416.62
591.51	362.78
591.67	475.13
591.83	461.09
591.99	409.59
592.15	514.92
592.31	444.70
592.46	353.42
592.62	418.96
592.78	421.30
592.94	442.36
593.10	397.89
593.26	374.49
593.41	421.30
593.57	407.25
593.73	468.11
593.89	404.91
594.05	423.64
594.20	411.93
594.36	418.96
594.52	409.59
594.68	327.68
594.84	383.85
594.99	353.42
595.15	372.15
595.31	428.32
595.47	433.00
595.62	383.85
595.78	379.17
595.94	379.17
596.10	442.36
596.25	402.57
596.41	351.08
596.57	418.96
596.73	397.89
596.88	484.49
597.04	407.25
597.20	362.78
597.36	411.93
597.51	433.00
597.67	461.09
597.83	449.38
597.99	355.76
598.14	416.62
598.30	386.19
598.46	367.46
598.61	416.62
598.77	376.83
598.93	397.89
599.09	388.53
599.24	414.27
599.40	393.21
599.56	491.51
599.71	362.78
599.87	372.15
600.03	407.25
600.18	456.40
600.34	360.44
600.50	390.87
600.65	435.34
600.81	435.34
600.97	428.32
601.12	468.11
601.28	381.51
601.44	449.38
601.59	344.06
601.75	433.00
601.91	379.17
602.06	451.72
602.22	425.98
602.37	430.66
602.53	470.45
602.69	423.64
602.84	397.89
603.00	334.70
603.16	365.12
603.31	463.43
603.47	440.02
603.62	430.66
603.78	421.30
603.94	437.68
604.09	400.23
604.25	416.62
604.40	423.64
604.56	381.51
604.71	444.70
604.87	383.85
605.03	376.83
605.18	440.02
605.34	390.87
605.49	411.93
605.65	440.02
605.80	402.57
605.96	407.25
606.12	531.30
606.27	346.40
606.43	407.25
606.58	372.15
606.74	444.70
606.89	308.95
607.05	433.00
607.20	447.04
607.36	514.92
607.51	458.74
607.67	435.34
607.82	397.89
607.98	430.66
608.13	482.15
608.29	418.96
608.44	496.19
608.60	320.65
608.75	451.72
608.91	449.38
609.06	468.11
609.22	477.47
609.37	440.02
609.53	388.53
609.68	369.80
609.84	339.38
609.99	440.02
610.15	442.36
610.30	461.09
610.46	404.91
610.61	447.04
610.76	463.43
610.92	425.98
611.07	461.09
611.23	482.15
611.38	421.30
611.54	386.19
611.69	395.55
611.84	411.93
612.00	430.66
612.15	421.30
612.31	381.51
612.46	348.74
612.62	355.76
612.77	390.87
612.92	388.53
613.08	449.38
613.23	365.12
613.39	456.40
613.54	435.34
613.69	400.23
613.85	395.55
614.00	360.44
614.15	423.64
614.31	388.53
614.46	442.36
614.62	421.30
614.77	463.43
614.92	379.17
615.08	435.34
615.23	472.79
615.38	425.98
615.54	395.55
615.69	397.89
615.84	365.12
616.00	428.32
616.15	442.36
616.30	402.57
616.46	379.17
616.61	437.68
616.76	386.19
616.92	447.04
617.07	362.78
617.22	416.62
617.37	374.49
617.53	409.59
617.68	397.89
617.83	379.17
617.99	458.74
618.14	505.56
618.29	353.42
618.45	381.51
618.60	383.85
618.75	372.15
618.90	404.91
619.06	433.00
619.21	407.25
619.36	390.87
619.51	299.59
619.67	395.55
619.82	454.06
619.97	372.15
620.12	433.00
620.28	379.17
620.43	451.72
620.58	411.93
620.73	421.30
620.89	472.79
621.04	444.70
621.19	437.68
621.34	388.53
621.49	435.34
621.65	383.85
621.80	306.61
621.95	440.02
622.10	402.57
622.25	416.62
622.41	444.70
622.56	435.34
622.71	390.87
622.86	433.00
623.01	503.22
623.16	423.64
623.32	355.76
623.47	416.62
623.62	411.93
623.77	393.21
623.92	400.23
624.07	475.13
624.23	353.42
624.38	386.19
624.53	393.21
624.68	477.47
624.83	451.72
624.98	344.06
625.13	430.66
625.29	344.06
625.44	421.30
625.59	379.17
625.74	458.74
625.89	374.49
626.04	369.80
626.19	456.40
626.34	468.11
626.49	393.21
626.65	365.12
626.80	395.55
626.95	411.93
627.10	430.66
627.25	442.36
627.40	409.59
627.55	477.47
627.70	376.83
627.85	528.96
628.00	388.53
628.15	435.34
628.30	454.06
628.45	484.49
628.60	425.98
628.76	386.19
628.91	372.15
629.06	353.42
629.21	379.17
629.36	423.64
629.51	369.80
629.66	393.21
629.81	393.21
629.96	433.00
630.11	416.62
630.26	416.62
630.41	381.51
630.56	416.62
630.71	390.87
630.86	395.55
631.01	360.44
631.16	414.27
631.31	444.70
631.46	416.62
631.61	353.42
631.76	393.21
631.91	437.68
632.06	416.62
632.21	484.49
632.36	395.55
632.51	339.38
632.66	369.80
632.81	383.85
632.96	454.06
633.10	463.43
633.25	454.06
633.40	414.27
633.55	477.47
633.70	433.00
633.85	423.64
634.00	332.36
634.15	386.19
634.30	458.74
634.45	463.43
634.60	437.68
634.75	397.89
634.90	461.09
635.05	397.89
635.19	402.57
635.34	437.68
635.49	456.40
635.64	461.09
635.79	390.87
635.94	376.83
636.09	442.36
636.24	498.53
636.39	383.85
636.53	423.64
636.68	425.98
636.83	425.98
636.98	430.66
637.13	409.59
637.28	423.64
637.43	444.70
637.57	414.27
637.72	379.17
637.87	388.53
638.02	411.93
638.17	411.93
638.32	456.40
638.46	411.93
638.61	458.74
638.76	393.21
638.91	425.98
639.06	458.74
639.20	402.57
639.35	442.36
639.50	421.30
639.65	411.93
639.80	428.32
639.94	423.64
640.09	437.68
640.24	409.59
640.39	479.81
640.54	456.40
640.68	407.25
640.83	430.66
640.98	397.89
641.13	374.49
641.27	376.83
641.42	437.68
641.57	393.21
641.72	348.74
641.86	430.66
642.01	435.34
642.16	454.06
642.31	425.98
642.45	393.21
642.60	430.66
642.75	360.44
642.90	421.30
643.04	477.47
643.19	430.66
643.34	433.00
643.48	395.55
643.63	367.46
643.78	479.81
643.93	444.70
644.07	440.02
644.22	386.19
644.37	409.59
644.51	407.25
644.66	388.53
644.81	423.64
644.95	463.43
645.10	379.17
645.25	353.42
645.39	397.89
645.54	411.93
645.69	409.59
645.83	360.44
645.98	421.30
646.13	358.10
646.27	454.06
646.42	383.85
646.57	433.00
646.71	421.30
646.86	428.32
647.00	475.13
647.15	437.68
647.30	358.10
647.44	425.98
647.59	454.06
647.74	411.93
647.88	411.93
648.03	374.49
648.17	503.22
648.32	407.25
648.47	425.98
648.61	409.59
648.76	395.55
648.90	395.55
649.05	395.55
649.20	414.27
649.34	423.64
649.49	421.30
649.63	393.21
649.78	386.19
649.92	430.66
650.07	444.70
650.21	421.30
650.36	416.62
650.51	379.17
650.65	442.36
650.80	428.32
650.94	440.02
651.09	425.98
651.23	365.12
651.38	397.89
651.52	428.32
651.67	346.40
651.81	404.91
651.96	444.70
652.10	482.15
652.25	421.30
652.39	454.06
652.54	430.66
652.68	390.87
652.83	409.59
652.97	440.02
653.12	360.44
653.26	433.00
653.41	418.96
653.55	461.09
653.70	409.59
653.84	425.98
653.99	456.40
654.13	456.40
654.27	358.10
654.42	388.53
654.56	395.55
654.71	433.00
654.85	332.36
655.00	407.25
655.14	456.40
655.29	472.79
655.43	393.21
655.57	430.66
655.72	437.68
655.86	400.23
656.01	496.19
656.15	454.06
656.30	433.00
656.44	404.91
656.58	358.10
656.73	416.62
656.87	402.57
657.01	381.51
657.16	451.72
657.30	421.30
657.45	477.47
657.59	447.04
657.73	353.42
657.88	388.53
658.02	510.24
658.16	404.91
658.31	341.72
658.45	461.09
658.60	360.44
658.74	360.44
658.88	320.65
659.03	353.42
659.17	395.55
659.31	341.72
659.46	388.53
659.60	374.49
659.74	510.24
659.89	418.96
660.03	451.72
660.17	414.27
660.32	358.10
660.46	425.98
660.60	407.25
660.74	468.11
660.89	465.77
661.03	362.78
661.17	369.80
661.32	425.98
661.46	362.78
661.60	414.27
661.74	440.02
661.89	470.45
662.03	407.25
662.17	355.76
662.31	416.62
662.46	444.70
662.60	433.00
662.74	393.21
662.88	404.91
663.03	407.25
663.17	397.89
663.31	454.06
663.45	362.78
663.60	458.74
663.74	416.62
663.88	386.19
664.02	393.21
664.17	369.80
664.31	353.42
664.45	400.23
664.59	390.87
664.73	425.98
664.88	423.64
665.02	390.87
665.16	416.62
665.30	390.87
665.44	430.66
665.59	500.87
665.73	379.17
665.87	425.98
666.01	390.87
666.15	428.32
666.29	341.72
666.44	468.11
666.58	407.25
666.72	383.85
666.86	388.53
667.00	404.91
667.14	390.87
667.28	449.38
667.43	423.64
667.57	404.91
667.71	437.68
667.85	397.89
667.99	423.64
668.13	472.79
668.27	484.49
668.41	383.85
668.56	468.11
668.70	437.68
668.84	376.83
668.98	351.08
669.12	374.49
669.26	425.98
669.40	444.70
669.54	383.85
669.68	383.85
669.82	327.68
669.96	337.04
670.10	425.98
670.25	433.00
670.39	472.79
670.53	433.00
670.67	428.32
670.81	353.42
670.95	423.64
671.09	379.17
671.23	533.64
671.37	376.83
671.51	390.87
671.65	372.15
671.79	411.93
671.93	454.06
672.07	435.34
672.21	461.09
672.35	402.57
672.49	351.08
672.63	407.25
672.77	458.74
672.91	355.76
673.05	390.87
673.19	397.89
673.33	358.10
673.47	414.27
673.61	374.49
673.75	435.34
673.89	428.32
674.03	489.17
674.17	416.62
674.31	425.98
674.45	418.96
674.59	440.02
674.73	479.81
674.87	440.02
675.01	444.70
675.15	430.66
675.29	442.36
675.43	390.87
675.56	416.62
675.70	423.64
675.84	393.21
675.98	381.51
676.12	374.49
676.26	372.15
676.40	416.62
676.54	334.70
676.68	477.47
676.82	428.32
676.96	383.85
677.10	482.15
677.23	421.30
677.37	421.30
677.51	414.27
677.65	381.51
677.79	388.53
677.93	379.17
678.07	475.13
678.21	430.66
678.34	365.12
678.48	400.23
678.62	482.15
678.76	369.80
678.90	400.23
679.04	337.04
679.18	369.80
679.31	428.32
679.45	390.87
679.59	423.64
679.73	416.62
679.87	449.38
680.00	372.15
680.14	449.38
680.28	404.91
680.42	388.53
680.56	379.17
680.70	379.17
680.83	416.62
680.97	444.70
681.11	386.19
681.25	386.19
681.39	322.99
681.52	447.04
681.66	442.36
681.80	421.30
681.94	416.62
682.07	451.72
682.21	435.34
682.35	397.89
682.49	397.89
682.62	376.83
682.76	369.80
682.90	376.83
683.04	461.09
683.17	369.80
683.31	348.74
683.45	318.31
683.59	472.79
683.72	440.02
683.86	423.64
684.00	407.25
684.13	482.15
684.27	458.74
684.41	360.44
684.55	428.32
684.68	416.62
684.82	402.57
684.96	397.89
685.09	390.87
685.23	437.68
685.37	390.87
685.50	444.70
685.64	463.43
685.78	402.57
685.91	402.57
686.05	444.70
686.19	383.85
686.32	411.93
686.46	493.85
686.60	339.38
686.73	418.96
686.87	402.57
687.01	362.78
687.14	297.25
687.28	355.76
687.42	362.78
687.55	402.57
687.69	498.53
687.82	418.96
687.96	428.32
688.10	411.93
688.23	393.21
688.37	503.22
688.50	430.66
688.64	440.02
688.78	322.99
688.91	407.25
689.05	344.06
689.18	383.85
689.32	369.80
689.46	411.93
689.59	486.83
689.73	503.22
689.86	442.36
690.00	407.25
690.13	395.55
690.27	437.68
690.41	512.58
690.54	463.43
690.68	435.34
690.81	430.66
690.95	435.34
691.08	409.59
691.22	358.10
691.35	442.36
691.49	355.76
691.62	327.68
691.76	376.83
691.89	423.64
692.03	386.19
692.16	456.40
692.30	428.32
692.43	447.04
692.57	383.85
692.70	440.02
692.84	339.38
692.97	353.42
693.11	355.76
693.24	433.00
693.38	416.62
693.51	372.15
693.65	407.25
693.78	409.59
693.92	393.21
694.05	395.55
694.19	393.21
694.32	411.93
694.45	428.32
694.59	379.17
694.72	444.70
694.86	395.55
694.99	355.76
695.13	372.15
695.26	444.70
695.39	374.49
695.53	517.26
695.66	388.53
695.80	402.57
695.93	425.98
696.07	437.68
696.20	433.00
696.33	344.06
696.47	414.27
696.60	395.55
696.73	395.55
696.87	383.85
697.00	458.74
697.14	379.17
697.27	458.74
697.40	517.26
697.54	379.17
697.67	388.53
697.80	341.72
697.94	390.87
698.07	395.55
698.21	393.21
698.34	461.09
698.47	468.11
698.61	468.11
698.74	339.38
698.87	440.02
699.01	383.85
699.14	400.23
699.27	421.30
699.40	463.43
699.54	454.06
699.67	330.02
699.80	404.91
699.94	409.59
700.07	458.74
700.20	362.78
700.34	428.32
700.47	428.32
700.60	341.72
700.73	437.68
700.87	428.32
701.00	379.17
701.13	379.17
701.26	393.21
701.40	411.93
701.53	433.00
701.66	418.96
701.79	414.27
701.93	397.89
702.06	425.98
702.19	402.57
702.32	437.68
702.46	374.49
702.59	435.34
702.72	386.19
702.85	463.43
702.99	444.70
703.12	535.98
703.25	454.06
703.38	437.68
703.51	442.36
703.65	376.83
703.78	388.53
703.91	411.93
704.04	493.85
704.17	383.85
704.31	435.34
704.44	416.62
704.57	374.49
704.70	409.59
704.83	379.17
704.96	379.17
705.10	418.96
705.23	442.36
>>>>>End Processed Spectral Data<<<<<
