SpectraSuite Data File
++++++++++++++++++++++++++++++++++++
Date: Fri Oct 25 12:11:31 EDT 2013
User: price-jones
Dark Spectrum Present: No
Reference Spectrum Present: No
Number of Sampled Component Spectra: 1
Spectrometers: USB2+H05261
Integration Time (usec): 100000 (USB2+H05261)
Spectra Averaged: 1 (USB2+H05261)
Boxcar Smoothing: 0 (USB2+H05261)
Correct for Electrical Dark: No (USB2+H05261)
Strobe/Lamp Enabled: No (USB2+H05261)
Correct for Detector Non-linearity: No (USB2+H05261)
Correct for Stray Light: No (USB2+H05261)
Number of Pixels in Processed Spectrum: 2048
>>>>>Begin Processed Spectral Data<<<<<
365.73	287.89
365.92	287.89
366.12	287.89
366.32	215.33
366.52	332.36
366.72	297.25
366.91	201.29
367.11	299.59
367.31	187.24
367.51	180.22
367.70	294.91
367.90	241.08
368.10	170.86
368.30	269.16
368.49	222.35
368.69	271.50
368.89	283.20
369.09	236.39
369.28	255.12
369.48	325.33
369.68	301.93
369.87	271.50
370.07	210.65
370.27	271.50
370.47	318.31
370.66	334.70
370.86	332.36
371.06	376.83
371.25	353.42
371.45	318.31
371.65	390.87
371.84	390.87
372.04	269.16
372.24	407.25
372.44	447.04
372.63	400.23
372.83	416.62
373.03	458.74
373.22	351.08
373.42	388.53
373.62	416.62
373.81	421.30
374.01	388.53
374.21	465.77
374.40	433.00
374.60	482.15
374.79	437.68
374.99	437.68
375.19	496.19
375.38	458.74
375.58	463.43
375.78	430.66
375.97	533.64
376.17	425.98
376.37	390.87
376.56	433.00
376.76	444.70
376.95	369.80
377.15	360.44
377.35	444.70
377.54	442.36
377.74	435.34
377.93	365.12
378.13	425.98
378.33	409.59
378.52	414.27
378.72	393.21
378.91	470.45
379.11	435.34
379.31	379.17
379.50	360.44
379.70	414.27
379.89	437.68
380.09	374.49
380.28	374.49
380.48	381.51
380.68	383.85
380.87	360.44
381.07	409.59
381.26	416.62
381.46	393.21
381.65	416.62
381.85	402.57
382.04	386.19
382.24	449.38
382.43	414.27
382.63	393.21
382.83	425.98
383.02	400.23
383.22	414.27
383.41	423.64
383.61	428.32
383.80	414.27
384.00	416.62
384.19	421.30
384.39	449.38
384.58	423.64
384.78	381.51
384.97	423.64
385.17	358.10
385.36	414.27
385.56	397.89
385.75	346.40
385.95	358.10
386.14	393.21
386.34	381.51
386.53	425.98
386.72	442.36
386.92	381.51
387.11	393.21
387.31	376.83
387.50	414.27
387.70	418.96
387.89	346.40
388.09	334.70
388.28	327.68
388.48	435.34
388.67	339.38
388.86	379.17
389.06	402.57
389.25	390.87
389.45	390.87
389.64	393.21
389.84	421.30
390.03	414.27
390.22	395.55
390.42	400.23
390.61	437.68
390.81	383.85
391.00	409.59
391.19	416.62
391.39	372.15
391.58	449.38
391.78	451.72
391.97	416.62
392.16	430.66
392.36	407.25
392.55	493.85
392.75	388.53
392.94	442.36
393.13	470.45
393.33	425.98
393.52	383.85
393.71	411.93
393.91	414.27
394.10	344.06
394.29	416.62
394.49	360.44
394.68	383.85
394.88	479.81
395.07	463.43
395.26	437.68
395.46	395.55
395.65	414.27
395.84	414.27
396.04	461.09
396.23	400.23
396.42	425.98
396.62	447.04
396.81	411.93
397.00	400.23
397.19	418.96
397.39	449.38
397.58	428.32
397.77	418.96
397.97	423.64
398.16	379.17
398.35	411.93
398.55	381.51
398.74	433.00
398.93	376.83
399.12	374.49
399.32	433.00
399.51	472.79
399.70	435.34
399.90	451.72
400.09	400.23
400.28	425.98
400.47	400.23
400.67	447.04
400.86	388.53
401.05	400.23
401.24	400.23
401.44	381.51
401.63	444.70
401.82	402.57
402.01	409.59
402.21	428.32
402.40	489.17
402.59	444.70
402.78	440.02
402.97	365.12
403.17	423.64
403.36	402.57
403.55	383.85
403.74	409.59
403.93	425.98
404.13	451.72
404.32	327.68
404.51	374.49
404.70	437.68
404.89	351.08
405.09	418.96
405.28	397.89
405.47	367.46
405.66	409.59
405.85	383.85
406.05	358.10
406.24	351.08
406.43	433.00
406.62	388.53
406.81	456.40
407.00	456.40
407.20	444.70
407.39	374.49
407.58	411.93
407.77	435.34
407.96	440.02
408.15	442.36
408.34	407.25
408.54	409.59
408.73	421.30
408.92	444.70
409.11	381.51
409.30	397.89
409.49	390.87
409.68	402.57
409.87	411.93
410.07	376.83
410.26	393.21
410.45	435.34
410.64	416.62
410.83	416.62
411.02	337.04
411.21	393.21
411.40	421.30
411.59	482.15
411.78	400.23
411.98	451.72
412.17	437.68
412.36	479.81
412.55	447.04
412.74	407.25
412.93	433.00
413.12	409.59
413.31	503.22
413.50	372.15
413.69	386.19
413.88	440.02
414.07	416.62
414.26	346.40
414.45	379.17
414.64	404.91
414.83	442.36
415.02	294.91
415.22	425.98
415.41	376.83
415.60	404.91
415.79	416.62
415.98	475.13
416.17	372.15
416.36	486.83
416.55	418.96
416.74	465.77
416.93	437.68
417.12	435.34
417.31	369.80
417.50	428.32
417.69	442.36
417.88	444.70
418.07	400.23
418.26	407.25
418.45	423.64
418.64	491.51
418.83	435.34
419.02	355.76
419.21	397.89
419.39	428.32
419.58	383.85
419.77	430.66
419.96	449.38
420.15	521.94
420.34	393.21
420.53	390.87
420.72	383.85
420.91	404.91
421.10	414.27
421.29	416.62
421.48	456.40
421.67	430.66
421.86	456.40
422.05	463.43
422.24	421.30
422.43	388.53
422.61	367.46
422.80	447.04
422.99	414.27
423.18	430.66
423.37	407.25
423.56	444.70
423.75	369.80
423.94	386.19
424.13	416.62
424.32	433.00
424.50	400.23
424.69	369.80
424.88	416.62
425.07	440.02
425.26	374.49
425.45	433.00
425.64	458.74
425.83	451.72
426.01	376.83
426.20	463.43
426.39	428.32
426.58	374.49
426.77	433.00
426.96	437.68
427.15	451.72
427.33	404.91
427.52	437.68
427.71	421.30
427.90	409.59
428.09	451.72
428.28	456.40
428.46	461.09
428.65	402.57
428.84	402.57
429.03	470.45
429.22	362.78
429.40	428.32
429.59	404.91
429.78	393.21
429.97	365.12
430.16	381.51
430.34	362.78
430.53	327.68
430.72	395.55
430.91	442.36
431.10	416.62
431.28	386.19
431.47	489.17
431.66	360.44
431.85	351.08
432.03	479.81
432.22	416.62
432.41	440.02
432.60	449.38
432.79	458.74
432.97	468.11
433.16	374.49
433.35	397.89
433.54	458.74
433.72	386.19
433.91	447.04
434.10	395.55
434.28	428.32
434.47	425.98
434.66	428.32
434.85	404.91
435.03	430.66
435.22	449.38
435.41	454.06
435.59	411.93
435.78	465.77
435.97	376.83
436.16	409.59
436.34	489.17
436.53	440.02
436.72	484.49
436.90	402.57
437.09	348.74
437.28	456.40
437.46	414.27
437.65	351.08
437.84	414.27
438.02	428.32
438.21	458.74
438.40	435.34
438.58	442.36
438.77	458.74
438.96	388.53
439.14	430.66
439.33	496.19
439.52	430.66
439.70	397.89
439.89	430.66
440.08	404.91
440.26	423.64
440.45	484.49
440.63	456.40
440.82	416.62
441.01	409.59
441.19	482.15
441.38	416.62
441.57	475.13
441.75	449.38
441.94	428.32
442.12	407.25
442.31	397.89
442.50	407.25
442.68	358.10
442.87	409.59
443.05	360.44
443.24	435.34
443.43	437.68
443.61	479.81
443.80	491.51
443.98	388.53
444.17	383.85
444.35	395.55
444.54	416.62
444.73	383.85
444.91	379.17
445.10	374.49
445.28	367.46
445.47	404.91
445.65	433.00
445.84	421.30
446.02	416.62
446.21	360.44
446.39	409.59
446.58	404.91
446.77	369.80
446.95	407.25
447.14	437.68
447.32	442.36
447.51	341.72
447.69	442.36
447.88	393.21
448.06	465.77
448.25	388.53
448.43	348.74
448.62	325.33
448.80	456.40
448.99	397.89
449.17	447.04
449.36	393.21
449.54	402.57
449.73	463.43
449.91	411.93
450.10	383.85
450.28	433.00
450.46	465.77
450.65	360.44
450.83	447.04
451.02	440.02
451.20	362.78
451.39	498.53
451.57	458.74
451.76	435.34
451.94	395.55
452.13	440.02
452.31	444.70
452.49	437.68
452.68	390.87
452.86	440.02
453.05	461.09
453.23	433.00
453.42	442.36
453.60	344.06
453.78	397.89
453.97	416.62
454.15	393.21
454.34	428.32
454.52	397.89
454.70	421.30
454.89	395.55
455.07	407.25
455.26	379.17
455.44	454.06
455.62	442.36
455.81	437.68
455.99	393.21
456.17	376.83
456.36	451.72
456.54	393.21
456.73	365.12
456.91	425.98
457.09	425.98
457.28	468.11
457.46	437.68
457.64	479.81
457.83	397.89
458.01	482.15
458.19	365.12
458.38	379.17
458.56	360.44
458.74	369.80
458.93	351.08
459.11	414.27
459.29	397.89
459.48	430.66
459.66	325.33
459.84	414.27
460.03	514.92
460.21	486.83
460.39	365.12
460.57	440.02
460.76	367.46
460.94	402.57
461.12	468.11
461.31	395.55
461.49	433.00
461.67	341.72
461.85	437.68
462.04	449.38
462.22	781.74
462.40	386.19
462.59	482.15
462.77	353.42
462.95	416.62
463.13	397.89
463.32	454.06
463.50	407.25
463.68	458.74
463.86	454.06
464.05	372.15
464.23	423.64
464.41	379.17
464.59	400.23
464.78	411.93
464.96	411.93
465.14	374.49
465.32	374.49
465.50	437.68
465.69	440.02
465.87	379.17
466.05	423.64
466.23	470.45
466.41	433.00
466.60	353.42
466.78	402.57
466.96	407.25
467.14	451.72
467.32	472.79
467.51	486.83
467.69	521.94
467.87	374.49
468.05	388.53
468.23	430.66
468.41	416.62
468.60	430.66
468.78	365.12
468.96	472.79
469.14	458.74
469.32	416.62
469.50	416.62
469.69	444.70
469.87	428.32
470.05	411.93
470.23	465.77
470.41	351.08
470.59	395.55
470.77	491.51
470.95	475.13
471.14	393.21
471.32	428.32
471.50	442.36
471.68	437.68
471.86	440.02
472.04	433.00
472.22	463.43
472.40	484.49
472.58	482.15
472.77	379.17
472.95	472.79
473.13	411.93
473.31	437.68
473.49	353.42
473.67	337.04
473.85	433.00
474.03	409.59
474.21	365.12
474.39	416.62
474.57	437.68
474.75	425.98
474.93	444.70
475.12	437.68
475.30	465.77
475.48	430.66
475.66	411.93
475.84	353.42
476.02	435.34
476.20	411.93
476.38	388.53
476.56	503.22
476.74	456.40
476.92	397.89
477.10	369.80
477.28	381.51
477.46	468.11
477.64	425.98
477.82	449.38
478.00	449.38
478.18	479.81
478.36	402.57
478.54	458.74
478.72	407.25
478.90	421.30
479.08	416.62
479.26	376.83
479.44	372.15
479.62	498.53
479.80	381.51
479.98	386.19
480.16	404.91
480.34	454.06
480.52	402.57
480.70	479.81
480.88	400.23
481.06	320.65
481.24	442.36
481.41	433.00
481.59	430.66
481.77	463.43
481.95	418.96
482.13	418.96
482.31	458.74
482.49	369.80
482.67	435.34
482.85	477.47
483.03	374.49
483.21	425.98
483.39	369.80
483.57	451.72
483.74	470.45
483.92	421.30
484.10	404.91
484.28	510.24
484.46	402.57
484.64	437.68
484.82	390.87
485.00	440.02
485.18	470.45
485.35	414.27
485.53	397.89
485.71	477.47
485.89	416.62
486.07	440.02
486.25	500.87
486.43	402.57
486.61	430.66
486.78	409.59
486.96	430.66
487.14	411.93
487.32	409.59
487.50	390.87
487.68	456.40
487.85	390.87
488.03	351.08
488.21	402.57
488.39	348.74
488.57	318.31
488.75	397.89
488.92	470.45
489.10	433.00
489.28	482.15
489.46	416.62
489.64	397.89
489.81	393.21
489.99	425.98
490.17	414.27
490.35	433.00
490.53	374.49
490.70	388.53
490.88	390.87
491.06	433.00
491.24	496.19
491.41	454.06
491.59	451.72
491.77	397.89
491.95	421.30
492.13	430.66
492.30	397.89
492.48	472.79
492.66	442.36
492.84	372.15
493.01	428.32
493.19	461.09
493.37	416.62
493.54	421.30
493.72	458.74
493.90	369.80
494.08	388.53
494.25	421.30
494.43	449.38
494.61	435.34
494.79	486.83
494.96	400.23
495.14	388.53
495.32	390.87
495.49	409.59
495.67	365.12
495.85	365.12
496.02	414.27
496.20	409.59
496.38	430.66
496.55	409.59
496.73	390.87
496.91	463.43
497.09	381.51
497.26	393.21
497.44	454.06
497.62	447.04
497.79	330.02
497.97	393.21
498.14	442.36
498.32	414.27
498.50	428.32
498.67	400.23
498.85	376.83
499.03	421.30
499.20	447.04
499.38	404.91
499.56	421.30
499.73	484.49
499.91	470.45
500.08	465.77
500.26	395.55
500.44	463.43
500.61	381.51
500.79	442.36
500.97	428.32
501.14	423.64
501.32	367.46
501.49	456.40
501.67	330.02
501.84	379.17
502.02	376.83
502.20	435.34
502.37	395.55
502.55	442.36
502.72	435.34
502.90	440.02
503.07	428.32
503.25	447.04
503.43	409.59
503.60	475.13
503.78	444.70
503.95	428.32
504.13	395.55
504.30	388.53
504.48	430.66
504.65	440.02
504.83	440.02
505.01	414.27
505.18	477.47
505.36	411.93
505.53	430.66
505.71	386.19
505.88	479.81
506.06	456.40
506.23	416.62
506.41	437.68
506.58	421.30
506.76	428.32
506.93	397.89
507.11	416.62
507.28	435.34
507.46	393.21
507.63	433.00
507.81	383.85
507.98	400.23
508.16	397.89
508.33	458.74
508.50	402.57
508.68	496.19
508.85	444.70
509.03	390.87
509.20	360.44
509.38	390.87
509.55	388.53
509.73	470.45
509.90	454.06
510.08	440.02
510.25	430.66
510.42	407.25
510.60	423.64
510.77	437.68
510.95	418.96
511.12	447.04
511.30	409.59
511.47	386.19
511.64	461.09
511.82	479.81
511.99	414.27
512.17	351.08
512.34	393.21
512.51	433.00
512.69	451.72
512.86	447.04
513.04	428.32
513.21	374.49
513.38	386.19
513.56	418.96
513.73	411.93
513.90	425.98
514.08	393.21
514.25	440.02
514.43	416.62
514.60	339.38
514.77	402.57
514.95	418.96
515.12	381.51
515.29	386.19
515.47	479.81
515.64	458.74
515.81	416.62
515.99	454.06
516.16	390.87
516.33	388.53
516.51	447.04
516.68	430.66
516.85	447.04
517.03	400.23
517.20	484.49
517.37	428.32
517.54	461.09
517.72	425.98
517.89	393.21
518.06	461.09
518.24	421.30
518.41	433.00
518.58	491.51
518.75	423.64
518.93	444.70
519.10	404.91
519.27	482.15
519.45	433.00
519.62	339.38
519.79	407.25
519.96	437.68
520.14	468.11
520.31	475.13
520.48	505.56
520.65	458.74
520.83	388.53
521.00	367.46
521.17	421.30
521.34	390.87
521.52	447.04
521.69	381.51
521.86	484.49
522.03	407.25
522.20	414.27
522.38	409.59
522.55	386.19
522.72	451.72
522.89	430.66
523.07	465.77
523.24	423.64
523.41	388.53
523.58	390.87
523.75	435.34
523.92	414.27
524.10	322.99
524.27	435.34
524.44	444.70
524.61	470.45
524.78	449.38
524.96	388.53
525.13	416.62
525.30	435.34
525.47	468.11
525.64	456.40
525.81	411.93
525.98	442.36
526.16	404.91
526.33	372.15
526.50	409.59
526.67	437.68
526.84	365.12
527.01	348.74
527.18	351.08
527.36	397.89
527.53	402.57
527.70	458.74
527.87	374.49
528.04	496.19
528.21	332.36
528.38	393.21
528.55	411.93
528.72	423.64
528.89	416.62
529.07	404.91
529.24	407.25
529.41	421.30
529.58	433.00
529.75	383.85
529.92	397.89
530.09	395.55
530.26	409.59
530.43	388.53
530.60	360.44
530.77	379.17
530.94	454.06
531.11	416.62
531.28	411.93
531.46	390.87
531.63	402.57
531.80	400.23
531.97	437.68
532.14	425.98
532.31	470.45
532.48	468.11
532.65	393.21
532.82	381.51
532.99	416.62
533.16	388.53
533.33	421.30
533.50	456.40
533.67	404.91
533.84	440.02
534.01	449.38
534.18	449.38
534.35	379.17
534.52	383.85
534.69	376.83
534.86	465.77
535.03	379.17
535.20	390.87
535.37	402.57
535.54	447.04
535.71	414.27
535.88	444.70
536.05	442.36
536.22	409.59
536.38	418.96
536.55	463.43
536.72	486.83
536.89	414.27
537.06	390.87
537.23	372.15
537.40	360.44
537.57	425.98
537.74	449.38
537.91	404.91
538.08	447.04
538.25	451.72
538.42	404.91
538.59	418.96
538.75	496.19
538.92	507.90
539.09	472.79
539.26	437.68
539.43	456.40
539.60	404.91
539.77	433.00
539.94	442.36
540.11	402.57
540.28	444.70
540.44	440.02
540.61	393.21
540.78	465.77
540.95	411.93
541.12	472.79
541.29	376.83
541.46	498.53
541.62	468.11
541.79	409.59
541.96	388.53
542.13	465.77
542.30	428.32
542.47	407.25
542.63	411.93
542.80	379.17
542.97	458.74
543.14	449.38
543.31	428.32
543.48	407.25
543.64	383.85
543.81	374.49
543.98	379.17
544.15	346.40
544.32	484.49
544.48	348.74
544.65	360.44
544.82	468.11
544.99	369.80
545.16	465.77
545.32	430.66
545.49	402.57
545.66	395.55
545.83	440.02
546.00	428.32
546.16	425.98
546.33	437.68
546.50	395.55
546.67	489.17
546.83	449.38
547.00	430.66
547.17	430.66
547.34	425.98
547.50	472.79
547.67	447.04
547.84	386.19
548.00	528.96
548.17	503.22
548.34	468.11
548.51	442.36
548.67	372.15
548.84	435.34
549.01	447.04
549.18	510.24
549.34	402.57
549.51	444.70
549.68	454.06
549.84	421.30
550.01	397.89
550.18	433.00
550.34	468.11
550.51	465.77
550.68	390.87
550.84	451.72
551.01	456.40
551.18	402.57
551.34	388.53
551.51	407.25
551.68	451.72
551.84	430.66
552.01	411.93
552.18	404.91
552.34	322.99
552.51	388.53
552.68	393.21
552.84	444.70
553.01	393.21
553.18	477.47
553.34	416.62
553.51	430.66
553.67	454.06
553.84	472.79
554.01	383.85
554.17	444.70
554.34	358.10
554.51	414.27
554.67	404.91
554.84	479.81
555.00	489.17
555.17	477.47
555.33	404.91
555.50	503.22
555.67	500.87
555.83	411.93
556.00	423.64
556.16	517.26
556.33	388.53
556.50	390.87
556.66	379.17
556.83	397.89
556.99	433.00
557.16	430.66
557.32	465.77
557.49	367.46
557.65	381.51
557.82	430.66
557.98	451.72
558.15	341.72
558.32	416.62
558.48	395.55
558.65	456.40
558.81	423.64
558.98	444.70
559.14	425.98
559.31	376.83
559.47	461.09
559.64	411.93
559.80	376.83
559.97	358.10
560.13	454.06
560.30	454.06
560.46	442.36
560.63	379.17
560.79	402.57
560.96	390.87
561.12	416.62
561.29	449.38
561.45	458.74
561.61	468.11
561.78	465.77
561.94	404.91
562.11	374.49
562.27	341.72
562.44	440.02
562.60	376.83
562.77	379.17
562.93	482.15
563.10	454.06
563.26	360.44
563.42	416.62
563.59	440.02
563.75	397.89
563.92	449.38
564.08	372.15
564.24	465.77
564.41	465.77
564.57	421.30
564.74	404.91
564.90	451.72
565.07	442.36
565.23	395.55
565.39	383.85
565.56	404.91
565.72	365.12
565.88	421.30
566.05	395.55
566.21	414.27
566.38	397.89
566.54	430.66
566.70	367.46
566.87	463.43
567.03	397.89
567.19	386.19
567.36	440.02
567.52	397.89
567.68	437.68
567.85	421.30
568.01	397.89
568.17	433.00
568.34	421.30
568.50	479.81
568.66	400.23
568.83	449.38
568.99	451.72
569.15	496.19
569.32	479.81
569.48	435.34
569.64	409.59
569.81	463.43
569.97	468.11
570.13	423.64
570.30	425.98
570.46	358.10
570.62	421.30
570.78	493.85
570.95	400.23
571.11	477.47
571.27	482.15
571.43	421.30
571.60	442.36
571.76	381.51
571.92	409.59
572.09	346.40
572.25	397.89
572.41	397.89
572.57	414.27
572.74	498.53
572.90	498.53
573.06	447.04
573.22	458.74
573.38	510.24
573.55	447.04
573.71	479.81
573.87	428.32
574.03	404.91
574.20	397.89
574.36	376.83
574.52	400.23
574.68	433.00
574.84	344.06
575.01	376.83
575.17	479.81
575.33	447.04
575.49	491.51
575.65	442.36
575.82	428.32
575.98	451.72
576.14	372.15
576.30	381.51
576.46	400.23
576.62	468.11
576.79	369.80
576.95	482.15
577.11	369.80
577.27	411.93
577.43	428.32
577.59	353.42
577.75	437.68
577.92	440.02
578.08	404.91
578.24	411.93
578.40	414.27
578.56	482.15
578.72	498.53
578.88	477.47
579.04	411.93
579.21	470.45
579.37	362.78
579.53	418.96
579.69	468.11
579.85	414.27
580.01	407.25
580.17	437.68
580.33	400.23
580.49	461.09
580.65	421.30
580.82	395.55
580.98	421.30
581.14	407.25
581.30	477.47
581.46	414.27
581.62	409.59
581.78	386.19
581.94	447.04
582.10	416.62
582.26	458.74
582.42	423.64
582.58	397.89
582.74	386.19
582.90	461.09
583.06	465.77
583.22	379.17
583.38	430.66
583.54	437.68
583.70	421.30
583.86	428.32
584.02	402.57
584.18	470.45
584.34	393.21
584.50	491.51
584.66	409.59
584.82	404.91
584.98	372.15
585.14	334.70
585.30	440.02
585.46	458.74
585.62	416.62
585.78	404.91
585.94	416.62
586.10	362.78
586.26	423.64
586.42	435.34
586.58	418.96
586.74	409.59
586.90	341.72
587.06	421.30
587.22	414.27
587.38	442.36
587.54	421.30
587.70	498.53
587.86	454.06
588.02	418.96
588.18	519.60
588.34	472.79
588.49	362.78
588.65	435.34
588.81	454.06
588.97	458.74
589.13	376.83
589.29	440.02
589.45	423.64
589.61	454.06
589.77	409.59
589.93	447.04
590.08	421.30
590.24	451.72
590.40	425.98
590.56	416.62
590.72	447.04
590.88	367.46
591.04	433.00
591.20	472.79
591.35	456.40
591.51	400.23
591.67	407.25
591.83	379.17
591.99	421.30
592.15	456.40
592.31	402.57
592.46	458.74
592.62	414.27
592.78	404.91
592.94	372.15
593.10	540.66
593.26	468.11
593.41	454.06
593.57	435.34
593.73	397.89
593.89	433.00
594.05	423.64
594.20	409.59
594.36	395.55
594.52	355.76
594.68	428.32
594.84	440.02
594.99	461.09
595.15	430.66
595.31	409.59
595.47	454.06
595.62	337.04
595.78	411.93
595.94	425.98
596.10	463.43
596.25	442.36
596.41	472.79
596.57	407.25
596.73	416.62
596.88	397.89
597.04	407.25
597.20	397.89
597.36	433.00
597.51	402.57
597.67	388.53
597.83	421.30
597.99	407.25
598.14	442.36
598.30	433.00
598.46	358.10
598.61	449.38
598.77	374.49
598.93	383.85
599.09	390.87
599.24	458.74
599.40	449.38
599.56	404.91
599.71	430.66
599.87	411.93
600.03	425.98
600.18	395.55
600.34	449.38
600.50	423.64
600.65	386.19
600.81	433.00
600.97	456.40
601.12	456.40
601.28	383.85
601.44	442.36
601.59	369.80
601.75	440.02
601.91	376.83
602.06	456.40
602.22	482.15
602.37	414.27
602.53	395.55
602.69	393.21
602.84	407.25
603.00	454.06
603.16	411.93
603.31	437.68
603.47	472.79
603.62	369.80
603.78	521.94
603.94	360.44
604.09	442.36
604.25	458.74
604.40	435.34
604.56	397.89
604.71	470.45
604.87	505.56
605.03	397.89
605.18	449.38
605.34	437.68
605.49	451.72
605.65	409.59
605.80	451.72
605.96	421.30
606.12	330.02
606.27	402.57
606.43	393.21
606.58	379.17
606.74	404.91
606.89	409.59
607.05	479.81
607.20	470.45
607.36	428.32
607.51	397.89
607.67	447.04
607.82	421.30
607.98	484.49
608.13	465.77
608.29	433.00
608.44	416.62
608.60	409.59
608.75	425.98
608.91	444.70
609.06	409.59
609.22	416.62
609.37	409.59
609.53	402.57
609.68	372.15
609.84	409.59
609.99	407.25
610.15	425.98
610.30	404.91
610.46	484.49
610.61	437.68
610.76	374.49
610.92	442.36
611.07	414.27
611.23	547.69
611.38	388.53
611.54	414.27
611.69	425.98
611.84	407.25
612.00	430.66
612.15	437.68
612.31	454.06
612.46	365.12
612.62	411.93
612.77	477.47
612.92	449.38
613.08	418.96
613.23	470.45
613.39	428.32
613.54	409.59
613.69	353.42
613.85	449.38
614.00	390.87
614.15	517.26
614.31	411.93
614.46	528.96
614.62	418.96
614.77	505.56
614.92	418.96
615.08	388.53
615.23	440.02
615.38	425.98
615.54	414.27
615.69	435.34
615.84	493.85
616.00	390.87
616.15	404.91
616.30	411.93
616.46	383.85
616.61	416.62
616.76	475.13
616.92	374.49
617.07	402.57
617.22	418.96
617.37	341.72
617.53	369.80
617.68	397.89
617.83	397.89
617.99	362.78
618.14	456.40
618.29	414.27
618.45	393.21
618.60	449.38
618.75	430.66
618.90	425.98
619.06	444.70
619.21	500.87
619.36	397.89
619.51	383.85
619.67	388.53
619.82	477.47
619.97	400.23
620.12	507.90
620.28	367.46
620.43	411.93
620.58	449.38
620.73	388.53
620.89	493.85
621.04	421.30
621.19	454.06
621.34	397.89
621.49	411.93
621.65	528.96
621.80	440.02
621.95	444.70
622.10	400.23
622.25	437.68
622.41	404.91
622.56	365.12
622.71	437.68
622.86	440.02
623.01	395.55
623.16	414.27
623.32	376.83
623.47	437.68
623.62	456.40
623.77	365.12
623.92	442.36
624.07	407.25
624.23	388.53
624.38	435.34
624.53	451.72
624.68	400.23
624.83	449.38
624.98	451.72
625.13	337.04
625.29	418.96
625.44	404.91
625.59	386.19
625.74	447.04
625.89	444.70
626.04	435.34
626.19	379.17
626.34	423.64
626.49	486.83
626.65	416.62
626.80	411.93
626.95	442.36
627.10	409.59
627.25	402.57
627.40	409.59
627.55	458.74
627.70	376.83
627.85	491.51
628.00	489.17
628.15	416.62
628.30	421.30
628.45	414.27
628.60	430.66
628.76	379.17
628.91	425.98
629.06	416.62
629.21	411.93
629.36	418.96
629.51	393.21
629.66	374.49
629.81	423.64
629.96	482.15
630.11	507.90
630.26	374.49
630.41	444.70
630.56	395.55
630.71	381.51
630.86	365.12
631.01	407.25
631.16	444.70
631.31	379.17
631.46	425.98
631.61	393.21
631.76	379.17
631.91	442.36
632.06	421.30
632.21	376.83
632.36	418.96
632.51	376.83
632.66	423.64
632.81	369.80
632.96	393.21
633.10	430.66
633.25	550.03
633.40	440.02
633.55	416.62
633.70	334.70
633.85	372.15
634.00	374.49
634.15	386.19
634.30	447.04
634.45	484.49
634.60	442.36
634.75	433.00
634.90	362.78
635.05	395.55
635.19	423.64
635.34	477.47
635.49	451.72
635.64	374.49
635.79	463.43
635.94	454.06
636.09	411.93
636.24	451.72
636.39	362.78
636.53	372.15
636.68	351.08
636.83	449.38
636.98	421.30
637.13	440.02
637.28	416.62
637.43	526.62
637.57	437.68
637.72	397.89
637.87	381.51
638.02	374.49
638.17	416.62
638.32	442.36
638.46	458.74
638.61	444.70
638.76	383.85
638.91	461.09
639.06	376.83
639.20	440.02
639.35	416.62
639.50	451.72
639.65	458.74
639.80	505.56
639.94	425.98
640.09	411.93
640.24	414.27
640.39	428.32
640.54	372.15
640.68	395.55
640.83	388.53
640.98	449.38
641.13	388.53
641.27	379.17
641.42	442.36
641.57	472.79
641.72	416.62
641.86	435.34
642.01	435.34
642.16	369.80
642.31	428.32
642.45	390.87
642.60	491.51
642.75	390.87
642.90	468.11
643.04	454.06
643.19	400.23
643.34	383.85
643.48	372.15
643.63	458.74
643.78	472.79
643.93	414.27
644.07	430.66
644.22	351.08
644.37	442.36
644.51	407.25
644.66	390.87
644.81	383.85
644.95	437.68
645.10	416.62
645.25	416.62
645.39	437.68
645.54	416.62
645.69	465.77
645.83	437.68
645.98	416.62
646.13	332.36
646.27	430.66
646.42	423.64
646.57	418.96
646.71	418.96
646.86	400.23
647.00	451.72
647.15	400.23
647.30	379.17
647.44	451.72
647.59	404.91
647.74	468.11
647.88	418.96
648.03	428.32
648.17	461.09
648.32	395.55
648.47	404.91
648.61	355.76
648.76	355.76
648.90	379.17
649.05	428.32
649.20	402.57
649.34	454.06
649.49	437.68
649.63	444.70
649.78	468.11
649.92	407.25
650.07	428.32
650.21	386.19
650.36	440.02
650.51	454.06
650.65	402.57
650.80	388.53
650.94	397.89
651.09	472.79
651.23	341.72
651.38	465.77
651.52	533.64
651.67	369.80
651.81	423.64
651.96	493.85
652.10	425.98
652.25	425.98
652.39	451.72
652.54	402.57
652.68	484.49
652.83	388.53
652.97	437.68
653.12	451.72
653.26	440.02
653.41	442.36
653.55	421.30
653.70	400.23
653.84	470.45
653.99	400.23
654.13	418.96
654.27	397.89
654.42	334.70
654.56	376.83
654.71	437.68
654.85	393.21
655.00	376.83
655.14	327.68
655.29	404.91
655.43	472.79
655.57	414.27
655.72	425.98
655.86	407.25
656.01	381.51
656.15	444.70
656.30	477.47
656.44	393.21
656.58	379.17
656.73	454.06
656.87	435.34
657.01	486.83
657.16	447.04
657.30	528.96
657.45	456.40
657.59	465.77
657.73	472.79
657.88	468.11
658.02	477.47
658.16	437.68
658.31	430.66
658.45	407.25
658.60	393.21
658.74	353.42
658.88	435.34
659.03	407.25
659.17	369.80
659.31	402.57
659.46	428.32
659.60	449.38
659.74	381.51
659.89	428.32
660.03	393.21
660.17	418.96
660.32	435.34
660.46	458.74
660.60	411.93
660.74	440.02
660.89	440.02
661.03	414.27
661.17	463.43
661.32	440.02
661.46	397.89
661.60	428.32
661.74	449.38
661.89	472.79
662.03	468.11
662.17	447.04
662.31	369.80
662.46	393.21
662.60	433.00
662.74	430.66
662.88	395.55
663.03	461.09
663.17	383.85
663.31	418.96
663.45	395.55
663.60	414.27
663.74	388.53
663.88	383.85
664.02	447.04
664.17	411.93
664.31	437.68
664.45	418.96
664.59	409.59
664.73	393.21
664.88	463.43
665.02	414.27
665.16	423.64
665.30	489.17
665.44	447.04
665.59	449.38
665.73	381.51
665.87	409.59
666.01	407.25
666.15	404.91
666.29	442.36
666.44	447.04
666.58	491.51
666.72	458.74
666.86	435.34
667.00	442.36
667.14	362.78
667.28	430.66
667.43	416.62
667.57	440.02
667.71	404.91
667.85	425.98
667.99	486.83
668.13	421.30
668.27	458.74
668.41	376.83
668.56	442.36
668.70	451.72
668.84	491.51
668.98	414.27
669.12	355.76
669.26	407.25
669.40	454.06
669.54	435.34
669.68	402.57
669.82	458.74
669.96	461.09
670.10	416.62
670.25	500.87
670.39	383.85
670.53	383.85
670.67	461.09
670.81	376.83
670.95	414.27
671.09	369.80
671.23	519.60
671.37	442.36
671.51	449.38
671.65	454.06
671.79	418.96
671.93	465.77
672.07	512.58
672.21	390.87
672.35	461.09
672.49	440.02
672.63	388.53
672.77	397.89
672.91	491.51
673.05	353.42
673.19	411.93
673.33	421.30
673.47	507.90
673.61	440.02
673.75	430.66
673.89	327.68
674.03	447.04
674.17	440.02
674.31	454.06
674.45	477.47
674.59	451.72
674.73	400.23
674.87	409.59
675.01	416.62
675.15	470.45
675.29	416.62
675.43	449.38
675.56	442.36
675.70	486.83
675.84	414.27
675.98	358.10
676.12	362.78
676.26	418.96
676.40	430.66
676.54	388.53
676.68	390.87
676.82	440.02
676.96	383.85
677.10	388.53
677.23	440.02
677.37	402.57
677.51	440.02
677.65	465.77
677.79	369.80
677.93	475.13
678.07	390.87
678.21	430.66
678.34	454.06
678.48	397.89
678.62	435.34
678.76	308.95
678.90	390.87
679.04	440.02
679.18	360.44
679.31	411.93
679.45	367.46
679.59	390.87
679.73	386.19
679.87	383.85
680.00	407.25
680.14	479.81
680.28	416.62
680.42	442.36
680.56	465.77
680.70	423.64
680.83	435.34
680.97	402.57
681.11	449.38
681.25	409.59
681.39	475.13
681.52	463.43
681.66	423.64
681.80	430.66
681.94	416.62
682.07	348.74
682.21	470.45
682.35	351.08
682.49	409.59
682.62	442.36
682.76	381.51
682.90	407.25
683.04	484.49
683.17	442.36
683.31	411.93
683.45	454.06
683.59	465.77
683.72	423.64
683.86	433.00
684.00	383.85
684.13	379.17
684.27	407.25
684.41	484.49
684.55	402.57
684.68	425.98
684.82	367.46
684.96	395.55
685.09	435.34
685.23	376.83
685.37	332.36
685.50	383.85
685.64	386.19
685.78	362.78
685.91	386.19
686.05	514.92
686.19	383.85
686.32	423.64
686.46	449.38
686.60	395.55
686.73	440.02
686.87	428.32
687.01	379.17
687.14	379.17
687.28	447.04
687.42	425.98
687.55	390.87
687.69	442.36
687.82	374.49
687.96	348.74
688.10	337.04
688.23	421.30
688.37	442.36
688.50	388.53
688.64	411.93
688.78	425.98
688.91	421.30
689.05	369.80
689.18	360.44
689.32	367.46
689.46	470.45
689.59	484.49
689.73	414.27
689.86	400.23
690.00	423.64
690.13	433.00
690.27	411.93
690.41	411.93
690.54	482.15
690.68	400.23
690.81	400.23
690.95	390.87
691.08	428.32
691.22	337.04
691.35	437.68
691.49	372.15
691.62	355.76
691.76	383.85
691.89	430.66
692.03	423.64
692.16	360.44
692.30	433.00
692.43	447.04
692.57	411.93
692.70	376.83
692.84	425.98
692.97	444.70
693.11	407.25
693.24	482.15
693.38	418.96
693.51	444.70
693.65	456.40
693.78	468.11
693.92	433.00
694.05	390.87
694.19	337.04
694.32	400.23
694.45	430.66
694.59	458.74
694.72	496.19
694.86	444.70
694.99	456.40
695.13	407.25
695.26	407.25
695.39	346.40
695.53	379.17
695.66	472.79
695.80	421.30
695.93	327.68
696.07	440.02
696.20	414.27
696.33	365.12
696.47	404.91
696.60	381.51
696.73	454.06
696.87	411.93
697.00	475.13
697.14	402.57
697.27	425.98
697.40	545.34
697.54	503.22
697.67	332.36
697.80	414.27
697.94	435.34
698.07	435.34
698.21	407.25
698.34	369.80
698.47	449.38
698.61	407.25
698.74	435.34
698.87	423.64
699.01	332.36
699.14	407.25
699.27	362.78
699.40	465.77
699.54	386.19
699.67	402.57
699.80	444.70
699.94	416.62
700.07	283.20
700.20	468.11
700.34	374.49
700.47	411.93
700.60	379.17
700.73	442.36
700.87	468.11
701.00	379.17
701.13	472.79
701.26	400.23
701.40	400.23
701.53	407.25
701.66	409.59
701.79	428.32
701.93	468.11
702.06	458.74
702.19	388.53
702.32	425.98
702.46	435.34
702.59	369.80
702.72	393.21
702.85	360.44
702.99	451.72
703.12	475.13
703.25	400.23
703.38	418.96
703.51	416.62
703.65	454.06
703.78	472.79
703.91	468.11
704.04	421.30
704.17	411.93
704.31	381.51
704.44	376.83
704.57	430.66
704.70	442.36
704.83	414.27
704.96	468.11
705.10	418.96
705.23	463.43
>>>>>End Processed Spectral Data<<<<<
