SpectraSuite Data File
++++++++++++++++++++++++++++++++++++
Date: Fri Oct 25 11:23:12 EDT 2013
User: price-jones
Dark Spectrum Present: No
Reference Spectrum Present: No
Number of Sampled Component Spectra: 1
Spectrometers: USB2+H05261
Integration Time (usec): 100000 (USB2+H05261)
Spectra Averaged: 1 (USB2+H05261)
Boxcar Smoothing: 0 (USB2+H05261)
Correct for Electrical Dark: No (USB2+H05261)
Strobe/Lamp Enabled: No (USB2+H05261)
Correct for Detector Non-linearity: No (USB2+H05261)
Correct for Stray Light: No (USB2+H05261)
Number of Pixels in Processed Spectrum: 2048
>>>>>Begin Processed Spectral Data<<<<<
365.73	189.58
365.92	189.58
366.12	189.58
366.32	156.82
366.52	117.03
366.72	142.77
366.91	152.13
367.11	131.07
367.31	112.35
367.51	79.58
367.70	107.66
367.90	84.26
368.10	117.03
368.30	102.98
368.49	220.01
368.69	234.05
368.89	149.79
369.09	126.39
369.28	145.11
369.48	156.82
369.68	196.60
369.87	173.20
370.07	142.77
370.27	229.37
370.47	304.27
370.66	568.75
370.86	669.39
371.06	678.76
371.25	681.10
371.45	678.76
371.65	655.35
371.84	622.58
372.04	676.41
372.24	641.31
372.44	662.37
372.63	746.63
372.83	791.10
373.03	751.31
373.22	777.06
373.42	695.14
373.62	765.36
373.81	720.88
374.01	725.57
374.21	856.64
374.40	819.19
374.60	861.32
374.79	784.08
374.99	788.76
375.19	826.21
375.38	833.23
375.58	887.06
375.78	847.27
375.97	760.67
376.17	884.72
376.37	823.87
376.56	861.32
376.76	887.06
376.95	894.08
377.15	840.25
377.35	910.47
377.54	971.32
377.74	821.53
377.93	849.61
378.13	912.81
378.33	943.24
378.52	915.15
378.72	957.28
378.91	943.24
379.11	985.37
379.31	894.08
379.50	968.98
379.70	999.41
379.89	985.37
380.09	917.49
380.28	994.73
380.48	1022.81
380.68	966.64
380.87	1004.09
381.07	933.87
381.26	1006.43
381.46	992.39
381.65	1020.47
381.85	1041.54
382.04	1062.60
382.24	1013.45
382.43	950.26
382.63	1083.67
382.83	961.96
383.02	1107.07
383.22	1121.12
383.41	1125.80
383.61	1139.84
383.80	1165.59
384.00	1083.67
384.19	1151.54
384.39	1174.95
384.58	1104.73
384.78	1242.82
384.97	1095.37
385.17	1221.76
385.36	1188.99
385.56	1172.61
385.75	1149.20
385.95	1226.44
386.14	1275.59
386.34	1224.10
386.53	1231.12
386.72	1167.93
386.92	1287.29
387.11	1158.57
387.31	1284.95
387.50	1179.63
387.70	1348.15
387.89	1219.42
388.09	1226.44
388.28	1238.14
388.48	1320.06
388.67	1287.29
388.86	1392.62
389.06	1324.74
389.25	1357.51
389.45	1472.20
389.64	1378.58
389.84	1334.11
390.03	1373.89
390.22	1427.73
390.42	1387.94
390.61	1427.73
390.81	1472.20
391.00	1385.60
391.19	1507.30
391.39	1519.01
391.58	1474.54
391.78	1441.77
391.97	1479.22
392.16	1432.41
392.36	1542.41
392.55	1544.75
392.75	1537.73
392.94	1411.34
393.13	1575.18
393.33	1446.45
393.52	1521.35
393.71	1540.07
393.91	1572.84
394.10	1631.35
394.29	1607.95
394.49	1591.56
394.68	1668.80
394.88	1570.50
395.07	1715.61
395.26	1696.89
395.46	1568.16
395.65	1715.61
395.84	1755.40
396.04	1746.04
396.23	1790.51
396.42	1776.47
396.62	1767.10
396.81	1813.92
397.00	1834.98
397.19	1834.98
397.39	1776.47
397.58	1842.00
397.77	1863.07
397.97	1926.26
398.16	1806.89
398.35	1879.45
398.55	1856.04
398.74	1916.90
398.93	1959.03
399.12	1884.13
399.32	1928.60
399.51	1905.20
399.70	2073.71
399.90	1952.01
400.09	1968.39
400.28	2083.08
400.47	1966.05
400.67	2073.71
400.86	2080.74
401.05	2181.38
401.24	2019.88
401.44	2083.08
401.63	2129.89
401.82	2111.16
402.01	2080.74
402.21	2225.85
402.40	2258.62
402.59	2062.01
402.78	2139.25
402.97	2239.89
403.17	2230.53
403.36	2284.36
403.55	2193.08
403.74	2471.61
403.93	2352.24
404.13	2375.64
404.32	2417.77
404.51	2415.43
404.70	2464.58
404.89	2520.76
405.09	2499.69
405.28	2532.46
405.47	2513.74
405.66	2511.39
405.85	2623.74
406.05	2546.50
406.24	2595.65
406.43	2574.59
406.62	2726.72
406.81	2736.09
407.00	2647.15
407.20	2562.89
407.39	2607.36
407.58	2670.55
407.77	2813.32
407.96	2841.41
408.15	2740.77
408.34	2780.56
408.54	2911.63
408.73	2822.69
408.92	2731.41
409.11	2928.01
409.30	2935.03
409.49	2911.63
409.68	2949.08
409.87	2899.92
410.07	3136.32
410.26	3061.42
410.45	2981.84
410.64	3014.61
410.83	3141.00
411.02	3166.74
411.21	3239.30
411.40	3070.78
411.59	3236.96
411.78	3211.22
411.98	3215.90
412.17	3293.13
412.36	3358.67
412.55	3295.47
412.74	3463.99
412.93	3473.36
413.12	3377.39
413.31	3674.64
413.50	3407.82
413.69	3548.25
413.88	3517.83
414.07	3588.04
414.26	3520.17
414.45	3721.45
414.64	3627.83
414.83	3747.20
415.02	3843.16
415.22	3829.12
415.41	4030.40
415.60	3854.86
415.79	3850.18
415.98	4016.36
416.17	3950.82
416.36	4021.04
416.55	4163.81
416.74	4084.23
416.93	4021.04
417.12	4098.28
417.31	4229.35
417.50	4210.62
417.69	4248.07
417.88	4404.89
418.07	4337.01
418.26	4454.04
418.45	4468.08
418.64	4430.63
418.83	4615.54
419.02	4503.19
419.21	4472.76
419.39	4571.07
419.58	4465.74
419.77	4468.08
419.96	4643.62
420.15	4697.46
420.34	4573.41
420.53	4573.41
420.72	4716.18
420.91	4594.47
421.10	4807.46
421.29	4966.62
421.48	4697.46
421.67	4833.21
421.86	4784.06
422.05	4884.70
422.24	4842.57
422.43	4915.12
422.61	5006.41
422.80	4947.89
422.99	4980.66
423.18	4896.40
423.37	5027.47
423.56	4919.81
423.75	5130.45
423.94	4828.53
424.13	4547.66
424.32	4837.89
424.50	4889.38
424.69	5275.57
424.88	5130.45
425.07	5177.26
425.26	4805.12
425.45	4978.32
425.64	4987.68
425.83	5001.72
426.01	5100.03
426.20	5081.30
426.39	5146.84
426.58	5158.54
426.77	5029.81
426.96	5156.20
427.15	5090.67
427.33	5259.18
427.52	5207.69
427.71	5378.55
427.90	5203.01
428.09	5380.89
428.28	5341.10
428.46	5479.19
428.65	5413.66
428.84	5469.83
429.03	5591.54
429.22	5291.95
429.40	5448.77
429.59	5411.32
429.78	5502.60
429.97	5355.15
430.16	5687.50
430.34	5596.22
430.53	5652.39
430.72	5930.92
430.91	5678.14
431.10	5722.61
431.28	5813.89
431.47	5891.13
431.66	5837.30
431.85	5757.72
432.03	6031.56
432.22	5937.94
432.41	5849.00
432.60	5947.30
432.79	5998.79
432.97	5940.28
433.16	6171.99
433.35	5959.00
433.54	6129.86
433.72	6040.92
433.91	6202.42
434.10	6169.65
434.28	5916.87
434.47	6298.38
434.66	6310.08
434.85	6310.08
435.03	6331.15
435.22	6349.87
435.41	6562.86
435.59	6452.86
435.78	6539.46
435.97	6478.60
436.16	6593.29
436.34	6359.24
436.53	6689.25
436.72	6764.15
436.90	6305.40
437.09	6780.53
437.28	6443.49
437.46	6672.87
437.65	6743.08
437.84	6771.17
438.02	6817.98
438.21	6752.45
438.40	6698.61
438.58	7063.74
438.77	7037.99
438.96	7145.66
439.14	7045.01
439.33	7218.21
439.52	7258.00
439.70	7241.62
439.89	7426.52
440.08	7447.58
440.26	7461.63
440.45	7349.28
440.63	7676.96
440.82	7793.98
441.01	7620.78
441.19	7538.87
441.38	7646.53
441.57	7702.70
441.75	7992.93
441.94	8135.70
442.12	7772.92
442.31	8114.64
442.50	8088.89
442.68	7964.84
442.87	8114.64
443.05	8255.07
443.24	8264.43
443.43	8004.63
443.61	8056.12
443.80	8629.56
443.98	8114.64
444.17	7960.16
444.35	8301.88
444.54	8578.06
444.73	8468.06
444.91	8456.36
445.10	8477.42
445.28	8521.89
445.47	8449.33
445.65	8435.29
445.84	8409.54
446.02	8535.93
446.21	8596.79
446.39	8489.12
446.58	8699.77
446.77	8730.20
446.95	8554.66
447.14	8484.44
447.32	8624.87
447.51	8540.61
447.69	8638.92
447.88	8599.13
448.06	8568.70
448.25	8723.18
448.43	8699.77
448.62	8769.99
448.80	8709.13
448.99	8746.58
449.17	8812.12
449.36	8667.00
449.54	9151.49
449.73	9046.17
449.91	9060.21
450.10	9053.19
450.28	9193.62
450.46	9078.94
450.65	9062.55
450.83	9228.73
451.02	9170.22
451.20	9453.42
451.39	9420.66
451.57	9179.58
451.76	9048.51
451.94	9476.83
452.13	9481.51
452.31	9434.70
452.49	9198.31
452.68	9643.01
452.86	9301.29
453.05	9614.92
453.23	9689.82
453.42	9420.66
453.60	9479.17
453.78	9521.30
453.97	9591.52
454.15	9455.76
454.34	9699.18
454.52	9699.18
454.70	9647.69
454.89	9832.59
455.07	9802.16
455.26	10029.20
455.44	9994.09
455.62	9923.87
455.81	10005.79
455.99	10003.45
456.17	10064.30
456.36	10207.08
456.54	10417.72
456.73	10139.20
456.91	10785.19
457.09	10579.22
457.28	10604.97
457.46	10520.71
457.64	10539.43
457.83	10464.54
458.01	10452.83
458.19	10740.72
458.38	10459.85
458.56	10696.25
458.74	10824.98
458.93	10888.17
459.11	10738.38
459.29	10902.22
459.48	11023.92
459.66	10911.58
459.84	10944.34
460.03	11140.95
460.21	11159.67
460.39	10965.41
460.57	11026.26
460.76	11225.21
460.94	11115.20
461.12	11360.96
461.31	11138.61
461.49	11293.08
461.67	11330.53
461.85	11639.48
462.04	11590.33
462.22	11405.43
462.40	11740.13
462.59	11836.09
462.77	11410.11
462.95	11800.98
463.13	11707.36
463.32	11744.81
463.50	11988.22
463.68	11920.35
463.86	11875.88
464.05	11737.79
464.23	11632.46
464.41	12201.21
464.59	11808.00
464.78	12131.00
464.96	12290.15
465.14	11772.89
465.32	11997.59
465.50	12341.64
465.69	12372.07
465.87	12154.40
466.05	12159.08
466.23	12421.22
466.41	12514.84
466.60	12608.47
466.78	12500.80
466.96	12343.99
467.14	12461.01
467.32	12524.21
467.51	12615.49
467.69	12428.24
467.87	12795.71
468.05	12688.04
468.23	12910.40
468.41	12751.24
468.60	12879.97
468.78	12856.56
468.96	12533.57
469.14	12940.82
469.32	13020.40
469.50	12809.75
469.69	13043.81
469.87	13270.84
470.05	13226.37
470.23	13163.17
470.41	13270.84
470.59	13490.85
470.77	13352.76
470.95	13256.79
471.14	13668.73
471.32	13406.59
471.50	13760.01
471.68	13659.37
471.86	13832.57
472.04	13914.48
472.22	14122.79
472.40	13727.24
472.58	13818.52
472.77	13895.76
472.95	14080.66
473.13	14640.05
473.31	14384.93
473.49	13963.64
473.67	14473.87
473.85	14562.81
474.03	14796.87
474.21	14551.11
474.39	14892.83
474.57	14803.89
474.75	15192.42
474.93	15166.67
475.12	15082.41
475.30	15346.89
475.48	15386.68
475.66	15222.84
475.84	15059.01
476.02	15604.35
476.20	15543.50
476.38	16049.05
476.56	16056.08
476.74	16269.06
476.92	16168.42
477.10	15962.45
477.28	16159.06
477.46	16556.95
477.64	16531.20
477.82	16875.26
478.00	17111.66
478.18	17111.66
478.36	17249.75
478.54	17329.33
478.72	17509.55
478.90	17481.46
479.08	17729.56
479.26	17706.15
479.44	17965.95
479.62	18366.18
479.80	18106.38
479.98	18499.59
480.16	18640.03
480.34	18424.70
480.52	18834.29
480.70	18913.87
480.88	18707.90
481.06	18977.06
481.24	19000.47
481.41	19236.86
481.59	19557.52
481.77	19829.02
481.95	19962.43
482.13	20123.93
482.31	20077.12
482.49	20372.02
482.67	20233.93
482.85	20549.90
483.03	20692.68
483.21	20823.75
483.39	21039.08
483.57	21167.80
483.74	21369.09
483.92	21443.99
484.10	21497.82
484.28	22125.08
484.46	22176.58
484.64	22614.26
484.82	22127.42
485.00	22249.13
485.18	23037.89
485.35	23321.10
485.53	23089.38
485.71	23180.67
485.89	23960.06
486.07	23548.13
486.25	23681.54
486.43	23625.37
486.61	23978.79
486.78	24294.76
486.96	24198.80
487.14	24975.86
487.32	24847.13
487.50	25165.44
487.68	25605.46
487.85	25570.35
488.03	25764.62
488.21	26359.11
488.39	26101.65
488.57	26359.11
488.75	26366.13
488.92	26761.69
489.10	26885.73
489.28	27096.38
489.46	27503.64
489.64	27676.83
489.81	27990.47
489.99	27779.82
490.17	27901.53
490.35	28388.36
490.53	28807.31
490.70	28758.16
490.88	29015.62
491.06	29163.08
491.24	28971.15
491.41	29223.93
491.59	29818.42
491.77	29755.23
491.95	29834.81
492.13	30522.93
492.30	30338.02
492.48	30326.32
492.66	30532.29
492.84	30328.66
493.01	31246.15
493.19	30705.49
493.37	31505.95
493.54	31559.78
493.72	31246.15
493.90	31566.81
494.08	32334.50
494.25	31995.12
494.43	32474.93
494.61	32765.16
494.79	32821.33
494.96	33069.43
495.14	33102.20
495.32	33153.69
495.49	33338.59
495.67	33687.33
495.85	33797.34
496.02	34117.99
496.20	34373.11
496.38	34022.03
496.55	34815.47
496.73	34888.03
496.91	34948.88
497.09	35395.92
497.26	35496.56
497.44	35463.80
497.62	35402.94
497.79	36142.55
497.97	35749.34
498.14	36488.95
498.32	36238.51
498.50	36790.88
498.67	36952.38
498.85	36671.51
499.03	37041.32
499.20	36842.37
499.38	37563.26
499.56	37317.50
499.73	37385.38
499.91	37806.67
500.08	38108.60
500.26	37563.26
500.44	38022.00
500.61	38115.62
500.79	38005.62
500.97	38394.15
501.14	38778.00
501.32	38869.28
501.49	39030.77
501.67	39414.62
501.84	39145.46
502.02	39541.01
502.20	39517.60
502.37	39636.97
502.55	39756.34
502.72	39915.50
502.90	39875.71
503.07	39735.27
503.25	40009.12
503.43	40126.14
503.60	40863.41
503.78	40402.33
503.95	40627.02
504.13	40748.73
504.30	41097.47
504.48	40547.44
504.65	40912.56
504.83	41228.54
505.01	41532.81
505.18	41652.17
505.36	41907.29
505.53	41757.50
505.71	41984.53
505.88	41511.74
506.06	41745.80
506.23	42164.75
506.41	42691.37
506.58	42419.87
506.76	42614.13
506.93	42794.36
507.11	42965.21
507.28	42588.39
507.46	43147.78
507.63	43550.35
507.81	43632.27
507.98	43189.91
508.16	43735.25
508.33	43707.16
508.50	44039.52
508.68	44083.99
508.85	44016.11
509.03	44222.08
509.20	44273.57
509.38	44409.32
509.55	45221.49
509.73	44626.99
509.90	45263.62
510.08	44828.28
510.25	45411.07
510.42	45146.59
510.60	45471.93
510.77	45738.75
510.95	45930.67
511.12	45666.19
511.30	45579.59
511.47	45893.22
511.64	45593.64
511.82	46286.43
511.99	45841.73
512.17	46405.80
512.34	46483.04
512.51	46794.33
512.69	46447.93
512.86	46894.97
513.04	47103.28
513.21	46845.82
513.38	47398.19
513.56	47452.02
513.73	46948.81
513.90	47379.46
514.08	47643.94
514.25	47728.20
514.43	47657.99
514.60	47931.83
514.77	47770.33
514.95	48196.31
515.12	48332.06
515.29	48198.65
515.47	48264.19
515.64	48210.35
515.81	48594.20
515.99	48765.06
516.16	48896.13
516.33	48814.21
516.51	49097.42
516.68	48987.41
516.85	48809.53
517.03	49401.69
517.20	49265.94
517.37	49041.24
517.54	49560.84
517.72	49518.71
517.89	49240.19
518.06	49584.25
518.24	49935.33
518.41	49921.29
518.58	49635.74
518.75	49691.91
518.93	50115.55
519.10	49804.26
519.27	50089.80
519.45	50113.21
519.62	50511.10
519.79	50618.77
519.96	50110.87
520.14	49947.03
520.31	50522.80
520.48	50712.39
520.65	50703.03
520.83	50951.12
521.00	51192.20
521.17	51011.98
521.34	50904.31
521.52	51002.61
521.69	50988.57
521.86	51229.65
522.03	51454.34
522.20	51767.97
522.38	51587.75
522.55	51615.83
522.72	51639.24
522.89	51929.47
523.07	51943.51
523.24	51924.78
523.41	51936.49
523.58	51861.59
523.75	51877.97
523.92	51995.00
524.10	52442.04
524.27	52479.49
524.44	52423.32
524.61	52444.38
524.78	52430.34
524.96	52594.18
525.13	52678.44
525.30	52741.63
525.47	52975.69
525.64	52720.57
525.81	52985.05
525.98	52982.71
526.16	52566.09
526.33	52502.90
526.50	53284.64
526.67	53057.60
526.84	53191.01
527.01	53069.31
527.18	53176.97
527.36	53476.56
527.53	53268.25
527.70	53546.78
527.87	53961.05
528.04	53535.07
528.21	53677.85
528.38	53673.16
528.55	53937.65
528.72	53495.28
528.89	53717.64
529.07	53773.81
529.24	53687.21
529.41	54021.90
529.58	53848.71
529.75	53748.06
529.92	54267.66
530.09	54190.42
530.26	54136.59
530.43	54321.49
530.60	53977.43
530.77	54169.36
530.94	54553.21
531.11	54330.86
531.28	54340.22
531.46	54763.85
531.63	54630.44
531.80	54625.76
531.97	54827.05
532.14	54602.36
532.31	54740.45
532.48	54717.04
532.65	55004.93
532.82	54789.60
532.99	54993.23
533.16	55117.28
533.33	55178.13
533.50	54979.18
533.67	54986.21
533.84	55002.59
534.01	55302.18
534.18	55274.09
534.35	55662.62
534.52	55393.46
534.69	55175.79
534.86	55487.08
535.03	55531.55
535.20	55606.45
535.37	55512.83
535.54	55606.45
535.71	55540.91
535.88	55643.90
536.05	55704.75
536.22	55992.64
536.38	55732.84
536.55	55882.63
536.72	55875.61
536.89	56074.55
537.06	55955.19
537.23	56041.79
537.40	55798.37
537.57	55955.19
537.74	56041.79
537.91	56222.01
538.08	55931.78
538.25	56343.72
538.42	56175.20
538.59	56334.35
538.75	56133.07
538.92	56317.97
539.09	56507.55
539.26	56427.98
539.43	56308.61
539.60	56486.49
539.77	56500.53
539.94	56811.82
540.11	56493.51
540.28	56849.27
540.44	56589.47
540.61	56449.04
540.78	56537.98
540.95	56568.41
541.12	56697.14
541.29	56732.25
541.46	56647.99
541.62	56727.56
541.79	56896.08
541.96	56797.78
542.13	56762.67
542.30	57003.75
542.47	57095.03
542.63	57148.86
542.80	57045.88
542.97	57305.68
543.14	57521.01
543.31	57268.23
543.48	57270.57
543.64	57860.38
543.81	57499.94
543.98	57492.92
544.15	57621.65
544.32	57942.30
544.48	57780.81
544.65	57806.55
544.82	57750.38
544.99	57579.52
545.16	57464.83
545.32	57708.25
545.49	57844.00
545.66	57886.13
545.83	57951.66
546.00	58134.23
546.16	58056.99
546.33	57623.99
546.50	57600.58
546.67	58176.36
546.83	57869.75
547.00	57937.62
547.17	57787.83
547.34	58056.99
547.50	58403.39
547.67	58433.81
547.84	58220.83
548.00	58494.67
548.17	58515.73
548.34	58590.63
548.51	58588.29
548.67	58611.70
548.84	58258.27
549.01	58473.60
549.18	58459.56
549.34	58562.54
549.51	58515.73
549.68	58686.59
549.84	58611.70
550.01	58513.39
550.18	58501.69
550.34	58749.79
550.51	58789.58
550.68	58663.19
550.84	58581.27
551.01	59011.93
551.18	58820.00
551.34	58925.33
551.51	58831.71
551.68	58714.68
551.84	58763.83
552.01	58784.90
552.18	58836.39
552.34	58702.98
552.51	59187.47
552.68	58770.85
552.84	58845.75
553.01	59285.77
553.18	59051.72
553.34	58969.80
553.51	58820.00
553.67	59210.87
553.84	59257.68
554.01	59082.14
554.17	59131.29
554.34	59267.05
554.51	59398.12
554.67	59229.60
554.84	59152.36
555.00	59217.89
555.17	58930.01
555.33	59320.88
555.50	59297.47
555.67	59316.20
555.83	59241.30
556.00	59341.94
556.16	59557.27
556.33	59442.59
556.50	59571.32
556.66	59634.51
556.83	59475.35
556.99	59636.85
557.16	59760.90
557.32	59730.47
557.49	59814.73
557.65	59756.22
557.82	59611.10
557.98	59688.34
558.15	59702.38
558.32	59812.39
558.48	59662.60
558.65	59674.30
558.81	59718.77
558.98	59681.32
559.14	59955.16
559.31	59735.15
559.47	59870.90
559.64	60137.72
559.80	59908.35
559.97	60196.24
560.13	59800.69
560.30	59891.97
560.46	60104.96
560.63	59999.63
560.79	60128.36
560.96	60041.76
561.12	60123.68
561.29	60172.83
561.45	60102.62
561.61	59945.80
561.78	60069.85
561.94	60030.06
562.11	60114.32
562.27	59807.71
562.44	60121.34
562.60	60327.31
562.77	60273.48
562.93	59976.23
563.10	60149.43
563.26	60107.30
563.42	60254.75
563.59	60079.21
563.75	60317.95
563.92	60369.44
564.08	60278.16
564.24	60451.36
564.41	60537.96
564.57	60486.46
564.74	60439.65
564.90	60521.57
565.07	60292.20
565.23	60406.89
565.39	60266.45
565.56	60299.22
565.72	60378.80
565.88	60275.82
566.05	60287.52
566.21	60285.18
566.38	60406.89
566.54	60526.25
566.70	60526.25
566.87	60547.32
567.03	60502.85
567.19	60647.96
567.36	60701.79
567.52	60495.83
567.68	60715.84
567.85	60636.26
568.01	60734.56
568.17	60563.70
568.34	60811.80
568.50	60521.57
568.66	60449.02
568.83	60603.49
568.99	60608.17
569.15	60678.39
569.32	60739.24
569.48	60680.73
569.64	60664.35
569.81	60699.45
569.97	60523.91
570.13	60800.10
570.30	60619.88
570.46	60673.71
570.62	60910.10
570.78	60900.74
570.95	60699.45
571.11	60774.35
571.27	60687.75
571.43	60678.39
571.60	60837.54
571.76	60959.25
571.92	60954.57
572.09	60736.90
572.25	60870.31
572.41	60814.14
572.57	60844.57
572.74	60860.95
572.90	60882.02
573.06	60917.12
573.22	60748.60
573.38	60727.54
573.55	60942.87
573.71	60977.98
573.87	60879.67
574.03	60711.16
574.20	61034.15
574.36	60910.10
574.52	60905.42
574.68	60687.75
574.84	61179.26
575.01	60877.33
575.17	60912.44
575.33	60793.07
575.49	60842.23
575.65	61038.83
575.82	61127.77
575.98	61006.06
576.14	61104.37
576.30	61212.03
576.46	61003.72
576.62	60884.36
576.79	60947.55
576.95	61006.06
577.11	61095.00
577.27	61188.63
577.43	61104.37
577.59	60963.93
577.75	60938.19
577.92	60917.12
578.08	61057.56
578.24	61132.45
578.40	61064.58
578.56	61036.49
578.72	61148.84
578.88	61324.38
579.04	61205.01
579.21	61008.40
579.37	61183.94
579.53	61216.71
579.69	60844.57
579.85	61214.37
580.01	60863.29
580.17	61050.53
580.33	61277.57
580.49	61130.11
580.65	61286.93
580.82	61207.35
580.98	61041.17
581.14	61034.15
581.30	61291.61
581.46	61216.71
581.62	61275.22
581.78	61109.05
581.94	61165.22
582.10	61001.38
582.26	61059.90
582.42	61158.20
582.58	61235.44
582.74	61095.00
582.90	61237.78
583.06	61212.03
583.22	61022.45
583.38	61165.22
583.54	61193.31
583.70	61188.63
583.86	61336.08
584.02	60900.74
584.18	61432.04
584.34	61272.88
584.50	61153.52
584.66	61244.80
584.82	61106.71
584.98	61268.20
585.14	61319.70
585.30	61127.77
585.46	61240.12
585.62	61322.04
585.78	61504.60
585.94	61176.92
586.10	61202.67
586.26	61380.55
586.42	61408.64
586.58	61221.39
586.74	61272.88
586.90	61226.07
587.06	61174.58
587.22	61233.10
587.38	61111.39
587.54	61375.87
587.70	61464.81
587.86	61399.27
588.02	61176.92
588.18	61474.17
588.34	61125.43
588.49	61272.88
588.65	61401.61
588.81	61226.07
588.97	61443.74
589.13	61425.02
589.29	61382.89
589.45	61396.93
589.61	61549.07
589.77	61689.50
589.93	61663.75
590.08	61649.71
590.24	61509.28
590.40	61584.18
590.56	61600.56
590.72	61682.48
590.88	61418.00
591.04	61586.52
591.20	61813.55
591.35	61628.65
591.51	61949.30
591.67	61715.25
591.83	61755.03
591.99	61764.40
592.15	61577.15
592.31	61853.34
592.46	61708.22
592.62	61656.73
592.78	61673.12
592.94	61649.71
593.10	61743.33
593.26	61600.56
593.41	61689.50
593.57	61680.14
593.73	61640.35
593.89	61846.32
594.05	61762.06
594.20	61687.16
594.36	61804.19
594.52	61752.69
594.68	61780.78
594.84	61474.17
594.99	61820.57
595.15	61661.41
595.31	61972.70
595.47	61691.84
595.62	61623.96
595.78	61649.71
595.94	61808.87
596.10	61888.45
596.25	61872.06
596.41	61928.23
596.57	61893.13
596.73	61759.72
596.88	61558.43
597.04	61785.46
597.20	62026.54
597.36	61811.21
597.51	61956.32
597.67	61712.91
597.83	61731.63
597.99	62021.86
598.14	62014.83
598.30	61998.45
598.46	61916.53
598.61	61953.98
598.77	61883.76
598.93	61836.95
599.09	61914.19
599.24	62204.42
599.40	62007.81
599.56	62047.60
599.71	61851.00
599.87	62204.42
600.03	61909.51
600.18	61843.98
600.34	61953.98
600.50	61867.38
600.65	61804.19
600.81	61958.66
600.97	61937.60
601.12	62010.15
601.28	61773.76
601.44	61862.70
601.59	61989.09
601.75	61865.04
601.91	62026.54
602.06	62316.76
602.22	61993.77
602.37	62071.01
602.53	61862.70
602.69	61979.73
602.84	61785.46
603.00	61914.19
603.16	61925.89
603.31	62068.67
603.47	62005.47
603.62	61946.96
603.78	62227.82
603.94	61923.55
604.09	62127.18
604.25	61951.64
604.40	61918.87
604.56	62166.97
604.71	62197.40
604.87	61956.32
605.03	61879.08
605.18	61855.68
605.34	62005.47
605.49	61958.66
605.65	62115.48
605.80	61925.89
605.96	62255.91
606.12	62059.30
606.27	62040.58
606.43	61815.89
606.58	62085.05
606.74	61822.91
606.89	61949.30
607.05	61818.23
607.20	62106.12
607.36	62017.17
607.51	61851.00
607.67	61469.49
607.82	61675.46
607.98	62047.60
608.13	61839.29
608.29	61825.25
608.44	61932.92
608.60	61769.08
608.75	61914.19
608.91	61581.84
609.06	61759.72
609.22	61841.63
609.37	61670.78
609.53	61879.08
609.68	61876.74
609.84	61675.46
609.99	61902.49
610.15	61841.63
610.30	61914.19
610.46	61923.55
610.61	61897.81
610.76	61843.98
610.92	61759.72
611.07	61638.01
611.23	61666.09
611.38	61731.63
611.54	61649.71
611.69	61764.40
611.84	61881.42
612.00	61820.57
612.15	61743.33
612.31	61762.06
612.46	61352.46
612.62	61661.41
612.77	61722.27
612.92	61811.21
613.08	61598.22
613.23	61689.50
613.39	61563.11
613.54	61581.84
613.69	61584.18
613.85	61502.26
614.00	61717.59
614.15	61836.95
614.31	61490.55
614.46	61799.50
614.62	61467.15
614.77	61546.73
614.92	61689.50
615.08	61542.05
615.23	61570.13
615.38	61605.24
615.54	61577.15
615.69	61572.47
615.84	61485.87
616.00	61666.09
616.15	61436.72
616.30	61820.57
616.46	61495.24
616.61	61226.07
616.76	61726.95
616.92	61326.72
617.07	61630.99
617.22	61158.20
617.37	61572.47
617.53	61832.27
617.68	61570.13
617.83	61504.60
617.99	61425.02
618.14	61368.85
618.29	61460.13
618.45	61186.28
618.60	61230.75
618.75	61375.87
618.90	61329.06
619.06	61523.32
619.21	61429.70
619.36	61815.89
619.51	61373.53
619.67	61340.76
619.82	61371.19
619.97	61413.32
620.12	61134.79
620.28	61048.19
620.43	61172.24
620.58	61389.91
620.73	61015.43
620.89	61237.78
621.04	61469.49
621.19	61132.45
621.34	61146.50
621.49	60987.34
621.65	61120.75
621.80	61312.67
621.95	61144.16
622.10	61169.90
622.25	60980.32
622.41	61045.85
622.56	61237.78
622.71	61099.68
622.86	60842.23
623.01	60954.57
623.16	60903.08
623.32	61031.81
623.47	61254.16
623.62	61066.92
623.77	60963.93
623.92	61188.63
624.07	61034.15
624.23	61085.64
624.38	60912.44
624.53	60692.43
624.68	60673.71
624.83	60893.72
624.98	61038.83
625.13	60743.92
625.29	60989.68
625.44	60935.85
625.59	60755.63
625.74	60882.02
625.89	60849.25
626.04	60556.68
626.19	60477.10
626.34	60821.16
626.49	60582.43
626.65	60605.83
626.80	60734.56
626.95	60561.36
627.10	60470.08
627.25	60458.38
627.40	60523.91
627.55	60467.74
627.70	60610.51
627.85	60701.79
628.00	60367.10
628.15	60701.79
628.30	60575.40
628.45	60477.10
628.60	60434.97
628.76	60516.89
628.91	60636.26
629.06	60610.51
629.21	60523.91
629.36	60245.39
629.51	60360.08
629.66	60589.45
629.81	60383.48
629.96	60425.61
630.11	60273.48
630.26	60198.58
630.41	60423.27
630.56	60385.82
630.71	60446.68
630.86	60331.99
631.01	60355.39
631.16	60357.74
631.31	60177.51
631.46	59962.18
631.61	60144.75
631.76	60467.74
631.91	60350.71
632.06	60182.19
632.21	60165.81
632.36	60392.84
632.51	60016.02
632.66	60147.09
632.81	60086.23
632.96	60243.05
633.10	60058.15
633.25	60205.60
633.40	60219.64
633.55	60114.32
633.70	59927.08
633.85	60114.32
634.00	59828.77
634.15	59847.50
634.30	59821.75
634.45	60018.36
634.60	60111.98
634.75	60259.43
634.90	59821.75
635.05	59889.63
635.19	59948.14
635.34	59990.27
635.49	59819.41
635.64	59884.95
635.79	59786.64
635.94	59760.90
636.09	59594.72
636.24	59833.46
636.39	59800.69
636.53	59987.93
636.68	59835.80
636.83	59580.68
636.98	59908.35
637.13	59599.40
637.28	59796.01
637.43	59625.15
637.57	59735.15
637.72	59487.06
637.87	59583.02
638.02	59636.85
638.17	59690.68
638.32	59552.59
638.46	59671.96
638.61	59625.15
638.76	59461.31
638.91	59360.67
639.06	59377.05
639.20	59210.87
639.35	59299.81
639.50	59302.15
639.65	59316.20
639.80	59360.67
639.94	59262.36
640.09	59332.58
640.24	59360.67
640.39	59175.76
640.54	59482.37
640.68	59470.67
640.83	59313.86
640.98	59421.52
641.13	59040.01
641.27	59178.10
641.42	59208.53
641.57	58976.82
641.72	59110.23
641.86	59056.40
642.01	59011.93
642.16	59047.04
642.31	59084.48
642.45	59449.61
642.60	58986.18
642.75	59325.56
642.90	59288.11
643.04	59222.58
643.19	59072.78
643.34	59049.38
643.48	59119.59
643.63	59196.83
643.78	58969.80
643.93	59295.13
644.07	59119.59
644.22	59056.40
644.37	58915.96
644.51	58852.77
644.66	58946.39
644.81	59035.33
644.95	59084.48
645.10	59061.08
645.25	58843.41
645.39	58670.21
645.54	59000.22
645.69	58831.71
645.83	58829.37
645.98	58625.74
646.13	58489.99
646.27	58763.83
646.42	58857.45
646.57	58812.98
646.71	58623.40
646.86	58782.55
647.00	58983.84
647.15	58798.94
647.30	58693.61
647.44	58628.08
647.59	58789.58
647.74	58733.40
647.88	58824.68
648.03	58583.61
648.17	58473.60
648.32	58321.47
648.47	58660.85
648.61	58454.88
648.76	58487.65
648.90	58576.59
649.05	58564.88
649.20	58710.00
649.34	58562.54
649.49	58356.58
649.63	58663.19
649.78	58752.13
649.92	58506.37
650.07	58475.94
650.21	58438.50
650.36	58417.43
650.51	58408.07
650.65	58534.46
650.80	58651.48
650.94	58312.11
651.09	58103.80
651.23	57925.92
651.38	58220.83
651.52	57930.60
651.67	58157.63
651.81	58127.20
651.96	57970.39
652.10	58213.80
652.25	58164.65
652.39	58007.84
652.54	57736.34
652.68	57935.28
652.83	57900.17
652.97	57979.75
653.12	58141.25
653.26	58120.18
653.41	58150.61
653.55	58202.10
653.70	58211.46
653.84	58174.02
653.99	58000.82
654.13	57710.59
654.27	57860.38
654.42	58085.07
654.56	57869.75
654.71	57963.37
654.85	57799.53
655.00	57982.09
655.14	57897.83
655.29	57504.62
655.43	57965.71
655.57	57659.10
655.72	57591.22
655.86	57820.59
656.01	57546.75
656.15	57359.51
656.30	57598.24
656.44	57881.45
656.58	57698.89
656.73	57731.65
656.87	57502.28
657.01	57677.82
657.16	57895.49
657.30	57682.50
657.45	57387.60
657.59	57785.49
657.73	57172.27
657.88	57378.23
658.02	57371.21
658.16	57687.18
658.31	57495.26
658.45	57389.94
658.60	57279.93
658.74	57492.92
658.88	57441.43
659.03	57188.65
659.17	57272.91
659.31	57403.98
659.46	57190.99
659.60	57195.67
659.74	57116.09
659.89	56973.32
660.03	57120.77
660.17	57137.16
660.32	57179.29
660.46	56750.97
660.60	56825.87
660.74	56853.95
660.89	57017.79
661.03	56832.89
661.17	56715.86
661.32	56540.32
661.46	56739.27
661.60	56851.61
661.74	56753.31
661.89	56708.84
662.03	56559.05
662.17	56275.84
662.31	56734.59
662.46	56779.06
662.60	56559.05
662.74	56327.33
662.88	56245.41
663.03	56292.22
663.17	56133.07
663.31	56285.20
663.45	56123.71
663.60	56130.73
663.74	55901.36
663.88	55842.84
664.02	55938.80
664.17	56128.39
664.31	55863.91
664.45	55901.36
664.59	56205.62
664.73	55852.20
664.88	55824.12
665.02	55547.93
665.16	55676.66
665.30	55501.12
665.44	55625.17
665.59	55627.51
665.73	55552.62
665.87	55496.44
666.01	55849.86
666.15	55337.29
666.29	55283.45
666.44	55594.74
666.58	55304.52
666.72	55147.70
666.86	55100.89
667.00	55136.00
667.14	55025.99
667.28	55124.30
667.43	54955.78
667.57	54866.84
667.71	54618.74
667.85	54775.56
667.99	54747.47
668.13	55007.27
668.27	54747.47
668.41	54960.46
668.56	54813.01
668.70	54822.37
668.84	54419.80
668.98	54522.78
669.12	54820.03
669.26	54700.66
669.40	54358.94
669.54	54775.56
669.68	54195.10
669.82	54038.29
669.96	54358.94
670.10	54265.32
670.25	54555.55
670.39	54040.63
670.53	54239.57
670.67	54288.73
670.81	54499.37
670.95	54026.59
671.09	53909.56
671.23	53638.06
671.37	53958.71
671.51	53715.29
671.65	53822.96
671.79	53633.38
671.93	53511.67
672.07	53514.01
672.21	53230.80
672.35	53181.65
672.49	53057.60
672.63	53169.95
672.77	53183.99
672.91	53095.05
673.05	52790.78
673.19	53083.35
673.33	52577.79
673.47	52444.38
673.61	52994.41
673.75	52657.37
673.89	52758.02
674.03	52481.83
674.17	52339.06
674.31	52254.80
674.45	52002.02
674.59	52086.28
674.73	52093.30
674.87	51917.76
675.01	51566.68
675.15	51601.79
675.29	51545.62
675.43	51679.03
675.56	51571.36
675.70	51423.91
675.84	51655.62
675.98	50616.43
676.12	51267.09
676.26	51636.90
676.40	51573.70
676.54	50955.80
676.68	50876.22
676.82	50230.24
676.96	50487.70
677.10	50487.70
677.23	50281.73
677.37	50459.61
677.51	50042.99
677.65	49982.14
677.79	49212.10
677.93	49425.09
678.07	49109.12
678.21	49167.63
678.34	49237.85
678.48	49223.81
678.62	49436.80
678.76	49010.82
678.90	48706.55
679.04	48973.37
679.18	48830.60
679.31	48444.41
679.45	48055.88
679.59	48432.71
679.73	48439.73
679.87	48079.28
680.00	47906.08
680.14	47440.32
680.28	47353.72
680.42	47526.92
680.56	47437.98
680.70	46918.38
680.83	47538.62
680.97	46894.97
681.11	47400.53
681.25	46894.97
681.39	46841.14
681.52	46885.61
681.66	46703.05
681.80	46251.33
681.94	45935.35
682.07	46054.72
682.21	45979.82
682.35	45937.69
682.49	45736.41
682.62	46150.68
682.76	46134.30
682.90	45628.74
683.04	45539.80
683.17	45361.92
683.31	45209.79
683.45	44989.78
683.59	44816.58
683.72	44584.86
683.86	44261.87
684.00	44673.81
684.13	44711.25
684.27	44500.61
684.41	43817.17
684.55	43988.03
684.68	44371.88
684.82	43669.72
684.96	43524.60
685.09	43498.86
685.23	43489.49
685.37	42696.05
685.50	42845.85
685.64	42672.65
685.78	42658.60
685.91	42836.48
686.05	42078.15
686.19	41675.58
686.32	41867.50
686.46	41535.15
686.60	41457.91
686.73	40793.20
686.87	41132.57
687.01	41399.40
687.14	40933.63
687.28	40655.11
687.42	40418.71
687.55	40893.84
687.69	40837.67
687.82	40411.69
687.96	40135.51
688.10	40053.59
688.23	40509.99
688.37	39791.45
688.50	39889.75
688.64	39550.37
688.78	39145.46
688.91	38806.08
689.05	38932.47
689.18	39229.72
689.32	38085.20
689.46	37687.31
689.59	37897.95
689.73	38307.55
689.86	37993.92
690.00	37621.77
690.13	38167.12
690.27	37656.88
690.41	38206.90
690.54	36903.23
690.68	36706.62
690.81	36563.85
690.95	36617.68
691.08	36556.83
691.22	36701.94
691.35	36313.41
691.49	36655.13
691.62	36233.83
691.76	36065.31
691.89	36346.18
692.03	36004.46
692.16	35908.50
692.30	35454.44
692.43	35618.27
692.57	35220.38
692.70	34714.83
692.84	34923.13
692.97	34866.96
693.11	34637.59
693.24	34714.83
693.38	34408.22
693.51	34022.03
693.65	34134.37
693.78	33799.68
693.92	33907.34
694.05	33764.57
694.19	33502.43
694.32	33053.05
694.45	33624.14
694.59	32992.19
694.72	32854.10
694.86	33177.09
694.99	32790.91
695.13	32187.05
695.26	32294.71
695.39	31676.81
695.53	32189.39
695.66	32060.66
695.80	31583.19
695.93	31459.14
696.07	31321.05
696.20	30986.35
696.33	31035.50
696.47	30986.35
696.60	30986.35
696.73	30572.08
696.87	30717.19
697.00	30129.72
697.14	30363.77
697.27	30075.88
697.40	30183.55
697.54	30080.56
697.67	29970.56
697.80	29701.40
697.94	29317.55
698.07	29055.41
698.21	29165.42
698.34	29472.03
698.47	29022.64
698.61	28772.21
698.74	28870.51
698.87	28694.97
699.01	28451.55
699.14	28233.88
699.27	28362.61
699.40	28250.27
699.54	28287.71
699.67	27946.00
699.80	27742.37
699.94	27768.12
700.07	27875.78
700.20	27173.62
700.34	27002.76
700.47	27260.22
700.60	26757.00
700.73	26789.77
700.87	26258.47
701.00	26382.52
701.13	26019.74
701.26	26096.97
701.40	26216.34
701.53	25797.38
701.66	26080.59
701.79	25261.40
701.93	25509.50
702.06	25310.55
702.19	25254.38
702.32	25214.59
702.46	25008.62
702.59	24950.11
702.72	24364.98
702.85	24755.85
702.99	24809.68
703.12	24446.90
703.25	24261.99
703.38	23838.36
703.51	23988.15
703.65	23789.20
703.78	23606.64
703.91	23683.88
704.04	23522.38
704.17	23477.91
704.31	23374.93
704.44	23407.70
704.57	23133.86
704.70	22686.81
704.83	22771.07
704.96	22773.41
705.10	22277.22
705.23	22391.91
>>>>>End Processed Spectral Data<<<<<
