SpectraSuite Data File
++++++++++++++++++++++++++++++++++++
Date: Fri Oct 25 11:26:05 EDT 2013
User: price-jones
Dark Spectrum Present: No
Reference Spectrum Present: No
Number of Sampled Component Spectra: 1
Spectrometers: USB2+H05261
Integration Time (usec): 100000 (USB2+H05261)
Spectra Averaged: 1 (USB2+H05261)
Boxcar Smoothing: 0 (USB2+H05261)
Correct for Electrical Dark: No (USB2+H05261)
Strobe/Lamp Enabled: No (USB2+H05261)
Correct for Detector Non-linearity: No (USB2+H05261)
Correct for Stray Light: No (USB2+H05261)
Number of Pixels in Processed Spectrum: 2048
>>>>>Begin Processed Spectral Data<<<<<
365.73	299.59
365.92	299.59
366.12	299.59
366.32	133.41
366.52	170.86
366.72	163.84
366.91	65.54
367.11	149.79
367.31	117.03
367.51	168.52
367.70	138.09
367.90	100.64
368.10	100.64
368.30	173.20
368.49	128.73
368.69	170.86
368.89	119.37
369.09	149.79
369.28	245.76
369.48	201.29
369.68	102.98
369.87	138.09
370.07	231.71
370.27	212.99
370.47	325.33
370.66	627.26
370.86	596.84
371.06	678.76
371.25	709.18
371.45	702.16
371.65	681.10
371.84	688.12
372.04	653.01
372.24	702.16
372.44	667.05
372.63	753.65
372.83	791.10
373.03	753.65
373.22	779.40
373.42	748.97
373.62	779.40
373.81	788.76
374.01	844.93
374.21	816.85
374.40	837.91
374.60	788.76
374.79	816.85
374.99	819.19
375.19	833.23
375.38	915.15
375.58	821.53
375.78	861.32
375.97	896.43
376.17	936.21
376.37	880.04
376.56	856.64
376.76	917.49
376.95	926.85
377.15	908.13
377.35	896.43
377.54	910.47
377.74	877.70
377.93	807.48
378.13	943.24
378.33	940.90
378.52	947.92
378.72	990.05
378.91	915.15
379.11	926.85
379.31	973.66
379.50	1039.20
379.70	943.24
379.89	1062.60
380.09	1050.90
380.28	1029.84
380.48	994.73
380.68	1071.97
380.87	912.81
381.07	1048.56
381.26	999.41
381.46	964.30
381.65	992.39
381.85	1083.67
382.04	1053.24
382.24	1107.07
382.43	1083.67
382.63	1083.67
382.83	1158.57
383.02	1074.31
383.22	1188.99
383.41	1055.58
383.61	1062.60
383.80	1041.54
384.00	1071.97
384.19	1121.12
384.39	1179.63
384.58	1107.07
384.78	1170.27
384.97	1153.88
385.17	1214.74
385.36	1116.44
385.56	1191.33
385.75	1217.08
385.95	1139.84
386.14	1170.27
386.34	1200.69
386.53	1151.54
386.72	1198.35
386.92	1186.65
387.11	1261.55
387.31	1306.02
387.50	1277.93
387.70	1263.89
387.89	1210.06
388.09	1263.89
388.28	1235.80
388.48	1296.66
388.67	1366.87
388.86	1327.08
389.06	1331.76
389.25	1310.70
389.45	1373.89
389.64	1355.17
389.84	1343.47
390.03	1420.71
390.22	1296.66
390.42	1306.02
390.61	1355.17
390.81	1413.68
391.00	1376.24
391.19	1486.24
391.39	1493.26
391.58	1486.24
391.78	1409.00
391.97	1444.11
392.16	1535.39
392.36	1521.35
392.55	1558.80
392.75	1563.48
392.94	1537.73
393.13	1497.94
393.33	1516.67
393.52	1462.83
393.71	1591.56
393.91	1526.03
394.10	1600.93
394.29	1570.50
394.49	1666.46
394.68	1638.38
394.88	1605.61
395.07	1750.72
395.26	1614.97
395.46	1612.63
395.65	1652.42
395.84	1612.63
396.04	1776.47
396.23	1790.51
396.42	1729.66
396.62	1806.89
396.81	1827.96
397.00	1832.64
397.19	1837.32
397.39	1860.73
397.58	1898.17
397.77	1755.40
397.97	1865.41
398.16	1888.81
398.35	1888.81
398.55	1830.30
398.74	1825.62
398.93	1898.17
399.12	1977.75
399.32	1902.86
399.51	1888.81
399.70	2017.54
399.90	1991.80
400.09	1963.71
400.28	2078.40
400.47	1970.73
400.67	2153.29
400.86	2134.57
401.05	2066.69
401.24	2125.21
401.44	2146.27
401.63	2083.08
401.82	2155.63
402.01	2204.78
402.21	2097.12
402.40	2141.59
402.59	2176.70
402.78	2200.10
402.97	2204.78
403.17	2382.67
403.36	2242.23
403.55	2190.74
403.74	2441.18
403.93	2415.43
404.13	2284.36
404.32	2375.64
404.51	2345.22
404.70	2375.64
404.89	2476.29
405.09	2434.16
405.28	2509.05
405.47	2462.24
405.66	2544.16
405.85	2525.44
406.05	2499.69
406.24	2614.38
406.43	2525.44
406.62	2581.61
406.81	2700.98
407.00	2565.23
407.20	2576.93
407.39	2616.72
407.58	2675.23
407.77	2810.98
407.96	2710.34
408.15	2640.12
408.34	2679.91
408.54	2825.03
408.73	2757.15
408.92	2834.39
409.11	3005.25
409.30	2857.79
409.49	2764.17
409.68	3009.93
409.87	2991.20
410.07	3016.95
410.26	3012.27
410.45	2944.39
410.64	2932.69
410.83	3028.65
411.02	3087.17
411.21	3229.94
411.40	3073.12
411.59	3276.75
411.78	3229.94
411.98	3241.64
412.17	3281.43
412.36	3433.57
412.55	3382.07
412.74	3438.25
412.93	3379.73
413.12	3297.81
413.31	3604.42
413.50	3578.68
413.69	3463.99
413.88	3590.38
414.07	3627.83
414.26	3550.59
414.45	3604.42
414.64	3700.39
414.83	3768.26
415.02	3765.92
415.22	3826.78
415.41	3871.25
415.60	3817.41
415.79	3812.73
415.98	3922.74
416.17	4070.19
416.36	3843.16
416.55	4004.66
416.74	3983.59
416.93	4004.66
417.12	4067.85
417.31	4191.90
417.50	4280.84
417.69	4348.72
417.88	4411.91
418.07	4241.05
418.26	4278.50
418.45	4414.25
418.64	4348.72
418.83	4407.23
419.02	4430.63
419.21	4353.40
419.39	4484.47
419.58	4423.61
419.77	4535.96
419.96	4573.41
420.15	4500.85
420.34	4648.30
420.53	4461.06
420.72	4601.49
420.91	4741.93
421.10	4908.10
421.29	4905.76
421.48	4578.09
421.67	4887.04
421.86	4882.36
422.05	4779.37
422.24	4669.37
422.43	4767.67
422.61	4924.49
422.80	4912.78
422.99	4973.64
423.18	5006.41
423.37	5013.43
423.56	4957.25
423.75	4910.44
423.94	4975.98
424.13	4664.69
424.32	4737.24
424.50	5137.48
424.69	5135.14
424.88	5055.56
425.07	4851.93
425.26	4983.00
425.45	5074.28
425.64	5104.71
425.83	4990.02
426.01	4994.70
426.20	5097.69
426.39	5102.37
426.58	4912.78
426.77	5050.88
426.96	5172.58
427.15	4961.94
427.33	5163.22
427.52	4980.66
427.71	5210.03
427.90	5249.82
428.09	5252.16
428.28	5373.87
428.46	5146.84
428.65	5294.29
428.84	5577.50
429.03	5568.13
429.22	5315.36
429.40	5495.58
429.59	5439.40
429.78	5334.08
429.97	5235.78
430.16	5458.13
430.34	5699.20
430.53	5605.58
430.72	5696.86
430.91	5671.12
431.10	5617.29
431.28	5790.49
431.47	5834.96
431.66	5942.62
431.85	5696.86
432.03	5830.27
432.22	5741.33
432.41	5998.79
432.60	5912.19
432.79	5954.32
432.97	6043.26
433.16	6012.84
433.35	5916.87
433.54	6080.71
433.72	6200.08
433.91	6235.19
434.10	6251.57
434.28	5982.41
434.47	6239.87
434.66	6300.72
434.85	6143.91
435.03	6356.90
435.22	6289.02
435.41	6593.29
435.59	6490.31
435.78	6588.61
435.97	6506.69
436.16	6340.51
436.34	6516.05
436.53	6392.00
436.72	6654.14
436.90	6429.45
437.09	6712.66
437.28	6480.94
437.46	6579.25
437.65	6647.12
437.84	6607.33
438.02	6890.54
438.21	6731.38
438.40	6780.53
438.58	6747.76
438.77	7054.37
438.96	6946.71
439.14	7133.95
439.33	7077.78
439.52	7007.56
439.70	7382.05
439.89	7236.94
440.08	7255.66
440.26	7358.64
440.45	7253.32
440.63	7428.86
440.82	7494.40
441.01	7527.16
441.19	7707.38
441.38	7723.77
441.57	7721.43
441.75	7595.04
441.94	7918.03
442.12	7908.67
442.31	8028.04
442.50	8065.49
442.68	7873.56
442.87	7981.23
443.05	8184.85
443.24	8184.85
443.43	8081.87
443.61	8030.38
443.80	8189.53
443.98	8063.15
444.17	7815.05
444.35	8198.90
444.54	8250.39
444.73	8212.94
444.91	8217.62
445.10	8301.88
445.28	8285.50
445.47	8397.84
445.65	8159.11
445.84	8449.33
446.02	8423.59
446.21	8203.58
446.39	8428.27
446.58	8692.75
446.77	8454.02
446.95	8306.56
447.14	8201.24
447.32	8608.49
447.51	8418.91
447.69	8489.12
447.88	8451.67
448.06	8521.89
448.25	8468.06
448.43	8685.73
448.62	8636.58
448.80	8376.78
448.99	8648.28
449.17	8802.75
449.36	8688.07
449.54	8748.92
449.73	8901.06
449.91	8938.51
450.10	8924.46
450.28	8975.95
450.46	9233.41
450.65	9050.85
450.83	9001.70
451.02	8950.21
451.20	9275.54
451.39	9170.22
451.57	9268.52
451.76	9020.42
451.94	9287.25
452.13	9432.36
452.31	9336.40
452.49	9057.87
452.68	9462.79
452.86	9282.56
453.05	9338.74
453.23	9495.55
453.42	9390.23
453.60	9549.39
453.78	9540.02
453.97	9495.55
454.15	9392.57
454.34	9434.70
454.52	9626.62
454.70	9905.15
454.89	9509.60
455.07	9753.01
455.26	9720.24
455.44	9933.23
455.62	9848.97
455.81	10045.58
455.99	9975.36
456.17	9987.07
456.36	10064.30
456.54	10003.45
456.73	10443.47
456.91	10595.61
457.09	10497.30
457.28	10516.03
457.46	10160.27
457.64	10663.48
457.83	10525.39
458.01	10471.56
458.19	10726.68
458.38	10394.32
458.56	10595.61
458.74	10569.86
458.93	10546.45
459.11	10518.37
459.29	10986.47
459.48	10782.85
459.66	10829.66
459.84	10888.17
460.03	10899.87
460.21	10864.77
460.39	11187.76
460.57	11105.84
460.76	11054.35
460.94	11201.80
461.12	10874.13
461.31	11152.65
461.49	11192.44
461.67	11131.59
461.85	11459.26
462.04	11499.05
462.22	11908.65
462.40	11473.31
462.59	11489.69
462.77	11587.99
462.95	11566.93
463.13	11646.51
463.32	11386.71
463.50	11613.74
463.68	11770.55
463.86	11896.94
464.05	11758.85
464.23	11885.24
464.41	11808.00
464.59	11531.82
464.78	12149.72
464.96	11971.84
465.14	11789.28
465.32	11918.01
465.50	12198.87
465.69	12196.53
465.87	11960.14
466.05	12187.17
466.23	12105.25
466.41	12105.25
466.60	12503.14
466.78	12266.75
466.96	12079.50
467.14	12102.91
467.32	12315.90
467.51	12615.49
467.69	12278.45
467.87	12482.08
468.05	12578.04
468.23	12507.82
468.41	12301.86
468.60	12718.47
468.78	12769.96
468.96	12659.96
469.14	12812.09
469.32	12784.01
469.50	12545.27
469.69	13149.13
469.87	13095.30
470.05	13109.34
470.23	12971.25
470.41	12992.31
470.59	13146.79
470.77	13022.74
470.95	13069.55
471.14	13319.99
471.32	13177.22
471.50	13561.06
471.68	13584.47
471.86	13710.86
472.04	13446.38
472.22	14092.37
472.40	13603.19
472.58	13823.20
472.77	13935.55
472.95	14059.60
473.13	14576.86
473.31	14195.35
473.49	14221.10
473.67	14120.45
473.85	14373.23
474.03	14457.49
474.21	14656.43
474.39	14452.81
474.57	14586.22
474.75	14693.88
474.93	14977.09
475.12	14803.89
475.30	15150.29
475.48	14958.36
475.66	15094.11
475.84	15161.99
476.02	15253.27
476.20	15398.38
476.38	15672.23
476.56	16042.03
476.74	15845.43
476.92	16107.57
477.10	15815.00
477.28	16140.33
477.46	16004.58
477.64	16334.60
477.82	16596.74
478.00	16915.05
478.18	16578.01
478.36	16856.54
478.54	16987.61
478.72	17214.64
478.90	17324.65
479.08	17561.04
479.26	17685.09
479.44	17362.09
479.62	17816.16
479.80	18082.98
479.98	18024.47
480.16	18558.11
480.34	18359.16
480.52	18574.49
480.70	18441.08
480.88	18345.12
481.06	18740.67
481.24	18714.92
481.41	19286.01
481.59	19356.23
481.77	19246.23
481.95	19321.12
482.13	19417.08
482.31	19620.71
482.49	20393.09
482.67	20086.48
482.85	20622.46
483.03	20842.47
483.21	20919.71
483.39	21034.39
483.57	20884.60
483.74	21076.52
483.92	21102.27
484.10	21511.86
484.28	21844.22
484.46	21600.80
484.64	22230.41
484.82	21832.52
485.00	22345.09
485.18	22621.28
485.35	23040.23
485.53	22618.94
485.71	23070.66
485.89	23328.12
486.07	23295.35
486.25	23119.81
486.43	23594.94
486.61	23744.73
486.78	23960.06
486.96	24187.10
487.14	24531.15
487.32	24563.92
487.50	24702.01
487.68	24805.00
487.85	25151.40
488.03	25724.83
488.21	25813.77
488.39	25373.75
488.57	26228.04
488.75	26106.34
488.92	26520.61
489.10	26415.29
489.28	26553.38
489.46	27030.85
489.64	27108.08
489.81	27496.61
489.99	27316.39
490.17	27555.13
490.35	28086.43
490.53	27950.68
490.70	28491.34
490.88	28519.43
491.06	28416.44
491.24	28797.95
491.41	29048.39
491.59	29027.32
491.77	29303.51
491.95	29221.59
492.13	29631.18
492.30	30012.69
492.48	30045.46
492.66	29883.96
492.84	29855.87
493.01	30773.36
493.19	30520.59
493.37	30958.27
493.54	31119.76
493.72	31653.40
493.90	31194.66
494.08	31936.61
494.25	31803.20
494.43	32280.67
494.61	32107.47
494.79	32304.07
494.96	32514.72
495.14	32575.58
495.32	33303.48
495.49	33043.68
495.67	32950.06
495.85	33244.97
496.02	33813.72
496.20	33757.55
496.38	33977.56
496.55	33883.94
496.73	34550.99
496.91	34349.70
497.09	34639.93
497.26	34553.33
497.44	34885.68
497.62	35351.45
497.79	36060.63
497.97	35166.55
498.14	35573.80
498.32	36383.63
498.50	36208.09
498.67	36364.90
498.85	36086.38
499.03	36350.86
499.20	36924.29
499.38	36779.18
499.56	37123.24
499.73	37191.11
499.91	37165.37
500.08	37439.21
500.26	36882.16
500.44	37783.27
500.61	37919.02
500.79	37741.14
500.97	37858.17
501.14	38621.18
501.32	38082.86
501.49	38225.63
501.67	38522.88
501.84	38469.04
502.02	38808.42
502.20	38876.30
502.37	39103.33
502.55	39140.78
502.72	39096.31
502.90	39702.51
503.07	39349.09
503.25	39412.28
503.43	39419.30
503.60	39707.19
503.78	39948.26
503.95	40304.02
504.13	40657.45
504.30	40650.42
504.48	40605.95
504.65	40627.02
504.83	41027.25
505.01	41118.53
505.18	41186.41
505.36	41670.90
505.53	41467.27
505.71	41270.67
505.88	41923.68
506.06	41720.05
506.23	41869.84
506.41	41741.11
506.58	42230.29
506.76	42021.98
506.93	42429.23
507.11	42323.91
507.28	42546.26
507.46	42850.53
507.63	42906.70
507.81	42845.85
507.98	42621.16
508.16	42983.94
508.33	43267.14
508.50	43356.08
508.68	43650.99
508.85	43725.89
509.03	43690.78
509.20	43372.47
509.38	44086.33
509.55	44116.76
509.73	44140.16
509.90	44474.86
510.08	44245.49
510.25	44390.60
510.42	44893.82
510.60	44746.36
510.77	45001.48
510.95	45214.47
511.12	45071.70
511.30	45041.27
511.47	44980.42
511.64	45624.06
511.82	45397.03
511.99	45610.02
512.17	46003.23
512.34	45645.13
512.51	46040.68
512.69	46024.29
512.86	46028.98
513.04	46710.07
513.21	46438.57
513.38	46504.10
513.56	47040.09
513.73	46754.54
513.90	46731.14
514.08	46190.47
514.25	47196.90
514.43	47175.84
514.60	47290.52
514.77	47229.67
514.95	47576.07
515.12	47543.30
515.29	47304.57
515.47	47826.51
515.64	47945.87
515.81	47564.37
515.99	48238.44
516.16	48278.23
516.33	48278.23
516.51	48521.65
516.68	48301.64
516.85	48100.35
517.03	48416.32
517.20	48802.51
517.37	49055.29
517.54	48645.69
517.72	48741.66
517.89	49027.20
518.06	48839.96
518.24	49017.84
518.41	49155.93
518.58	49336.15
518.75	49134.87
518.93	49404.03
519.10	49064.65
519.27	49886.18
519.45	49755.11
519.62	49492.97
519.79	49771.49
519.96	49745.75
520.14	50202.15
520.31	49895.54
520.48	50401.10
520.65	50178.75
520.83	50576.64
521.00	50417.48
521.17	50377.69
521.34	50618.77
521.52	50855.16
521.69	50897.29
521.86	50700.68
522.03	50923.04
522.20	51126.66
522.38	51297.52
522.55	51569.02
522.72	51058.79
522.89	51129.00
523.07	51662.64
523.24	51400.50
523.41	51459.02
523.58	51466.04
523.75	51592.43
523.92	51672.01
524.10	51866.27
524.27	51980.96
524.44	52032.45
524.61	52055.85
524.78	52095.64
524.96	52133.09
525.13	51756.27
525.30	52271.18
525.47	52449.06
525.64	52177.56
525.81	52533.32
525.98	52633.97
526.16	52542.69
526.33	52900.79
526.50	52605.88
526.67	52582.48
526.84	52931.22
527.01	52573.11
527.18	52942.92
527.36	53158.25
527.53	52828.23
527.70	53207.40
527.87	53448.47
528.04	53057.60
528.21	53310.38
528.38	53371.24
528.55	53331.45
528.72	53048.24
528.89	53581.88
529.07	53406.34
529.24	53382.94
529.41	53851.05
529.58	53579.54
529.75	53628.69
529.92	53614.65
530.09	53867.43
530.26	53752.74
530.43	53972.75
530.60	53935.30
530.77	53811.26
530.94	53977.43
531.11	53963.39
531.28	53904.88
531.46	54038.29
531.63	54246.60
531.80	54087.44
531.97	54176.38
532.14	54307.45
532.31	54422.14
532.48	54501.71
532.65	54485.33
532.82	54457.24
532.99	54574.27
533.16	54487.67
533.33	54735.77
533.50	54747.47
533.67	54684.28
533.84	54621.08
534.01	54841.09
534.18	54679.60
534.35	55164.09
534.52	55061.10
534.69	55086.85
534.86	55056.42
535.03	54859.82
535.20	55227.28
535.37	54930.03
535.54	55334.95
535.71	55168.77
535.88	55295.16
536.05	55372.39
536.22	55519.85
536.38	55440.27
536.55	55566.66
536.72	55608.79
536.89	55491.76
537.06	55611.13
537.23	55421.55
537.40	55849.86
537.57	55938.80
537.74	55650.92
537.91	55983.27
538.08	55772.63
538.25	55447.29
538.42	55779.65
538.59	56058.17
538.75	55917.74
538.92	56135.41
539.09	56130.73
539.26	55922.42
539.43	55957.53
539.60	56072.21
539.77	56444.36
539.94	56334.35
540.11	56411.59
540.28	56236.05
540.44	56516.92
540.61	56219.67
540.78	56456.06
540.95	56212.65
541.12	56133.07
541.29	56397.55
541.46	56523.94
541.62	56460.74
541.79	56626.92
541.96	56388.19
542.13	56446.70
542.30	56631.60
542.47	56830.55
542.63	56917.15
542.80	56772.03
542.97	57083.33
543.14	57090.35
543.31	57041.20
543.48	57151.20
543.64	57389.94
543.81	57326.74
543.98	57212.06
544.15	57303.34
544.32	57396.96
544.48	57560.79
544.65	57443.77
544.82	57364.19
544.99	57219.08
545.16	57532.71
545.32	57418.02
545.49	57495.26
545.66	57687.18
545.83	57513.98
546.00	57446.11
546.16	57530.37
546.33	57343.12
546.50	57368.87
546.67	57635.69
546.83	57453.13
547.00	57551.43
547.17	57642.71
547.34	57635.69
547.50	57942.30
547.67	57954.00
547.84	57907.19
548.00	58021.88
548.17	58028.90
548.34	58295.72
548.51	57970.39
548.67	58092.10
548.84	58026.56
549.01	57951.66
549.18	58117.84
549.34	58122.52
549.51	58211.46
549.68	58408.07
549.84	58347.21
550.01	58192.74
550.18	58246.57
550.34	58176.36
550.51	58384.66
550.68	58237.21
550.84	58106.14
551.01	58326.15
551.18	58190.40
551.34	58529.78
551.51	58719.36
551.68	58529.78
551.84	58609.35
552.01	58298.06
552.18	58604.67
552.34	58466.58
552.51	58667.87
552.68	58281.68
552.84	58571.91
553.01	58747.45
553.18	58599.99
553.34	58719.36
553.51	58777.87
553.67	58805.96
553.84	58880.86
554.01	58930.01
554.17	59128.95
554.34	59089.16
554.51	59199.17
554.67	58803.62
554.84	58990.86
555.00	59028.31
555.17	58960.44
555.33	59063.42
555.50	58775.53
555.67	58969.80
555.83	58852.77
556.00	58990.86
556.16	59231.94
556.33	59150.02
556.50	59131.29
556.66	59175.76
556.83	58932.35
556.99	59405.14
557.16	59327.90
557.32	59573.66
557.49	59650.89
557.65	59367.69
557.82	59269.39
557.98	59194.49
558.15	59480.03
558.32	59449.61
558.48	59213.21
558.65	59330.24
558.81	59409.82
558.98	59454.29
559.14	59451.95
559.31	59461.31
559.47	59578.34
559.64	59639.19
559.80	59526.84
559.97	59662.60
560.13	59751.54
560.30	59531.53
560.46	59625.15
560.63	59611.10
560.79	59676.64
560.96	59821.75
561.12	59543.23
561.29	59632.17
561.45	59793.67
561.61	59753.88
561.78	59693.02
561.94	59728.13
562.11	59716.43
562.27	59704.73
562.44	59868.56
562.60	60025.38
562.77	59906.01
562.93	59788.98
563.10	60369.44
563.26	59962.18
563.42	59976.23
563.59	59898.99
563.75	60041.76
563.92	59917.71
564.08	59941.12
564.24	60107.30
564.41	60184.54
564.57	59887.29
564.74	60046.44
564.90	60009.00
565.07	60025.38
565.23	59931.76
565.39	60025.38
565.56	60203.26
565.72	60111.98
565.88	60289.86
566.05	60147.09
566.21	60126.02
566.38	60369.44
566.54	60172.83
566.70	60296.88
566.87	60144.75
567.03	59997.29
567.19	60324.97
567.36	60388.16
567.52	60357.74
567.68	60392.84
567.85	60395.18
568.01	60640.94
568.17	60250.07
568.34	60278.16
568.50	60444.33
568.66	60133.04
568.83	60292.20
568.99	60116.66
569.15	60224.32
569.32	60285.18
569.48	60280.50
569.64	60439.65
569.81	60334.33
569.97	60339.01
570.13	60294.54
570.30	60200.92
570.46	60322.63
570.62	60491.15
570.78	60441.99
570.95	60467.74
571.11	60505.19
571.27	60306.24
571.43	60439.65
571.60	60622.22
571.76	60640.94
571.92	60432.63
572.09	60411.57
572.25	60287.52
572.41	60385.82
572.57	60439.65
572.74	60694.77
572.90	60509.87
573.06	60617.53
573.22	60601.15
573.38	60556.68
573.55	60486.46
573.71	60533.28
573.87	60561.36
574.03	60449.02
574.20	60748.60
574.36	60549.66
574.52	60694.77
574.68	60687.75
574.84	60704.13
575.01	60823.50
575.17	60537.96
575.33	60371.78
575.49	60575.40
575.65	60673.71
575.82	60502.85
575.98	60643.28
576.14	60882.02
576.30	60860.95
576.46	60556.68
576.62	60849.25
576.79	60498.17
576.95	60598.81
577.11	60790.73
577.27	60795.42
577.43	60685.41
577.59	60615.19
577.75	60786.05
577.92	60622.22
578.08	60846.91
578.24	60708.82
578.40	60790.73
578.56	60926.49
578.72	60739.24
578.88	60858.61
579.04	61048.19
579.21	61010.74
579.37	61095.00
579.53	60945.21
579.69	60647.96
579.85	60800.10
580.01	60797.76
580.17	60622.22
580.33	60898.40
580.49	60947.55
580.65	60952.23
580.82	60821.16
580.98	60699.45
581.14	60680.73
581.30	60987.34
581.46	60856.27
581.62	60764.99
581.78	60739.24
581.94	61029.47
582.10	60783.71
582.26	60690.09
582.42	60638.60
582.58	60980.32
582.74	60889.04
582.90	60856.27
583.06	60903.08
583.22	60797.76
583.38	60823.50
583.54	60917.12
583.70	60851.59
583.86	61069.26
584.02	60769.67
584.18	61080.96
584.34	60790.73
584.50	60842.23
584.66	60781.37
584.82	60914.78
584.98	60980.32
585.14	61006.06
585.30	60874.99
585.46	61095.00
585.62	61144.16
585.78	61001.38
585.94	60800.10
586.10	60898.40
586.26	60968.61
586.42	61200.33
586.58	61123.09
586.74	60825.84
586.90	60872.65
587.06	61062.24
587.22	61097.34
587.38	60928.83
587.54	61073.94
587.70	61099.68
587.86	60924.14
588.02	61113.73
588.18	60999.04
588.34	60942.87
588.49	60994.36
588.65	61015.43
588.81	61013.08
588.97	61085.64
589.13	61001.38
589.29	61038.83
589.45	61286.93
589.61	61235.44
589.77	61506.94
589.93	61324.38
590.08	61277.57
590.24	61221.39
590.40	61488.21
590.56	61352.46
590.72	61214.37
590.88	61181.60
591.04	61235.44
591.20	61322.04
591.35	61282.25
591.51	61591.20
591.67	61422.68
591.83	61399.27
591.99	61228.41
592.15	61282.25
592.31	61441.40
592.46	61286.93
592.62	61286.93
592.78	61396.93
592.94	61373.53
593.10	61389.91
593.26	61563.11
593.41	61389.91
593.57	61408.64
593.73	61436.72
593.89	61659.07
594.05	61474.17
594.20	61298.63
594.36	61743.33
594.52	61546.73
594.68	61244.80
594.84	61368.85
594.99	61432.04
595.15	61361.82
595.31	61518.64
595.47	61357.14
595.62	61544.39
595.78	61645.03
595.94	61410.98
596.10	61586.52
596.25	61509.28
596.41	61621.62
596.57	61443.74
596.73	61539.71
596.88	61600.56
597.04	61530.34
597.20	61684.82
597.36	61652.05
597.51	61764.40
597.67	61553.75
597.83	61380.55
597.99	61502.26
598.14	61565.45
598.30	61570.13
598.46	61485.87
598.61	61537.36
598.77	61429.70
598.93	61607.58
599.09	61619.28
599.24	61937.60
599.40	61567.79
599.56	61719.93
599.71	61879.08
599.87	61886.10
600.03	61755.03
600.18	61621.62
600.34	61628.65
600.50	61577.15
600.65	61668.44
600.81	61757.38
600.97	61748.01
601.12	61740.99
601.28	61471.83
601.44	61581.84
601.59	61570.13
601.75	61556.09
601.91	61794.82
602.06	61642.69
602.22	61825.25
602.37	61848.66
602.53	61656.73
602.69	61719.93
602.84	61745.67
603.00	61961.00
603.16	61654.39
603.31	61759.72
603.47	61710.56
603.62	61630.99
603.78	61806.53
603.94	61654.39
604.09	61743.33
604.25	61528.00
604.40	61668.44
604.56	61900.15
604.71	62012.49
604.87	61635.67
605.03	61783.12
605.18	61729.29
605.34	61984.41
605.49	61469.49
605.65	61797.16
605.80	61829.93
605.96	61586.52
606.12	61848.66
606.27	61787.80
606.43	61649.71
606.58	62026.54
606.74	61609.92
606.89	61701.20
607.05	61897.81
607.20	61717.59
607.36	61542.05
607.51	61560.77
607.67	61595.88
607.82	61467.15
607.98	61776.10
608.13	61806.53
608.29	61591.20
608.44	61652.05
608.60	61595.88
608.75	61633.33
608.91	61523.32
609.06	61310.33
609.22	61661.41
609.37	61546.73
609.53	61469.49
609.68	61745.67
609.84	61619.28
609.99	61422.68
610.15	61598.22
610.30	61595.88
610.46	61572.47
610.61	61347.78
610.76	61523.32
610.92	61502.26
611.07	61530.34
611.23	61387.57
611.38	61654.39
611.54	61354.80
611.69	61511.62
611.84	61340.76
612.00	61591.20
612.15	61413.32
612.31	61427.36
612.46	61481.19
612.62	61523.32
612.77	61235.44
612.92	61633.33
613.08	61352.46
613.23	61333.74
613.39	61296.29
613.54	61214.37
613.69	61525.66
613.85	61354.80
614.00	61542.05
614.15	61638.01
614.31	61436.72
614.46	61488.21
614.62	61160.54
614.77	61329.06
614.92	61623.96
615.08	61336.08
615.23	61375.87
615.38	61254.16
615.54	61368.85
615.69	61343.10
615.84	61251.82
616.00	61272.88
616.15	61300.97
616.30	61408.64
616.46	61214.37
616.61	60914.78
616.76	61300.97
616.92	61200.33
617.07	61235.44
617.22	61235.44
617.37	61045.85
617.53	61441.40
617.68	61436.72
617.83	61219.05
617.99	61158.20
618.14	61146.50
618.29	61315.01
618.45	61310.33
618.60	60931.17
618.75	60863.29
618.90	61043.51
619.06	61057.56
619.21	61013.08
619.36	61254.16
619.51	61144.16
619.67	61020.11
619.82	60954.57
619.97	61123.09
620.12	61109.05
620.28	61020.11
620.43	61024.79
620.58	60907.76
620.73	60783.71
620.89	61073.94
621.04	60977.98
621.19	60853.93
621.34	60970.96
621.49	60788.39
621.65	60935.85
621.80	60839.89
621.95	60760.31
622.10	60739.24
622.25	61087.98
622.41	60910.10
622.56	60619.88
622.71	60720.52
622.86	60575.40
623.01	60610.51
623.16	60722.86
623.32	60701.79
623.47	60828.18
623.62	60781.37
623.77	60711.16
623.92	60846.91
624.07	60727.54
624.23	60687.75
624.38	60762.65
624.53	60575.40
624.68	60552.00
624.83	60495.83
624.98	60713.50
625.13	60413.91
625.29	60610.51
625.44	60811.80
625.59	60427.95
625.74	60542.64
625.89	60453.70
626.04	60226.66
626.19	60411.57
626.34	60350.71
626.49	60233.69
626.65	60264.11
626.80	60556.68
626.95	60212.62
627.10	60224.32
627.25	60339.01
627.40	60196.24
627.55	60205.60
627.70	60395.18
627.85	60285.18
628.00	60409.23
628.15	60250.07
628.30	60266.45
628.45	60116.66
628.60	60200.92
628.76	60289.86
628.91	60282.84
629.06	60301.56
629.21	60252.41
629.36	60090.91
629.51	60109.64
629.66	59992.61
629.81	60011.34
629.96	59688.34
630.11	59978.57
630.26	59994.95
630.41	60238.37
630.56	59770.26
630.71	59941.12
630.86	60130.70
631.01	60009.00
631.16	60083.89
631.31	59917.71
631.46	59515.14
631.61	59931.76
631.76	60044.10
631.91	59934.10
632.06	60172.83
632.21	59845.16
632.36	59758.56
632.51	59494.08
632.66	59969.21
632.81	59756.22
632.96	59849.84
633.10	59845.16
633.25	59983.25
633.40	59767.92
633.55	59884.95
633.70	59585.36
633.85	59671.96
634.00	59503.44
634.15	59671.96
634.30	59746.86
634.45	59803.03
634.60	59868.56
634.75	59594.72
634.90	59564.29
635.05	59744.51
635.19	59463.65
635.34	59650.89
635.49	59494.08
635.64	59531.53
635.79	59611.10
635.94	59583.02
636.09	59449.61
636.24	59313.86
636.39	59618.13
636.53	59648.55
636.68	59489.40
636.83	59412.16
636.98	59526.84
637.13	59494.08
637.28	59370.03
637.43	59379.39
637.57	59503.44
637.72	59374.71
637.87	59288.11
638.02	59374.71
638.17	59236.62
638.32	59405.14
638.46	59281.09
638.61	59182.79
638.76	59339.60
638.91	59213.21
639.06	59220.23
639.20	59114.91
639.35	59320.88
639.50	59103.21
639.65	59257.68
639.80	59297.47
639.94	59262.36
640.09	59084.48
640.24	59028.31
640.39	59007.25
640.54	58925.33
640.68	59166.40
640.83	59096.19
640.98	59098.53
641.13	58864.47
641.27	59260.02
641.42	59138.32
641.57	58969.80
641.72	58962.78
641.86	58684.25
642.01	58726.38
642.16	58684.25
642.31	58637.44
642.45	59072.78
642.60	58892.56
642.75	59049.38
642.90	58960.44
643.04	58705.32
643.19	58609.35
643.34	58698.30
643.48	58930.01
643.63	58901.92
643.78	58798.94
643.93	58766.17
644.07	58782.55
644.22	58489.99
644.37	58389.34
644.51	58382.32
644.66	58780.21
644.81	58539.14
644.95	58728.72
645.10	58752.13
645.25	58312.11
645.39	58372.96
645.54	58454.88
645.69	58515.73
645.83	58663.19
645.98	58415.09
646.13	58630.42
646.27	58281.68
646.42	58447.86
646.57	58426.79
646.71	58450.20
646.86	58635.10
647.00	58555.52
647.15	58494.67
647.30	58415.09
647.44	58426.79
647.59	58375.30
647.74	58361.26
647.88	58389.34
648.03	58426.79
648.17	58529.78
648.32	58117.84
648.47	58375.30
648.61	58134.23
648.76	58323.81
648.90	58370.62
649.05	58033.58
649.20	58183.38
649.34	58335.51
649.49	58326.15
649.63	58506.37
649.78	58384.66
649.92	58436.16
650.07	58244.23
650.21	58255.93
650.36	58092.10
650.51	57881.45
650.65	58284.02
650.80	57888.47
650.94	58078.05
651.09	57757.40
651.23	57783.15
651.38	57909.53
651.52	57956.35
651.67	57724.63
651.81	57834.64
651.96	57956.35
652.10	57951.66
652.25	57811.23
652.39	57670.80
652.54	57780.81
652.68	57918.90
652.83	57565.48
652.97	57600.58
653.12	57729.31
653.26	57851.02
653.41	57972.73
653.55	57757.40
653.70	57916.56
653.84	57705.91
653.99	57623.99
654.13	57586.54
654.27	57612.29
654.42	57509.30
654.56	57743.36
654.71	57539.73
654.85	57642.71
655.00	57757.40
655.14	57455.47
655.29	57471.85
655.43	57453.13
655.57	57513.98
655.72	57485.90
655.86	57425.04
656.01	57504.62
656.15	57289.29
656.30	57467.17
656.44	57504.62
656.58	57462.49
656.73	57619.31
656.87	57457.81
657.01	57434.41
657.16	57392.28
657.30	57088.01
657.45	57095.03
657.59	57258.87
657.73	57120.77
657.88	56750.97
658.02	57034.17
658.16	57151.20
658.31	57048.22
658.45	56987.36
658.60	57258.87
658.74	57097.37
658.88	57008.43
659.03	56793.10
659.17	56893.74
659.31	56797.78
659.46	57118.43
659.60	57085.67
659.74	56807.14
659.89	56743.95
660.03	56795.44
660.17	56863.32
660.32	56879.70
660.46	56657.35
660.60	56790.76
660.74	56547.34
660.89	57036.51
661.03	56547.34
661.17	56243.07
661.32	56175.20
661.46	56488.83
661.60	56580.11
661.74	56214.99
661.89	56259.46
662.03	56378.82
662.17	56214.99
662.31	56453.72
662.46	56390.53
662.60	55980.93
662.74	55908.38
662.88	55908.38
663.03	55798.37
663.17	55833.48
663.31	55922.42
663.45	56006.68
663.60	55760.92
663.74	55501.12
663.88	55791.35
664.02	55891.99
664.17	56013.70
664.31	55475.38
664.45	55639.22
664.59	55688.37
664.73	55543.25
664.88	55615.81
665.02	55201.53
665.16	55264.73
665.30	55379.42
665.44	55360.69
665.59	55192.17
665.73	55536.23
665.87	55028.34
666.01	55447.29
666.15	55384.10
666.29	55311.54
666.44	55414.52
666.58	54913.65
666.72	54829.39
666.86	54915.99
667.00	54946.42
667.14	54915.99
667.28	54932.37
667.43	54735.77
667.57	54660.87
667.71	54628.10
667.85	54541.50
667.99	54527.46
668.13	54466.61
668.27	54265.32
668.41	54321.49
668.56	54124.89
668.70	54087.44
668.84	54113.19
668.98	53750.40
669.12	54157.66
669.26	54087.44
669.40	54475.97
669.54	54258.30
669.68	53869.77
669.82	53944.67
669.96	54019.56
670.10	53958.71
670.25	53874.45
670.39	53914.24
670.53	53642.74
670.67	53609.97
670.81	53942.33
670.95	53701.25
671.09	53570.18
671.23	53492.94
671.37	53233.14
671.51	53392.30
671.65	53326.77
671.79	53088.03
671.93	53031.86
672.07	53244.85
672.21	52868.02
672.35	52760.36
672.49	52495.88
672.63	52786.10
672.77	52575.45
672.91	52615.24
673.05	52271.18
673.19	52484.17
673.33	52177.56
673.47	51964.57
673.61	52374.17
673.75	52191.61
673.89	51812.44
674.03	52095.64
674.17	52011.38
674.31	51660.30
674.45	51697.75
674.59	51807.76
674.73	51880.31
674.87	51580.73
675.01	51695.41
675.15	51360.72
675.29	51622.86
675.43	51388.80
675.56	51072.83
675.70	51065.81
675.84	50775.58
675.98	50244.28
676.12	51243.69
676.26	50958.14
676.40	50686.64
676.54	50595.36
676.68	50583.66
676.82	50157.68
676.96	50197.47
677.10	49984.48
677.23	50052.36
677.37	49642.76
677.51	49682.55
677.65	49474.24
677.79	48769.74
677.93	48626.97
678.07	49315.09
678.21	49022.52
678.34	48655.06
678.48	48683.14
678.62	48765.06
678.76	48563.78
678.90	48367.17
679.04	48451.43
679.18	48633.99
679.31	47952.90
679.45	47765.65
679.59	48442.07
679.73	48069.92
679.87	47585.43
680.00	47320.95
680.14	47110.30
680.28	47295.21
680.42	46794.33
680.56	46850.50
680.70	46272.39
680.83	46464.32
680.97	46651.56
681.11	46789.65
681.25	46459.63
681.39	46164.73
681.52	45965.78
681.66	46143.66
681.80	45914.29
681.94	45490.65
682.07	45790.24
682.21	45544.48
682.35	45645.13
682.49	45280.00
682.62	44994.46
682.76	45558.53
682.90	44795.51
683.04	44900.84
683.17	44638.70
683.31	44184.63
683.45	44617.63
683.59	44095.69
683.72	43821.85
683.86	43765.68
684.00	43929.51
684.13	44156.55
684.27	43812.49
684.41	43672.06
684.55	43592.48
684.68	43189.91
684.82	42834.14
684.96	43145.44
685.09	42539.24
685.23	42712.44
685.37	42333.27
685.50	42288.80
685.64	42583.71
685.78	42139.00
685.91	42141.35
686.05	41675.58
686.19	40914.90
686.32	41057.68
686.46	40708.94
686.60	40854.05
686.73	40935.97
686.87	40451.48
687.01	40797.88
687.14	40851.71
687.28	40521.69
687.42	40128.48
687.55	40308.71
687.69	40292.32
687.82	39555.05
687.96	39629.95
688.10	39491.86
688.23	39431.01
688.37	39585.48
688.50	39051.84
688.64	38895.02
688.78	38345.00
688.91	38129.67
689.05	39164.18
689.18	38251.38
689.32	37134.94
689.46	37787.95
689.59	37706.03
689.73	37516.45
689.86	37425.17
690.00	37326.86
690.13	37443.89
690.27	37469.64
690.41	37230.90
690.54	36833.01
690.68	36907.91
690.81	36882.16
690.95	36332.14
691.08	36334.48
691.22	36219.79
691.35	35744.66
691.49	36673.85
691.62	36044.25
691.76	35550.40
691.89	35466.14
692.03	35405.28
692.16	34937.18
692.30	35023.78
692.43	35262.51
692.57	34721.85
692.70	34265.44
692.84	34588.44
692.97	34637.59
693.11	34539.29
693.24	34202.25
693.38	34246.72
693.51	33572.64
693.65	33626.48
693.78	33282.42
693.92	33521.15
694.05	32840.06
694.19	32950.06
694.32	32762.82
694.45	32685.58
694.59	32388.33
694.72	32540.47
694.86	32149.60
694.99	31955.33
695.13	31868.73
695.26	31934.27
695.39	31447.44
695.53	31952.99
695.66	31835.97
695.80	31470.84
695.93	30829.54
696.07	30859.96
696.20	30761.66
696.33	30443.35
696.47	30581.44
696.60	30590.80
696.73	30616.55
696.87	30342.70
697.00	29912.05
697.14	30352.07
697.27	29780.98
697.40	29858.21
697.54	29961.20
697.67	29467.34
697.80	29387.77
697.94	28975.83
698.07	28842.42
698.21	28830.72
698.34	29233.29
698.47	28826.04
698.61	28198.77
698.74	28404.74
698.87	28477.30
699.01	28130.90
699.14	28355.59
699.27	27878.12
699.40	28175.37
699.54	27702.58
699.67	27365.54
699.80	27449.80
699.94	27566.83
700.07	27494.27
700.20	26806.16
700.34	26867.01
700.47	26368.48
700.60	26389.54
700.73	26450.39
700.87	25968.24
701.00	26115.70
701.13	25898.03
701.26	25795.04
701.40	25792.70
701.53	25579.71
701.66	25507.16
701.79	25303.53
701.93	25450.99
702.06	25043.73
702.19	24919.68
702.32	25149.06
702.46	24727.76
702.59	24259.65
702.72	24135.60
702.85	24294.76
702.99	24650.52
703.12	24208.16
703.25	23910.91
703.38	23864.10
703.51	23606.64
703.65	23396.00
703.78	23435.78
703.91	23501.32
704.04	23302.37
704.17	23555.15
704.31	22977.04
704.44	22602.55
704.57	23044.91
704.70	22595.53
704.83	22508.93
704.96	22345.09
705.10	22148.49
705.23	22132.11
>>>>>End Processed Spectral Data<<<<<
