SpectraSuite Data File
++++++++++++++++++++++++++++++++++++
Date: Fri Oct 25 11:22:28 EDT 2013
User: price-jones
Dark Spectrum Present: No
Reference Spectrum Present: No
Number of Sampled Component Spectra: 1
Spectrometers: USB2+H05261
Integration Time (usec): 100000 (USB2+H05261)
Spectra Averaged: 1 (USB2+H05261)
Boxcar Smoothing: 0 (USB2+H05261)
Correct for Electrical Dark: No (USB2+H05261)
Strobe/Lamp Enabled: No (USB2+H05261)
Correct for Detector Non-linearity: No (USB2+H05261)
Correct for Stray Light: No (USB2+H05261)
Number of Pixels in Processed Spectrum: 2048
>>>>>Begin Processed Spectral Data<<<<<
365.73	297.25
365.92	297.25
366.12	297.25
366.32	152.13
366.52	163.84
366.72	191.92
366.91	135.75
367.11	140.43
367.31	95.96
367.51	95.96
367.70	133.41
367.90	147.45
368.10	154.48
368.30	74.90
368.49	91.28
368.69	168.52
368.89	205.97
369.09	131.07
369.28	203.63
369.48	133.41
369.68	203.63
369.87	238.73
370.07	184.90
370.27	229.37
370.47	322.99
370.66	557.05
370.86	645.99
371.06	720.88
371.25	706.84
371.45	601.52
371.65	660.03
371.84	653.01
372.04	695.14
372.24	718.54
372.44	713.86
372.63	725.57
372.83	697.48
373.03	798.12
373.22	695.14
373.42	814.51
373.62	774.72
373.81	805.14
374.01	870.68
374.21	788.76
374.40	798.12
374.60	861.32
374.79	828.55
374.99	833.23
375.19	835.57
375.38	835.57
375.58	835.57
375.78	891.74
375.97	840.25
376.17	856.64
376.37	821.53
376.56	924.51
376.76	802.80
376.95	851.96
377.15	940.90
377.35	877.70
377.54	891.74
377.74	919.83
377.93	943.24
378.13	947.92
378.33	994.73
378.52	884.72
378.72	987.71
378.91	947.92
379.11	844.93
379.31	901.11
379.50	943.24
379.70	938.55
379.89	903.45
380.09	1013.45
380.28	943.24
380.48	1025.15
380.68	1046.22
380.87	1050.90
381.07	1036.86
381.26	1041.54
381.46	997.07
381.65	1057.92
381.85	1050.90
382.04	1032.18
382.24	1102.39
382.43	1086.01
382.63	1069.62
382.83	1114.10
383.02	1039.20
383.22	1153.88
383.41	1046.22
383.61	1097.71
383.80	1102.39
384.00	1081.33
384.19	1193.67
384.39	1137.50
384.58	1196.01
384.78	1034.52
384.97	1163.25
385.17	1086.01
385.36	1146.86
385.56	1188.99
385.75	1174.95
385.95	1179.63
386.14	1303.68
386.34	1179.63
386.53	1174.95
386.72	1205.38
386.92	1217.08
387.11	1200.69
387.31	1167.93
387.50	1181.97
387.70	1313.04
387.89	1252.19
388.09	1146.86
388.28	1301.34
388.48	1270.91
388.67	1394.96
388.86	1338.79
389.06	1348.15
389.25	1301.34
389.45	1399.64
389.64	1275.59
389.84	1373.89
390.03	1348.15
390.22	1474.54
390.42	1306.02
390.61	1423.05
390.81	1418.36
391.00	1430.07
391.19	1385.60
391.39	1460.49
391.58	1441.77
391.78	1434.75
391.97	1486.24
392.16	1504.96
392.36	1556.46
392.55	1502.62
392.75	1490.92
392.94	1570.50
393.13	1565.82
393.33	1516.67
393.52	1582.20
393.71	1526.03
393.91	1579.86
394.10	1626.67
394.29	1593.90
394.49	1549.43
394.68	1673.48
394.88	1673.48
395.07	1678.16
395.26	1732.00
395.46	1701.57
395.65	1710.93
395.84	1729.66
396.04	1877.11
396.23	1680.50
396.42	1750.72
396.62	1790.51
396.81	1764.76
397.00	1818.60
397.19	1797.53
397.39	1802.21
397.58	1919.24
397.77	1785.83
397.97	2010.52
398.16	1755.40
398.35	1842.00
398.55	1792.85
398.74	1930.94
398.93	2029.24
399.12	1893.49
399.32	1884.13
399.51	1952.01
399.70	1968.39
399.90	1973.07
400.09	2111.16
400.28	2080.74
400.47	2010.52
400.67	2134.57
400.86	2012.86
401.05	2052.65
401.24	2111.16
401.44	2132.23
401.63	2076.06
401.82	2181.38
402.01	2230.53
402.21	2216.49
402.40	2256.28
402.59	2104.14
402.78	2242.23
402.97	2228.19
403.17	2307.77
403.36	2270.32
403.55	2298.41
403.74	2413.09
403.93	2211.81
404.13	2422.45
404.32	2300.75
404.51	2342.88
404.70	2406.07
404.89	2450.54
405.09	2506.71
405.28	2544.16
405.47	2537.14
405.66	2562.89
405.85	2530.12
406.05	2607.36
406.24	2626.08
406.43	2628.42
406.62	2635.44
406.81	2644.81
407.00	2569.91
407.20	2548.84
407.39	2700.98
407.58	2719.70
407.77	2729.06
407.96	2731.41
408.15	2682.25
408.34	2689.28
408.54	2871.84
408.73	2764.17
408.92	2939.71
409.11	2871.84
409.30	2965.46
409.49	3103.55
409.68	3061.42
409.87	2956.10
410.07	3084.83
410.26	3070.78
410.45	2949.08
410.64	3138.66
410.83	3150.36
411.02	3253.34
411.21	3108.23
411.40	3232.28
411.59	3218.24
411.78	3187.81
411.98	3187.81
412.17	3199.51
412.36	3433.57
412.55	3405.48
412.74	3571.66
412.93	3459.31
413.12	3370.37
413.31	3620.81
413.50	3431.23
413.69	3529.53
413.88	3452.29
414.07	3705.07
414.26	3623.15
414.45	3782.31
414.64	3714.43
414.83	3758.90
415.02	3913.38
415.22	3819.75
415.41	3896.99
415.60	3922.74
415.79	3868.91
415.98	3887.63
416.17	4152.11
416.36	3948.48
416.55	4039.76
416.74	4056.15
416.93	4102.96
417.12	4210.62
417.31	4194.24
417.50	4315.95
417.69	4365.10
417.88	4348.72
418.07	4273.82
418.26	4442.34
418.45	4416.59
418.64	4599.15
418.83	4482.13
419.02	4531.28
419.21	4620.22
419.39	4566.39
419.58	4442.34
419.77	4491.49
419.96	4695.11
420.15	4624.90
420.34	4681.07
420.53	4683.41
420.72	4709.16
420.91	4760.65
421.10	4814.48
421.29	4849.59
421.48	4767.67
421.67	4826.18
421.86	4821.50
422.05	4835.55
422.24	4788.74
422.43	4952.57
422.61	4919.81
422.80	5060.24
422.99	4880.02
423.18	4987.68
423.37	5153.86
423.56	5018.11
423.75	4943.21
423.94	4847.25
424.13	4819.16
424.32	4865.97
424.50	5083.64
424.69	5100.03
424.88	5210.03
425.07	4975.98
425.26	4784.06
425.45	4975.98
425.64	4994.70
425.83	5125.77
426.01	5135.14
426.20	5179.61
426.39	5102.37
426.58	5137.48
426.77	4980.66
426.96	5142.16
427.15	5203.01
427.33	5362.17
427.52	5193.65
427.71	5252.16
427.90	5296.63
428.09	5266.21
428.28	5481.53
428.46	5549.41
428.65	5366.85
428.84	5610.26
429.03	5612.60
429.22	5533.03
429.40	5530.69
429.59	5624.31
429.78	5406.64
429.97	5331.74
430.16	5397.28
430.34	5591.54
430.53	5720.27
430.72	5741.33
430.91	5760.06
431.10	5579.84
431.28	5870.06
431.47	5849.00
431.66	5919.21
431.85	5809.21
432.03	5980.07
432.22	5900.49
432.41	5919.21
432.60	6003.47
432.79	6038.58
432.97	6073.69
433.16	6120.50
433.35	6101.78
433.54	6228.17
433.72	6162.63
433.91	6092.41
434.10	6225.82
434.28	6167.31
434.47	6120.50
434.66	6326.47
434.85	6375.62
435.03	6504.35
435.22	6160.29
435.41	6546.48
435.59	6401.37
435.78	6464.56
435.97	6478.60
436.16	6305.40
436.34	6303.06
436.53	6434.13
436.72	6722.02
436.90	6401.37
437.09	6736.06
437.28	6696.27
437.46	6726.70
437.65	6731.38
437.84	6981.82
438.02	6846.07
438.21	6799.26
438.40	6717.34
438.58	7033.31
438.77	6974.80
438.96	6986.50
439.14	7356.30
439.33	7061.40
439.52	7162.04
439.70	7363.33
439.89	7398.43
440.08	7435.88
440.26	7473.33
440.45	7258.00
440.63	7447.58
440.82	7770.58
441.01	7754.19
441.19	7655.89
441.38	7768.24
441.57	7789.30
441.75	7836.11
441.94	8063.15
442.12	7990.59
442.31	8086.55
442.50	8037.40
442.68	8079.53
442.87	8030.38
443.05	8255.07
443.24	8430.61
443.43	8124.00
443.61	8262.09
443.80	8479.76
443.98	8065.49
444.17	7737.81
444.35	8198.90
444.54	8287.84
444.73	8465.72
444.91	8463.38
445.10	8566.36
445.28	8428.27
445.47	8468.06
445.65	8318.26
445.84	8531.25
446.02	8430.61
446.21	8292.52
446.39	8304.22
446.58	8610.83
446.77	8638.92
446.95	8416.57
447.14	8437.63
447.32	8540.61
447.51	8578.06
447.69	8622.53
447.88	8669.34
448.06	8779.35
448.25	8641.26
448.43	8526.57
448.62	8606.15
448.80	8791.05
448.99	8737.22
449.17	8786.37
449.36	8676.37
449.54	8994.68
449.73	9076.60
449.91	9022.77
450.10	8997.02
450.28	9188.94
450.46	9231.07
450.65	9095.32
450.83	9057.87
451.02	8966.59
451.20	9298.95
451.39	9146.81
451.57	9217.03
451.76	9088.30
451.94	9312.99
452.13	9401.93
452.31	9205.33
452.49	9301.29
452.68	9514.28
452.86	9495.55
453.05	9568.11
453.23	9799.82
453.42	9474.49
453.60	9432.36
453.78	9495.55
453.97	9537.68
454.15	9533.00
454.34	9643.01
454.52	9727.27
454.70	9797.48
454.89	10059.62
455.07	9977.70
455.26	9776.42
455.44	10118.14
455.62	10036.22
455.81	10202.40
455.99	10244.52
456.17	10183.67
456.36	10104.09
456.54	10160.27
456.73	10174.31
456.91	10583.90
457.09	10389.64
457.28	10504.32
457.46	10501.98
457.64	10729.02
457.83	10661.14
458.01	10354.53
458.19	10782.85
458.38	10729.02
458.56	10799.23
458.74	10778.17
458.93	10850.72
459.11	10724.33
459.29	10820.30
459.48	11009.88
459.66	10824.98
459.84	10932.64
460.03	11316.49
460.21	11150.31
460.39	11052.01
460.57	11316.49
460.76	11321.17
460.94	11204.14
461.12	11489.69
461.31	11522.46
461.49	11407.77
461.67	11194.78
461.85	11651.19
462.04	11234.57
462.22	11770.55
462.40	11712.04
462.59	11735.45
462.77	11641.82
462.95	11726.08
463.13	12037.38
463.32	11658.21
463.50	11903.96
463.68	11826.73
463.86	12135.68
464.05	11758.85
464.23	11660.55
464.41	12194.19
464.59	11854.81
464.78	11943.75
464.96	12453.99
465.14	11936.73
465.32	12187.17
465.50	12191.85
465.69	12259.73
465.87	12292.49
466.05	12287.81
466.23	12301.86
466.41	12538.25
466.60	12388.46
466.78	12381.43
466.96	12498.46
467.14	12339.30
467.32	12409.52
467.51	12655.28
467.69	12404.84
467.87	12802.73
468.05	12865.92
468.23	12666.98
468.41	12615.49
468.60	12622.51
468.78	12821.45
468.96	12716.13
469.14	12910.40
469.32	13078.91
469.50	12798.05
469.69	12978.27
469.87	13345.73
470.05	13446.38
470.23	13610.22
470.41	13259.13
470.59	13610.22
470.77	13586.81
470.95	13696.82
471.14	13703.84
471.32	13317.65
471.50	13685.11
471.68	13947.25
471.86	13907.46
472.04	13755.33
472.22	14300.67
472.40	13797.46
472.58	14033.85
472.77	14171.94
472.95	14373.23
473.13	14731.33
473.31	14174.28
473.49	14061.94
473.67	14249.18
473.85	14597.92
474.03	14970.07
474.21	15042.62
474.39	14883.47
474.57	14944.32
474.75	15131.56
474.93	15126.88
475.12	15171.35
475.30	15279.02
475.48	15126.88
475.66	15419.45
475.84	15316.47
476.02	15580.95
476.20	15662.86
476.38	15775.21
476.56	16271.40
476.74	16283.11
476.92	16016.29
477.10	16070.12
477.28	16350.98
477.46	16383.75
477.64	16601.42
477.82	16641.21
478.00	17034.42
478.18	17057.82
478.36	17212.30
478.54	17193.58
478.72	17404.22
478.90	17671.04
479.08	17652.32
479.26	17907.44
479.44	17987.02
479.62	17675.73
479.80	18223.41
479.98	18621.30
480.16	18661.09
480.34	18508.96
480.52	18686.84
480.70	18902.17
480.88	18728.97
481.06	19201.76
481.24	19021.53
481.41	19260.27
481.59	19768.16
481.77	19756.46
481.95	19655.82
482.13	20018.60
482.31	20081.80
482.49	20306.49
482.67	20563.95
482.85	20592.03
483.03	20821.41
483.21	20912.69
483.39	21149.08
483.57	20959.50
483.74	21551.65
483.92	21846.56
484.10	21397.18
484.28	22059.55
484.46	22019.76
484.64	22717.24
484.82	22338.07
485.00	22410.63
485.18	22719.58
485.35	23250.88
485.53	23077.68
485.71	23248.54
485.89	23992.83
486.07	23576.22
486.25	23768.14
486.43	23880.49
486.61	24098.16
486.78	24121.56
486.96	24458.60
487.14	24744.14
487.32	24851.81
487.50	24863.51
487.68	25078.84
487.85	25586.74
488.03	26001.01
488.21	26288.90
488.39	26146.12
488.57	26206.98
488.75	26452.73
488.92	26951.27
489.10	27192.34
489.28	27138.51
489.46	27742.37
489.64	27274.26
489.81	27880.46
489.99	27831.31
490.17	28386.02
490.35	28608.37
490.53	28568.58
490.70	28837.74
490.88	28563.90
491.06	29546.92
491.24	29083.50
491.41	29546.92
491.59	29701.40
491.77	29652.25
491.95	29954.18
492.13	30663.36
492.30	30504.20
492.48	30462.07
492.66	30422.28
492.84	30841.24
493.01	30906.77
493.19	30944.22
493.37	31316.37
493.54	31489.57
493.72	31796.18
493.90	31875.76
494.08	32315.78
494.25	32325.14
494.43	32498.34
494.61	32622.39
494.79	33083.47
494.96	32879.85
495.14	33130.28
495.32	33638.18
495.49	33778.61
495.67	33457.96
495.85	34202.25
496.02	34122.67
496.20	34174.16
496.38	34630.57
496.55	34300.55
496.73	35468.48
496.91	34836.53
497.09	35016.75
497.26	35274.21
497.44	35299.96
497.62	35569.12
497.79	36250.22
497.97	35782.11
498.14	36407.03
498.32	36999.19
498.50	36580.23
498.67	37074.09
498.85	36987.49
499.03	37427.51
499.20	37546.87
499.38	37141.96
499.56	37668.58
499.73	37654.54
499.91	37532.83
500.08	38249.03
500.26	38148.39
500.44	38169.46
500.61	38436.28
500.79	38155.41
500.97	38462.02
501.14	39353.77
501.32	39100.99
501.49	39054.18
501.67	38969.92
501.84	39409.94
502.02	39234.40
502.20	39442.71
502.37	39910.82
502.55	39826.56
502.72	39833.58
502.90	40163.59
503.07	39793.79
503.25	40126.14
503.43	40158.91
503.60	40978.10
503.78	40779.15
503.95	40402.33
504.13	41256.62
504.30	40982.78
504.48	41003.85
504.65	40886.82
504.83	41944.74
505.01	41701.32
505.18	41525.78
505.36	42148.37
505.53	41535.15
505.71	42258.37
505.88	42511.15
506.06	41975.17
506.23	42387.10
506.41	42405.83
506.58	42604.77
506.76	42567.32
506.93	42361.36
507.11	42930.11
507.28	43007.34
507.46	43213.31
507.63	43295.23
507.81	43510.56
507.98	43075.22
508.16	43805.47
508.33	43896.75
508.50	43489.49
508.68	44243.15
508.85	44369.54
509.03	44318.04
509.20	44554.44
509.38	44643.38
509.55	45191.06
509.73	45326.81
509.90	45404.05
510.08	45102.12
510.25	45106.80
510.42	45151.27
510.60	45385.33
510.77	46014.93
510.95	46157.70
511.12	45801.94
511.30	45787.90
511.47	45834.71
511.64	45743.43
511.82	46115.58
511.99	46160.05
512.17	46653.90
512.34	46160.05
512.51	46672.62
512.69	47229.67
512.86	47063.49
513.04	47208.61
513.21	47274.14
513.38	47365.42
513.56	47379.46
513.73	47299.89
513.90	47306.91
514.08	47330.31
514.25	47751.61
514.43	47793.74
514.60	47821.83
514.77	47952.90
514.95	48219.72
515.12	48121.41
515.29	48039.50
515.47	48002.05
515.64	48573.14
515.81	48446.75
515.99	48580.16
516.16	48839.96
516.33	48460.79
516.51	49595.95
516.68	48760.38
516.85	48968.69
517.03	49169.97
517.20	49352.54
517.37	49399.35
517.54	49242.53
517.72	49670.85
517.89	49347.86
518.06	49991.50
518.24	49813.62
518.41	49689.57
518.58	49951.71
518.75	49612.34
518.93	50164.70
519.10	49720.00
519.27	50316.84
519.45	50356.63
519.62	50497.06
519.79	50443.23
519.96	50501.74
520.14	50705.37
520.31	50555.57
520.48	50775.58
520.65	51007.29
520.83	51044.74
521.00	51262.41
521.17	51002.61
521.34	50829.41
521.52	51227.31
521.69	51166.45
521.86	51297.52
522.03	51489.45
522.20	51632.22
522.38	51915.42
522.55	51625.20
522.72	51772.65
522.89	51873.29
523.07	51861.59
523.24	51892.02
523.41	52245.44
523.58	51739.88
523.75	52580.13
523.92	52215.01
524.10	52329.70
524.27	52484.17
524.44	52598.86
524.61	52428.00
524.78	52442.04
524.96	52456.09
525.13	52814.19
525.30	52996.75
525.47	52746.31
525.64	52907.81
525.81	53188.67
525.98	53088.03
526.16	53408.68
526.33	53099.73
526.50	53450.81
526.67	53104.41
526.84	53396.98
527.01	53029.52
527.18	53272.93
527.36	53228.46
527.53	53396.98
527.70	53741.04
527.87	53727.00
528.04	53612.31
528.21	53778.49
528.38	53766.79
528.55	53656.78
528.72	53797.21
528.89	53677.85
529.07	53549.12
529.24	53722.32
529.41	54108.50
529.58	54206.81
529.75	54064.03
529.92	54064.03
530.09	54092.12
530.26	54464.27
530.43	54501.71
530.60	54347.24
530.77	54344.90
530.94	54394.05
531.11	54391.71
531.28	54468.95
531.46	54466.61
531.63	54536.82
531.80	54646.83
531.97	55025.99
532.14	54733.43
532.31	55086.85
532.48	55070.46
532.65	55159.41
532.82	54710.02
532.99	55192.17
533.16	54646.83
533.33	55105.57
533.50	55505.80
533.67	54953.44
533.84	55021.31
534.01	55278.77
534.18	55386.44
534.35	55641.56
534.52	55657.94
534.69	55594.74
534.86	55648.58
535.03	55388.78
535.20	55620.49
535.37	55838.16
535.54	55807.73
535.71	55751.56
535.88	55723.47
536.05	55859.23
536.22	55702.41
536.38	55831.14
536.55	55861.57
536.72	56023.06
536.89	55824.12
537.06	56065.19
537.23	56151.79
537.40	55959.87
537.57	55997.32
537.74	56296.91
537.91	56247.75
538.08	56292.22
538.25	56172.86
538.42	56123.71
538.59	56416.27
538.75	56266.48
538.92	56451.38
539.09	56570.75
539.26	56509.89
539.43	56324.99
539.60	56467.76
539.77	56566.07
539.94	56839.91
540.11	56781.40
540.28	56872.68
540.44	56938.21
540.61	56584.79
540.78	56704.16
540.95	56652.67
541.12	56748.63
541.29	56704.16
541.46	56664.37
541.62	56917.15
541.79	56884.38
541.96	56573.09
542.13	56863.32
542.30	56992.04
542.47	57083.33
542.63	57282.27
542.80	57406.32
542.97	57258.87
543.14	57471.85
543.31	57581.86
543.48	57485.90
543.64	57673.14
543.81	57523.35
543.98	57495.26
544.15	57736.34
544.32	57462.49
544.48	58162.31
544.65	57513.98
544.82	57574.84
544.99	57432.07
545.16	57764.42
545.32	57972.73
545.49	58136.57
545.66	58103.80
545.83	57794.85
546.00	58124.86
546.16	58122.52
546.33	57914.22
546.50	57851.02
546.67	58007.84
546.83	57743.36
547.00	58145.93
547.17	58225.51
547.34	58223.17
547.50	58218.49
547.67	58176.36
547.84	58525.10
548.00	58415.09
548.17	58506.37
548.34	58487.65
548.51	58532.12
548.67	58642.12
548.84	58326.15
549.01	58497.01
549.18	58358.92
549.34	58597.65
549.51	58454.88
549.68	58698.30
549.84	58571.91
550.01	58557.86
550.18	58843.41
550.34	58487.65
550.51	58665.53
550.68	58866.81
550.84	58618.72
551.01	59112.57
551.18	58763.83
551.34	58997.88
551.51	58653.82
551.68	58841.07
551.84	58805.96
552.01	58717.02
552.18	58845.75
552.34	58815.32
552.51	59332.58
552.68	58981.50
552.84	59107.89
553.01	59306.83
553.18	59187.47
553.34	59072.78
553.51	59047.04
553.67	59030.65
553.84	59461.31
554.01	59295.13
554.17	59206.19
554.34	59442.59
554.51	59241.30
554.67	59384.07
554.84	59297.47
555.00	59133.63
555.17	59433.22
555.33	59185.13
555.50	59157.04
555.67	59463.65
555.83	59498.76
556.00	59421.52
556.16	59545.57
556.33	59568.97
556.50	59400.46
556.66	59798.35
556.83	59458.97
556.99	59653.23
557.16	59737.49
557.32	59824.09
557.49	59842.82
557.65	59671.96
557.82	59779.62
557.98	59840.48
558.15	59760.90
558.32	59877.93
558.48	59737.49
558.65	59913.03
558.81	59840.48
558.98	59728.13
559.14	59880.27
559.31	59959.84
559.47	60058.15
559.64	60116.66
559.80	60065.17
559.97	59927.08
560.13	59927.08
560.30	59742.17
560.46	60212.62
560.63	60186.88
560.79	60116.66
560.96	60137.72
561.12	60184.54
561.29	60313.26
561.45	60158.79
561.61	59994.95
561.78	59966.87
561.94	60013.68
562.11	60088.57
562.27	60130.70
562.44	60264.11
562.60	60308.58
562.77	60301.56
562.93	60212.62
563.10	60353.05
563.26	60172.83
563.42	60383.48
563.59	60451.36
563.75	60278.16
563.92	60221.98
564.08	60137.72
564.24	60577.75
564.41	60423.27
564.57	60390.50
564.74	60313.26
564.90	60547.32
565.07	60364.76
565.23	60243.05
565.39	60388.16
565.56	60371.78
565.72	60446.68
565.88	60654.98
566.05	60390.50
566.21	60544.98
566.38	60294.54
566.54	60449.02
566.70	60591.79
566.87	60676.05
567.03	60533.28
567.19	60853.93
567.36	60750.94
567.52	60491.15
567.68	60706.47
567.85	60762.65
568.01	60430.29
568.17	60568.38
568.34	60657.32
568.50	60727.54
568.66	60446.68
568.83	60891.38
568.99	60650.30
569.15	60734.56
569.32	60626.90
569.48	60622.22
569.64	60818.82
569.81	60748.60
569.97	60636.26
570.13	60685.41
570.30	60610.51
570.46	60776.69
570.62	60858.61
570.78	60739.24
570.95	60666.69
571.11	60928.83
571.27	60905.42
571.43	60903.08
571.60	60935.85
571.76	60790.73
571.92	60896.06
572.09	60786.05
572.25	60767.33
572.41	60961.59
572.57	60910.10
572.74	61010.74
572.90	60722.86
573.06	61022.45
573.22	60963.93
573.38	60825.84
573.55	60966.27
573.71	60851.59
573.87	60956.91
574.03	60783.71
574.20	60809.46
574.36	60790.73
574.52	60903.08
574.68	61219.05
574.84	61118.41
575.01	61221.39
575.17	61038.83
575.33	61050.53
575.49	60898.40
575.65	61095.00
575.82	60989.68
575.98	60963.93
576.14	61097.34
576.30	61057.56
576.46	60851.59
576.62	61059.90
576.79	61113.73
576.95	60968.61
577.11	61017.77
577.27	61080.96
577.43	61095.00
577.59	61024.79
577.75	60886.70
577.92	60968.61
578.08	60994.36
578.24	61015.43
578.40	61254.16
578.56	61352.46
578.72	61219.05
578.88	61263.52
579.04	61212.03
579.21	60982.66
579.37	61289.27
579.53	61333.74
579.69	61176.92
579.85	61179.26
580.01	61092.66
580.17	61134.79
580.33	61193.31
580.49	61197.99
580.65	61069.26
580.82	61167.56
580.98	60987.34
581.14	61188.63
581.30	61212.03
581.46	61216.71
581.62	61190.97
581.78	61240.12
581.94	61116.07
582.10	60994.36
582.26	61298.63
582.42	61148.84
582.58	61085.64
582.74	61207.35
582.90	61312.67
583.06	61282.25
583.22	61160.54
583.38	61303.31
583.54	61446.08
583.70	61279.91
583.86	61286.93
584.02	61261.18
584.18	61427.36
584.34	61254.16
584.50	61183.94
584.66	61097.34
584.82	60980.32
584.98	61209.69
585.14	61382.89
585.30	61153.52
585.46	61277.57
585.62	61439.06
585.78	61347.78
585.94	61015.43
586.10	61284.59
586.26	61401.61
586.42	61333.74
586.58	61235.44
586.74	61385.23
586.90	61380.55
587.06	61141.81
587.22	61506.94
587.38	61364.17
587.54	61483.53
587.70	61415.66
587.86	61434.38
588.02	61329.06
588.18	61504.60
588.34	61633.33
588.49	61535.02
588.65	61202.67
588.81	61420.34
588.97	61410.98
589.13	61511.62
589.29	61546.73
589.45	61616.94
589.61	61570.13
589.77	61783.12
589.93	61553.75
590.08	61574.81
590.24	61584.18
590.40	61633.33
590.56	61759.72
590.72	61731.63
590.88	61382.89
591.04	61572.47
591.20	61769.08
591.35	61708.22
591.51	61961.00
591.67	61740.99
591.83	61619.28
591.99	61600.56
592.15	61694.18
592.31	61668.44
592.46	61785.46
592.62	61649.71
592.78	61638.01
592.94	61701.20
593.10	61743.33
593.26	61888.45
593.41	61776.10
593.57	61635.67
593.73	61670.78
593.89	61928.23
594.05	61787.80
594.20	61717.59
594.36	61881.42
594.52	61806.53
594.68	61790.14
594.84	61677.80
594.99	61907.17
595.15	61563.11
595.31	61881.42
595.47	61738.65
595.62	61776.10
595.78	61855.68
595.94	61703.54
596.10	61925.89
596.25	61813.55
596.41	61860.36
596.57	61670.78
596.73	61785.46
596.88	61691.84
597.04	61904.83
597.20	62012.49
597.36	61977.39
597.51	62199.74
597.67	61977.39
597.83	61797.16
597.99	61773.76
598.14	61843.98
598.30	62047.60
598.46	61916.53
598.61	62117.82
598.77	62185.69
598.93	61949.30
599.09	61860.36
599.24	62035.90
599.40	62131.86
599.56	62003.13
599.71	62045.26
599.87	62117.82
600.03	61881.42
600.18	62054.62
600.34	61909.51
600.50	61944.62
600.65	61841.63
600.81	62033.56
600.97	62089.73
601.12	62014.83
601.28	61942.28
601.44	61993.77
601.59	61902.49
601.75	61956.32
601.91	62241.87
602.06	62195.06
602.22	62099.09
602.37	61986.75
602.53	62038.24
602.69	62141.22
602.84	61968.02
603.00	61942.28
603.16	62178.67
603.31	62099.09
603.47	62035.90
603.62	61958.66
603.78	62031.22
603.94	62169.31
604.09	62209.10
604.25	61869.72
604.40	61872.06
604.56	61989.09
604.71	62124.84
604.87	61998.45
605.03	62000.79
605.18	62026.54
605.34	62199.74
605.49	61703.54
605.65	62033.56
605.80	62056.96
605.96	62192.72
606.12	61982.07
606.27	61998.45
606.43	61993.77
606.58	62129.52
606.74	62005.47
606.89	61996.11
607.05	62068.67
607.20	62071.01
607.36	62026.54
607.51	61895.47
607.67	61766.74
607.82	61897.81
607.98	61836.95
608.13	61900.15
608.29	61925.89
608.44	61937.60
608.60	61855.68
608.75	61984.41
608.91	61951.64
609.06	61696.52
609.22	62099.09
609.37	61785.46
609.53	62071.01
609.68	61956.32
609.84	61909.51
609.99	61958.66
610.15	61911.85
610.30	61961.00
610.46	61921.21
610.61	61883.76
610.76	61834.61
610.92	61858.02
611.07	61626.31
611.23	61640.35
611.38	61979.73
611.54	61909.51
611.69	62047.60
611.84	61921.21
612.00	61975.05
612.15	61649.71
612.31	61932.92
612.46	61645.03
612.62	61834.61
612.77	61780.78
612.92	61916.53
613.08	61712.91
613.23	61853.34
613.39	61696.52
613.54	61457.79
613.69	61815.89
613.85	61724.61
614.00	61755.03
614.15	61736.31
614.31	61518.64
614.46	61860.36
614.62	61647.37
614.77	61593.54
614.92	61558.43
615.08	61565.45
615.23	61483.53
615.38	61677.80
615.54	61413.32
615.69	61614.60
615.84	61846.32
616.00	61612.26
616.15	61609.92
616.30	61815.89
616.46	61530.34
616.61	61549.07
616.76	61738.65
616.92	61513.96
617.07	61476.51
617.22	61361.82
617.37	61446.08
617.53	61698.86
617.68	61715.25
617.83	61490.55
617.99	61670.78
618.14	61478.85
618.29	61715.25
618.45	61322.04
618.60	61410.98
618.75	61352.46
618.90	61389.91
619.06	61609.92
619.21	61623.96
619.36	61633.33
619.51	61331.40
619.67	61041.17
619.82	61380.55
619.97	61396.93
620.12	61190.97
620.28	61181.60
620.43	61504.60
620.58	61272.88
620.73	61080.96
620.89	61326.72
621.04	61368.85
621.19	61293.95
621.34	61329.06
621.49	61193.31
621.65	61202.67
621.80	61453.11
621.95	61125.43
622.10	61226.07
622.25	61212.03
622.41	61181.60
622.56	61057.56
622.71	61258.84
622.86	61048.19
623.01	61017.77
623.16	61095.00
623.32	61102.03
623.47	61181.60
623.62	61190.97
623.77	61151.18
623.92	61209.69
624.07	61139.47
624.23	61123.09
624.38	61095.00
624.53	60874.99
624.68	60996.70
624.83	60975.64
624.98	61132.45
625.13	60739.24
625.29	61134.79
625.44	61001.38
625.59	60849.25
625.74	60821.16
625.89	60764.99
626.04	60617.53
626.19	60790.73
626.34	60743.92
626.49	60788.39
626.65	60652.64
626.80	60858.61
626.95	60772.01
627.10	60608.17
627.25	60624.56
627.40	60427.95
627.55	60444.33
627.70	60544.98
627.85	60697.11
628.00	60598.81
628.15	60741.58
628.30	60610.51
628.45	60692.43
628.60	60481.78
628.76	60367.10
628.91	60624.56
629.06	60734.56
629.21	60542.64
629.36	60512.21
629.51	60388.16
629.66	60446.68
629.81	60488.80
629.96	60107.30
630.11	60226.66
630.26	60591.79
630.41	60465.40
630.56	60219.64
630.71	60449.02
630.86	60310.92
631.01	60301.56
631.16	60273.48
631.31	60196.24
631.46	60114.32
631.61	60285.18
631.76	60343.69
631.91	60383.48
632.06	60296.88
632.21	60355.39
632.36	60179.85
632.51	60018.36
632.66	60191.56
632.81	59971.55
632.96	60458.38
633.10	60137.72
633.25	60210.28
633.40	60074.53
633.55	60067.51
633.70	60058.15
633.85	59980.91
634.00	59913.03
634.15	59901.33
634.30	59945.80
634.45	60329.65
634.60	60224.32
634.75	60203.26
634.90	59859.20
635.05	59924.74
635.19	60009.00
635.34	60278.16
635.49	59796.01
635.64	60067.51
635.79	60137.72
635.94	60020.70
636.09	59994.95
636.24	59681.32
636.39	59643.87
636.53	59898.99
636.68	59891.97
636.83	59686.00
636.98	59884.95
637.13	59723.45
637.28	59683.66
637.43	59690.68
637.57	59711.75
637.72	59700.04
637.87	59880.27
638.02	59620.47
638.17	59945.80
638.32	59601.74
638.46	59636.85
638.61	59772.60
638.76	59386.41
638.91	59578.34
639.06	59510.46
639.20	59449.61
639.35	59498.76
639.50	59430.88
639.65	59559.61
639.80	59529.19
639.94	59407.48
640.09	59145.34
640.24	59571.32
640.39	59414.50
640.54	59274.07
640.68	59585.36
640.83	59482.37
640.98	59374.71
641.13	59367.69
641.27	59716.43
641.42	59281.09
641.57	59257.68
641.72	59316.20
641.86	59271.73
642.01	59227.26
642.16	59566.63
642.31	59276.41
642.45	59547.91
642.60	59077.46
642.75	59334.92
642.90	59269.39
643.04	59229.60
643.19	59199.17
643.34	59105.55
643.48	59213.21
643.63	59215.55
643.78	59164.06
643.93	59114.91
644.07	59089.16
644.22	59124.27
644.37	59000.22
644.51	59000.22
644.66	58990.86
644.81	59145.34
644.95	59054.06
645.10	59037.67
645.25	58908.94
645.39	58782.55
645.54	58838.73
645.69	58791.92
645.83	58815.32
645.98	58740.42
646.13	58733.40
646.27	58770.85
646.42	58953.41
646.57	58707.66
646.71	58773.19
646.86	58887.88
647.00	58822.34
647.15	58908.94
647.30	58660.85
647.44	58742.77
647.59	58899.58
647.74	58869.15
647.88	58791.92
648.03	58927.67
648.17	58829.37
648.32	58564.88
648.47	58506.37
648.61	58731.06
648.76	58754.47
648.90	58562.54
649.05	58410.41
649.20	58981.50
649.34	58688.93
649.49	58508.71
649.63	58576.59
649.78	58567.23
649.92	58358.92
650.07	58492.33
650.21	58309.77
650.36	58358.92
650.51	58347.21
650.65	58688.93
650.80	58733.40
650.94	58337.85
651.09	58323.81
651.23	58129.54
651.38	58291.04
651.52	58354.24
651.67	58260.62
651.81	58136.57
651.96	57949.32
652.10	58230.19
652.25	58159.97
652.39	58234.87
652.54	57937.62
652.68	57998.48
652.83	58110.82
652.97	58131.89
653.12	58152.95
653.26	58085.07
653.41	58286.36
653.55	58286.36
653.70	57961.03
653.84	58080.39
653.99	58162.31
654.13	58101.46
654.27	58012.52
654.42	57958.69
654.56	58031.24
654.71	57897.83
654.85	58122.52
655.00	57921.24
655.14	58103.80
655.29	57563.14
655.43	57794.85
655.57	57867.40
655.72	57808.89
655.86	57851.02
656.01	57769.10
656.15	57738.68
656.30	57797.19
656.44	57811.23
656.58	57904.85
656.73	57698.89
656.87	57825.28
657.01	57822.93
657.16	57799.53
657.30	57836.98
657.45	57607.61
657.59	57602.92
657.73	57338.44
657.88	57378.23
658.02	57502.28
658.16	57689.52
658.31	57373.55
658.45	57366.53
658.60	57359.51
658.74	57521.01
658.88	57626.33
659.03	57371.21
659.17	57270.57
659.31	57275.25
659.46	57223.76
659.60	57162.90
659.74	57055.24
659.89	57113.75
660.03	56912.47
660.17	57090.35
660.32	57205.03
660.46	57031.83
660.60	56903.10
660.74	56868.00
660.89	57200.35
661.03	56837.57
661.17	56521.60
661.32	56598.83
661.46	56816.50
661.60	57003.75
661.74	56732.25
661.89	56669.05
662.03	56729.90
662.17	56488.83
662.31	56570.75
662.46	56687.78
662.60	56643.30
662.74	56409.25
662.88	56303.93
663.03	56257.12
663.17	56566.07
663.31	56093.28
663.45	56193.92
663.60	56289.88
663.74	55964.55
663.88	56023.06
664.02	55884.97
664.17	56142.43
664.31	56067.53
664.45	56083.92
664.59	55934.12
664.73	55952.85
664.88	55880.29
665.02	55540.91
665.16	55697.73
665.30	55599.43
665.44	55587.72
665.59	55360.69
665.73	55564.32
665.87	55646.24
666.01	55536.23
666.15	55604.11
666.29	55632.19
666.44	55599.43
666.58	55267.07
666.72	55227.28
666.86	55283.45
667.00	55283.45
667.14	54862.16
667.28	55042.38
667.43	55030.68
667.57	55152.38
667.71	55016.63
667.85	54911.31
667.99	54981.52
668.13	54908.97
668.27	54843.43
668.41	54808.32
668.56	54679.60
668.70	54628.10
668.84	54698.32
668.98	54623.42
669.12	54529.80
669.26	54717.04
669.40	54794.28
669.54	54653.85
669.68	54321.49
669.82	54288.73
669.96	54382.35
670.10	54082.76
670.25	54590.66
670.39	54225.53
670.53	54164.68
670.67	54089.78
670.81	54410.43
670.95	54078.08
671.09	54129.57
671.23	53918.92
671.37	54120.21
671.51	53928.28
671.65	53982.12
671.79	53708.27
671.93	53703.59
672.07	53532.73
672.21	53387.62
672.35	53212.08
672.49	53319.74
672.63	52842.27
672.77	53151.23
672.91	53347.83
673.05	53102.07
673.19	53027.18
673.33	52814.19
673.47	52748.65
673.61	52947.60
673.75	53106.76
673.89	52697.16
674.03	52378.85
674.17	52514.60
674.31	52126.07
674.45	52095.64
674.59	51999.68
674.73	52149.48
674.87	51992.66
675.01	51826.48
675.15	52114.37
675.29	52299.27
675.43	52013.73
675.56	51550.30
675.70	51456.68
675.84	51526.89
675.98	50410.46
676.12	51274.12
676.26	51704.77
676.40	51435.61
676.54	51042.40
676.68	51082.19
676.82	50335.56
676.96	50890.27
677.10	50454.93
677.23	50340.24
677.37	50560.25
677.51	50714.73
677.65	50052.36
677.79	49619.36
677.93	49628.72
678.07	49610.00
678.21	49167.63
678.34	49581.91
678.48	49523.40
678.62	49120.82
678.76	48701.87
678.90	49027.20
679.04	48788.47
679.18	49228.49
679.31	48629.31
679.45	48399.94
679.59	48568.46
679.73	48818.89
679.87	48449.09
680.00	47931.83
680.14	47868.64
680.28	47742.25
680.42	47697.78
680.56	47543.30
680.70	46787.31
680.83	47213.29
680.97	47079.88
681.11	47552.66
681.25	47145.41
681.39	47061.15
681.52	46831.78
681.66	47040.09
681.80	46445.59
681.94	46375.37
682.07	46766.24
682.21	46031.32
682.35	45813.65
682.49	45427.46
682.62	45841.73
682.76	46300.48
682.90	45972.80
683.04	45532.78
683.17	45195.74
683.31	45104.46
683.45	44896.16
683.59	44500.61
683.72	44697.21
683.86	44814.24
684.00	44669.12
684.13	44559.12
684.27	44027.82
684.41	44013.77
684.55	43917.81
684.68	44121.44
684.82	43885.04
684.96	43896.75
685.09	43430.98
685.23	43351.40
685.37	42906.70
685.50	43089.26
685.64	42927.77
685.78	42869.25
685.91	42892.66
686.05	42277.10
686.19	42057.09
686.32	41806.65
686.46	41579.62
686.60	41347.90
686.73	41879.21
686.87	41221.52
687.01	41495.36
687.14	41317.48
687.28	41155.98
687.42	41130.23
687.55	40985.12
687.69	41153.64
687.82	40563.82
687.96	40147.21
688.10	40210.40
688.23	40184.66
688.37	39885.07
688.50	39634.63
688.64	39866.34
688.78	39454.41
688.91	38815.44
689.05	38698.42
689.18	38986.30
689.32	38447.98
689.46	38319.25
689.59	38227.97
689.73	37879.23
689.86	38047.75
690.00	37975.19
690.13	38017.32
690.27	37914.34
690.41	38059.45
690.54	37720.07
690.68	36975.78
690.81	37345.59
690.95	36950.04
691.08	37069.40
691.22	36657.47
691.35	37130.26
691.49	36825.99
691.62	36795.56
691.76	36472.57
691.89	35749.34
692.03	35828.92
692.16	35756.36
692.30	35339.75
692.43	35290.60
692.57	35075.27
692.70	34986.33
692.84	35117.40
692.97	35124.42
693.11	34824.83
693.24	34623.54
693.38	34127.35
693.51	34075.86
693.65	34403.53
693.78	34181.18
693.92	33853.51
694.05	33762.23
694.19	33570.30
694.32	33612.43
694.45	33048.36
694.59	33420.51
694.72	32804.95
694.86	32545.15
694.99	32601.32
695.13	32430.46
695.26	32114.49
695.39	31873.42
695.53	31978.74
695.66	31716.60
695.80	31899.16
695.93	31218.07
696.07	31311.69
696.20	30761.66
696.33	31082.31
696.47	30934.86
696.60	30965.29
696.73	30485.48
696.87	31346.79
697.00	30565.06
697.14	30459.73
697.27	30508.88
697.40	30291.21
697.54	29977.58
697.67	29893.32
697.80	30188.23
697.94	29933.11
698.07	29869.92
698.21	29062.43
698.34	29579.69
698.47	28830.72
698.61	28664.54
698.74	28591.98
698.87	28961.79
699.01	28570.92
699.14	28376.66
699.27	28334.53
699.40	28315.80
699.54	28231.54
699.67	28151.96
699.80	28196.43
699.94	27438.10
700.07	27894.50
700.20	27510.66
700.34	27133.83
700.47	26998.08
700.60	26628.27
700.73	26672.74
700.87	26635.30
701.00	26043.14
701.13	26211.66
701.26	26216.34
701.40	26214.00
701.53	26106.34
701.66	26071.23
701.79	25448.64
701.93	25795.04
702.06	25029.69
702.19	25060.12
702.32	25209.91
702.46	24957.13
702.59	25017.99
702.72	24737.12
702.85	24765.21
702.99	24868.19
703.12	24545.20
703.25	24245.61
703.38	23936.66
703.51	23894.53
703.65	23953.04
703.78	23693.24
703.91	23330.46
704.04	23452.17
704.17	23508.34
704.31	23814.95
704.44	23143.22
704.57	23255.56
704.70	22810.86
704.83	23073.00
704.96	22789.80
705.10	22527.66
705.23	22370.84
>>>>>End Processed Spectral Data<<<<<
