SpectraSuite Data File
++++++++++++++++++++++++++++++++++++
Date: Fri Oct 25 10:48:25 EDT 2013
User: price-jones
Dark Spectrum Present: No
Reference Spectrum Present: No
Number of Sampled Component Spectra: 1
Spectrometers: USB2+H05261
Integration Time (usec): 100000 (USB2+H05261)
Spectra Averaged: 1 (USB2+H05261)
Boxcar Smoothing: 0 (USB2+H05261)
Correct for Electrical Dark: No (USB2+H05261)
Strobe/Lamp Enabled: No (USB2+H05261)
Correct for Detector Non-linearity: No (USB2+H05261)
Correct for Stray Light: No (USB2+H05261)
Number of Pixels in Processed Spectrum: 2048
>>>>>Begin Processed Spectral Data<<<<<
365.73	131.07
365.92	131.07
366.12	131.07
366.32	70.22
366.52	65.54
366.72	44.47
366.91	9.36
367.11	32.77
367.31	0.00
367.51	14.04
367.70	9.36
367.90	39.79
368.10	88.94
368.30	114.69
368.49	0.00
368.69	21.06
368.89	37.45
369.09	60.85
369.28	21.06
369.48	102.98
369.68	86.60
369.87	154.48
370.07	74.90
370.27	196.60
370.47	229.37
370.66	332.36
370.86	369.80
371.06	477.47
371.25	442.36
371.45	430.66
371.65	475.13
371.84	489.17
372.04	561.73
372.24	526.62
372.44	454.06
372.63	409.59
372.83	540.66
373.03	559.39
373.22	491.51
373.42	528.96
373.62	540.66
373.81	559.39
374.01	582.79
374.21	528.96
374.40	606.20
374.60	554.71
374.79	573.43
374.99	634.29
375.19	648.33
375.38	503.22
375.58	601.52
375.78	587.47
375.97	564.07
376.17	662.37
376.37	648.33
376.56	568.75
376.76	557.05
376.95	615.56
377.15	596.84
377.35	629.60
377.54	585.13
377.74	631.94
377.93	695.14
378.13	634.29
378.33	685.78
378.52	688.12
378.72	636.63
378.91	699.82
379.11	594.50
379.31	713.86
379.50	648.33
379.70	739.61
379.89	725.57
380.09	697.48
380.28	734.93
380.48	702.16
380.68	674.07
380.87	711.52
381.07	730.25
381.26	711.52
381.46	655.35
381.65	751.31
381.85	692.80
382.04	730.25
382.24	664.71
382.43	725.57
382.63	730.25
382.83	746.63
383.02	741.95
383.22	748.97
383.41	744.29
383.61	755.99
383.80	725.57
384.00	688.12
384.19	725.57
384.39	772.38
384.58	734.93
384.78	877.70
384.97	809.83
385.17	748.97
385.36	758.33
385.56	823.87
385.75	828.55
385.95	826.21
386.14	765.36
386.34	854.30
386.53	854.30
386.72	765.36
386.92	877.70
387.11	851.96
387.31	866.00
387.50	837.91
387.70	849.61
387.89	851.96
388.09	847.27
388.28	945.58
388.48	877.70
388.67	915.15
388.86	997.07
389.06	973.66
389.25	964.30
389.45	1006.43
389.64	931.53
389.84	994.73
390.03	966.64
390.22	1034.52
390.42	1053.24
390.61	1062.60
390.81	964.30
391.00	985.37
391.19	1076.65
391.39	1011.11
391.58	1025.15
391.78	1039.20
391.97	1008.77
392.16	1060.26
392.36	1123.46
392.55	994.73
392.75	1050.90
392.94	929.19
393.13	999.41
393.33	964.30
393.52	1078.99
393.71	1130.48
393.91	1137.50
394.10	1111.75
394.29	1104.73
394.49	1039.20
394.68	1203.04
394.88	1170.27
395.07	1160.91
395.26	1191.33
395.46	1142.18
395.65	1219.42
395.84	1284.95
396.04	1191.33
396.23	1177.29
396.42	1167.93
396.62	1151.54
396.81	1184.31
397.00	1184.31
397.19	1315.38
397.39	1409.00
397.58	1324.74
397.77	1409.00
397.97	1385.60
398.16	1357.51
398.35	1387.94
398.55	1313.04
398.74	1439.43
398.93	1497.94
399.12	1418.36
399.32	1401.98
399.51	1469.86
399.70	1479.22
399.90	1439.43
400.09	1493.26
400.28	1519.01
400.47	1519.01
400.67	1638.38
400.86	1521.35
401.05	1584.54
401.24	1554.12
401.44	1607.95
401.63	1605.61
401.82	1563.48
402.01	1589.22
402.21	1710.93
402.40	1753.06
402.59	1654.76
402.78	1717.95
402.97	1739.02
403.17	1678.16
403.36	1748.38
403.55	1689.87
403.74	1764.76
403.93	1678.16
404.13	1797.53
404.32	1816.26
404.51	1722.63
404.70	1846.68
404.89	1856.04
405.09	1863.07
405.28	1806.89
405.47	1956.69
405.66	1942.64
405.85	2015.20
406.05	2078.40
406.24	1881.79
406.43	1893.49
406.62	2040.95
406.81	2015.20
407.00	1947.33
407.20	2008.18
407.39	1898.17
407.58	2003.50
407.77	2106.48
407.96	2001.16
408.15	1996.48
408.34	2146.27
408.54	1989.46
408.73	2157.97
408.92	2157.97
409.11	2157.97
409.30	2204.78
409.49	2183.72
409.68	2195.42
409.87	2097.12
410.07	2263.30
410.26	2286.70
410.45	2335.85
410.64	2392.03
410.83	2363.94
411.02	2385.01
411.21	2499.69
411.40	2385.01
411.59	2401.39
411.78	2429.48
411.98	2352.24
412.17	2546.50
412.36	2572.25
412.55	2586.29
412.74	2597.99
412.93	2588.63
413.12	2665.87
413.31	2832.05
413.50	2885.88
413.69	2665.87
413.88	2710.34
414.07	2822.69
414.26	2780.56
414.45	2834.39
414.64	2832.05
414.83	2881.20
415.02	2822.69
415.22	3066.10
415.41	3014.61
415.60	3084.83
415.79	3066.10
415.98	3141.00
416.17	3087.17
416.36	3108.23
416.55	3087.17
416.74	3194.83
416.93	3087.17
417.12	3215.90
417.31	3316.54
417.50	3117.59
417.69	3302.50
417.88	3389.10
418.07	3318.88
418.26	3323.56
418.45	3267.39
418.64	3346.97
418.83	3424.20
419.02	3370.37
419.21	3438.25
419.39	3548.25
419.58	3426.54
419.77	3410.16
419.96	3473.36
420.15	3482.72
420.34	3520.17
420.53	3487.40
420.72	3684.00
420.91	3653.58
421.10	3772.94
421.29	3768.26
421.48	3651.24
421.67	3761.24
421.86	3723.79
422.05	3728.47
422.24	3646.55
422.43	3527.19
422.61	3667.62
422.80	3772.94
422.99	3688.68
423.18	3763.58
423.37	3782.31
423.56	3892.31
423.75	3843.16
423.94	3840.82
424.13	3557.61
424.32	3705.07
424.50	3810.39
424.69	3864.22
424.88	3920.40
425.07	3665.28
425.26	3662.94
425.45	3810.39
425.64	3826.78
425.83	3871.25
426.01	3904.01
426.20	3861.88
426.39	3953.16
426.58	3763.58
426.77	3929.76
426.96	3861.88
427.15	3929.76
427.33	3889.97
427.52	4025.72
427.71	3941.46
427.90	3918.06
428.09	4107.64
428.28	3995.29
428.46	3894.65
428.65	3934.44
428.84	4037.42
429.03	4124.02
429.22	3904.01
429.40	4081.89
429.59	3981.25
429.78	3768.26
429.97	3920.40
430.16	3892.31
430.34	4014.02
430.53	4147.43
430.72	4184.88
430.91	4114.66
431.10	4135.73
431.28	4269.14
431.47	4400.21
431.66	4393.19
431.85	4367.44
432.03	4512.55
432.22	4404.89
432.41	4383.82
432.60	4449.36
432.79	4571.07
432.97	4575.75
433.16	4442.34
433.35	4486.81
433.54	4585.11
433.72	4493.83
433.91	4468.08
434.10	4683.41
434.28	4512.55
434.47	4552.34
434.66	4737.24
434.85	4784.06
435.03	4924.49
435.22	4683.41
435.41	4889.38
435.59	4805.12
435.78	4870.65
435.97	4929.17
436.16	4968.96
436.34	4882.36
436.53	4784.06
436.72	5027.47
436.90	4943.21
437.09	4954.91
437.28	4851.93
437.46	5025.13
437.65	4919.81
437.84	5114.07
438.02	5006.41
438.21	4994.70
438.40	4940.87
438.58	5289.61
438.77	5231.10
438.96	5170.24
439.14	5467.49
439.33	5394.93
439.52	5502.60
439.70	5376.21
439.89	5432.38
440.08	5483.88
440.26	5565.79
440.45	5455.79
440.63	5659.42
440.82	5856.02
441.01	5657.07
441.19	5741.33
441.38	5813.89
441.57	5753.04
441.75	5816.23
441.94	6085.39
442.12	6038.58
442.31	6136.88
442.50	5879.43
442.68	6155.61
442.87	6033.90
443.05	5982.41
443.24	6200.08
443.43	6099.44
443.61	6150.93
443.80	6249.23
443.98	6047.94
444.17	5989.43
444.35	6377.96
444.54	6480.94
444.73	6289.02
444.91	6260.93
445.10	6150.93
445.28	6242.21
445.47	6118.16
445.65	6171.99
445.84	6319.45
446.02	6296.04
446.21	6317.11
446.39	6230.51
446.58	6345.19
446.77	6352.21
446.95	6310.08
447.14	6457.54
447.32	6569.88
447.51	6431.79
447.69	6380.30
447.88	6459.88
448.06	6485.62
448.25	6546.48
448.43	6534.78
448.62	6504.35
448.80	6429.45
448.99	6602.65
449.17	6509.03
449.36	6623.72
449.54	6703.29
449.73	6806.28
449.91	6724.36
450.10	6857.77
450.28	6920.96
450.46	6909.26
450.65	6817.98
450.83	6956.07
451.02	6853.09
451.20	6895.22
451.39	7014.59
451.57	6862.45
451.76	7028.63
451.94	6930.33
452.13	6960.75
452.31	6942.03
452.49	6747.76
452.68	6801.60
452.86	6885.86
453.05	7075.44
453.23	7143.32
453.42	6956.07
453.60	6965.43
453.78	7129.27
453.97	7155.02
454.15	6977.14
454.34	7129.27
454.52	7297.79
454.70	7253.32
454.89	7225.23
455.07	7265.02
455.26	7468.65
455.44	7562.27
455.62	7412.48
455.81	7272.04
455.99	7489.71
456.17	7569.29
456.36	7569.29
456.54	7489.71
456.73	7480.35
456.91	7705.04
457.09	7911.01
457.28	7676.96
457.46	7660.57
457.64	7887.61
457.83	7768.24
458.01	7648.87
458.19	7985.91
458.38	7719.09
458.56	7976.55
458.74	8011.65
458.93	7913.35
459.11	7918.03
459.29	7915.69
459.48	7932.08
459.66	8154.43
459.84	8131.02
460.03	8105.28
460.21	8262.09
460.39	8131.02
460.57	8152.09
460.76	8318.26
460.94	8131.02
461.12	8397.84
461.31	8269.11
461.49	8500.83
461.67	8519.55
461.85	8402.52
462.04	8234.00
462.22	9001.70
462.40	8512.53
462.59	8641.26
462.77	8662.32
462.95	8727.86
463.13	8428.27
463.32	8510.19
463.50	8702.11
463.68	8781.69
463.86	8716.16
464.05	8678.71
464.23	8662.32
464.41	8901.06
464.59	8624.87
464.78	8858.93
464.96	8725.52
465.14	8840.20
465.32	8788.71
465.50	8835.52
465.69	8926.80
465.87	8959.57
466.05	8982.98
466.23	8891.70
466.41	8933.82
466.60	9165.54
466.78	8748.92
466.96	9102.34
467.14	9097.66
467.32	8856.59
467.51	9174.90
467.69	8800.41
467.87	9118.73
468.05	9231.07
468.23	9102.34
468.41	9151.49
468.60	9221.71
468.78	9320.01
468.96	9376.19
469.14	9109.36
469.32	9327.03
469.50	9146.81
469.69	9315.33
469.87	9544.70
470.05	9444.06
470.23	9437.04
470.41	9633.64
470.59	9469.81
470.77	9420.66
470.95	9575.13
471.14	9699.18
471.32	9720.24
471.50	10092.39
471.68	9930.89
471.86	9783.44
472.04	10195.37
472.22	10225.80
472.40	9680.46
472.58	10050.26
472.77	10040.90
472.95	10174.31
473.13	10466.88
473.31	10132.18
473.49	10094.73
473.67	10356.87
473.85	10303.04
474.03	10546.45
474.21	10621.35
474.39	10539.43
474.57	10581.56
474.75	10663.48
474.93	10693.91
475.12	10876.47
475.30	10668.16
475.48	10773.49
475.66	10862.43
475.84	10860.09
476.02	11133.93
476.20	11047.33
476.38	11246.27
476.56	11400.75
476.74	11346.92
476.92	11527.14
477.10	11571.61
477.28	11681.61
477.46	11536.50
477.64	11712.04
477.82	12023.33
478.00	12402.50
478.18	12147.38
478.36	11957.80
478.54	12222.28
478.72	12552.29
478.90	12559.31
479.08	12559.31
479.26	12400.16
479.44	12952.52
479.62	12915.08
479.80	12905.71
479.98	13018.06
480.16	13270.84
480.34	13263.82
480.52	13291.90
480.70	13287.22
480.88	12929.12
481.06	13458.08
481.24	13598.51
481.41	13898.10
481.59	14099.39
481.77	14040.87
481.95	13804.48
482.13	14073.64
482.31	14249.18
482.49	14455.15
482.67	14586.22
482.85	14422.38
483.03	14719.63
483.21	14764.10
483.39	14796.87
483.57	14911.55
483.74	15037.94
483.92	15150.29
484.10	14920.92
484.28	15281.36
484.46	15578.61
484.64	15929.69
484.82	15468.60
485.00	15723.72
485.18	15934.37
485.35	16294.81
485.53	15822.02
485.71	15847.77
485.89	16166.08
486.07	16142.67
486.25	16187.14
486.43	16468.01
486.61	16791.00
486.78	16786.32
486.96	17216.98
487.14	17228.68
487.32	17202.94
487.50	17488.48
487.68	17671.04
487.85	17902.76
488.03	17949.57
488.21	17898.08
488.39	18176.60
488.57	17771.69
488.75	18118.09
488.92	18654.07
489.10	18621.30
489.28	18932.59
489.46	18803.86
489.64	19077.71
489.81	19400.70
489.99	19295.38
490.17	19653.48
490.35	20077.12
490.53	19651.14
490.70	19847.74
490.88	19616.03
491.06	20149.67
491.24	20063.07
491.41	20091.16
491.59	20538.20
491.77	20683.31
491.95	20758.21
492.13	20706.72
492.30	21013.33
492.48	20851.83
492.66	20961.84
492.84	21214.62
493.01	21493.14
493.19	21118.65
493.37	21781.03
493.54	21509.52
493.72	21865.28
493.90	22291.26
494.08	22143.81
494.25	22492.55
494.43	22441.06
494.61	22897.46
494.79	22925.55
494.96	22546.38
495.14	23110.45
495.32	23101.09
495.49	23222.80
495.67	23552.81
495.85	23108.11
496.02	23466.21
496.20	23576.22
496.38	23667.50
496.55	23597.28
496.73	24126.24
496.91	24247.95
497.09	23995.17
497.26	24409.45
497.44	24163.69
497.62	24699.67
497.79	24283.06
497.97	24786.27
498.14	24964.15
498.32	24790.95
498.50	25081.18
498.67	25298.85
498.85	24917.34
499.03	25343.32
499.20	25642.91
499.38	25425.24
499.56	25551.63
499.73	25710.78
499.91	26115.70
500.08	25832.49
500.26	25862.92
500.44	25916.75
500.61	25837.17
500.79	26031.44
500.97	26010.37
501.14	26927.86
501.32	26731.26
501.49	26431.67
501.67	26527.63
501.84	26642.32
502.02	27065.96
502.20	26918.50
502.37	27117.45
502.55	27042.55
502.72	26906.80
502.90	27330.44
503.07	27300.01
503.25	27262.56
503.43	27388.95
503.60	27817.27
503.78	27718.96
503.95	27765.78
504.13	28032.60
504.30	28070.04
504.48	27695.56
504.65	28020.89
504.83	28210.48
505.01	28479.64
505.18	28292.40
505.36	28638.80
505.53	28683.27
505.71	29041.37
505.88	29364.36
506.06	28694.97
506.23	28648.16
506.41	28510.07
506.58	28945.41
506.76	29149.03
506.93	29598.41
507.11	29303.51
507.28	29221.59
507.46	29273.08
507.63	29322.23
507.81	29645.23
507.98	29649.91
508.16	29509.47
508.33	29977.58
508.50	30270.15
508.68	30225.68
508.85	30581.44
509.03	30319.30
509.20	30335.68
509.38	30206.95
509.55	30747.62
509.73	30654.00
509.90	30199.93
510.08	30373.13
510.25	30696.13
510.42	30998.06
510.60	31201.68
510.77	31311.69
510.95	31337.43
511.12	30988.69
511.30	31260.20
511.47	31693.19
511.64	31489.57
511.82	31538.72
511.99	31159.55
512.17	31786.82
512.34	31232.11
512.51	32053.64
512.69	32154.28
512.86	31997.46
513.04	32217.47
513.21	32140.24
513.38	32091.09
513.56	32079.38
513.73	32231.52
513.90	32776.86
514.08	32266.63
514.25	32194.07
514.43	32170.66
514.60	32435.14
514.77	32624.73
514.95	32786.22
515.12	32917.29
515.29	32954.74
515.47	33387.74
515.64	33109.22
515.81	33462.64
515.99	33125.60
516.16	33532.86
516.33	33249.65
516.51	33350.29
516.68	32713.67
516.85	32711.33
517.03	33331.57
517.20	33247.31
517.37	33984.58
517.54	34052.45
517.72	33525.83
517.89	33422.85
518.06	33591.37
518.24	33551.58
518.41	33659.24
518.58	33837.12
518.75	33998.62
518.93	34164.80
519.10	34232.68
519.27	34209.27
519.45	34272.46
519.62	34265.44
519.79	34939.52
519.96	34635.25
520.14	35484.86
520.31	34668.02
520.48	35061.22
520.65	35147.82
520.83	35122.08
521.00	35133.78
521.17	35306.98
521.34	35356.13
521.52	35056.54
521.69	35459.12
521.86	35613.59
522.03	35189.95
522.20	35552.74
522.38	35632.32
522.55	35763.39
522.72	35543.38
522.89	35524.65
523.07	36102.76
523.24	35648.70
523.41	36231.49
523.58	36011.48
523.75	36645.77
523.92	36727.69
524.10	36554.49
524.27	36891.52
524.44	36884.50
524.61	36856.42
524.78	36816.63
524.96	36538.10
525.13	36987.49
525.30	37046.00
525.47	37191.11
525.64	37209.84
525.81	36601.30
525.98	36816.63
526.16	36495.97
526.33	36807.26
526.50	36987.49
526.67	36713.64
526.84	36510.02
527.01	36863.44
527.18	37535.17
527.36	37570.28
527.53	37427.51
527.70	38071.15
527.87	37940.08
528.04	37521.13
528.21	37752.84
528.38	37668.58
528.55	37446.23
528.72	37919.02
528.89	38204.56
529.07	37968.17
529.24	37975.19
529.41	38321.59
529.58	37677.94
529.75	38148.39
529.92	38356.70
530.09	38312.23
530.26	38565.01
530.43	38649.27
530.60	38176.48
530.77	38707.78
530.94	39489.52
531.11	38848.21
531.28	38850.55
531.46	39131.42
531.63	39353.77
531.80	39026.09
531.97	38806.08
532.14	39005.03
532.31	38675.01
532.48	38574.37
532.65	39227.38
532.82	38766.29
532.99	38969.92
533.16	39054.18
533.33	39290.57
533.50	39353.77
533.67	39765.70
533.84	39201.63
534.01	39445.05
534.18	39498.88
534.35	39899.11
534.52	39721.23
534.69	39384.19
534.86	39552.71
535.03	39784.43
535.20	39730.59
535.37	39784.43
535.54	40201.04
535.71	39985.71
535.88	39798.47
536.05	39999.76
536.22	40016.14
536.38	40467.86
536.55	40488.93
536.72	40409.35
536.89	40004.44
537.06	40292.32
537.23	40280.62
537.40	40149.55
537.57	40481.91
537.74	40327.43
537.91	40767.45
538.08	40556.80
538.25	40720.64
538.42	40776.81
538.59	40701.92
538.75	40547.44
538.92	40435.10
539.09	40870.43
539.26	40783.83
539.43	40802.56
539.60	41212.15
539.77	40875.12
539.94	41502.38
540.11	40755.75
540.28	41240.24
540.44	40938.31
540.61	40795.54
540.78	40830.65
540.95	40577.87
541.12	40996.82
541.29	41357.27
541.46	41240.24
541.62	41228.54
541.79	41741.11
541.96	41221.52
542.13	41581.96
542.30	41244.92
542.47	41443.87
542.63	41507.06
542.80	41663.88
542.97	41982.19
543.14	42384.76
543.31	42225.60
543.48	42005.59
543.64	42284.12
543.81	42375.40
543.98	42335.61
544.15	42153.05
544.32	42197.52
544.48	42696.05
544.65	42361.36
544.82	42181.13
544.99	42253.69
545.16	42246.67
545.32	41890.91
545.49	42497.11
545.66	42653.92
545.83	42789.67
546.00	42937.13
546.16	42906.70
546.33	42494.77
546.50	42572.00
546.67	42792.01
546.83	42309.86
547.00	42820.10
547.17	42595.41
547.34	43129.05
547.50	42873.93
547.67	43243.74
547.84	42913.72
548.00	42995.64
548.17	43548.01
548.34	42904.36
548.51	43395.87
548.67	43363.11
548.84	43449.70
549.01	43620.56
549.18	43241.40
549.34	43426.30
549.51	43641.63
549.68	43519.92
549.84	43723.55
550.01	43779.72
550.18	43402.89
550.34	43779.72
550.51	43187.56
550.68	43505.88
550.84	43409.92
551.01	43887.39
551.18	43227.35
551.34	43407.58
551.51	43903.77
551.68	44203.36
551.84	44374.22
552.01	43761.00
552.18	43810.15
552.34	43686.10
552.51	43880.36
552.68	43578.43
552.84	44172.93
553.01	44074.63
553.18	43882.70
553.34	43962.28
553.51	43894.41
553.67	44273.57
553.84	44399.96
554.01	44531.03
554.17	44041.86
554.34	44463.16
554.51	44678.49
554.67	44774.45
554.84	44514.65
555.00	44161.23
555.17	44210.38
555.33	44765.09
555.50	44144.84
555.67	44360.17
555.83	44238.47
556.00	44402.30
556.16	44769.77
556.33	44437.41
556.50	44495.92
556.66	44493.58
556.83	44233.78
556.99	44605.93
557.16	44634.02
557.32	44673.81
557.49	44360.17
557.65	44463.16
557.82	44383.58
557.98	45083.40
558.15	44790.83
558.32	44439.75
558.48	44472.52
558.65	44779.13
558.81	44449.11
558.98	44619.97
559.14	44505.29
559.31	44449.11
559.47	45125.53
559.64	45015.52
559.80	44903.18
559.97	45064.67
560.13	44495.92
560.30	44559.12
560.46	44795.51
560.63	44676.15
560.79	45057.65
560.96	45085.74
561.12	45127.87
561.29	45134.89
561.45	45450.86
561.61	45666.19
561.78	45230.85
561.94	44814.24
562.11	45265.96
562.27	45298.73
562.44	45207.45
562.60	45364.26
562.77	45258.94
562.93	45057.65
563.10	44889.13
563.26	44837.64
563.42	45631.08
563.59	45069.36
563.75	45605.34
563.92	45563.21
564.08	45382.99
564.24	45455.54
564.41	45750.45
564.57	45422.78
564.74	45380.65
564.90	45591.30
565.07	45191.06
565.23	45703.64
565.39	45301.07
565.56	45764.49
565.72	45467.25
565.88	45272.98
566.05	45528.10
566.21	45572.57
566.38	45326.81
566.54	45483.63
566.70	45577.25
566.87	45586.61
567.03	45418.10
567.19	46190.47
567.36	45497.67
567.52	45113.83
567.68	45815.99
567.85	45137.23
568.01	45886.20
568.17	45153.62
568.34	45731.73
568.50	45535.12
568.66	45165.32
568.83	45893.22
568.99	45359.58
569.15	45003.82
569.32	45603.00
569.48	45502.35
569.64	45771.52
569.81	45525.76
569.97	45420.44
570.13	45525.76
570.30	45345.54
570.46	45214.47
570.62	45275.32
570.78	45350.22
570.95	45453.20
571.11	45780.88
571.27	45876.84
571.43	45375.97
571.60	46272.39
571.76	45881.52
571.92	45848.75
572.09	45811.31
572.25	45593.64
572.41	45787.90
572.57	45787.90
572.74	45937.69
572.90	46129.62
573.06	45741.09
573.22	46148.34
573.38	45904.93
573.55	45743.43
573.71	45893.22
573.87	45249.58
574.03	45624.06
574.20	46026.63
574.36	45766.84
574.52	45897.91
574.68	45830.03
574.84	45553.85
575.01	46080.47
575.17	45741.09
575.33	45652.15
575.49	45940.04
575.65	45918.97
575.82	46080.47
575.98	46164.73
576.14	45963.44
576.30	46319.20
576.46	45841.73
576.62	45909.61
576.79	46078.13
576.95	45783.22
577.11	45710.66
577.27	46124.94
577.43	45748.11
577.59	46073.45
577.75	45668.53
577.92	45474.27
578.08	45322.13
578.24	45600.66
578.40	45614.70
578.56	45525.76
578.72	45963.44
578.88	45975.14
579.04	45780.88
579.21	45764.49
579.37	45937.69
579.53	45883.86
579.69	45579.59
579.85	45869.82
580.01	45495.33
580.17	46054.72
580.33	46010.25
580.49	46234.94
580.65	46129.62
580.82	45687.26
580.98	45890.88
581.14	45663.85
581.30	46155.36
581.46	46190.47
581.62	45722.37
581.78	46167.07
581.94	46167.07
582.10	46148.34
582.26	46052.38
582.42	45888.54
582.58	46080.47
582.74	46167.07
582.90	46361.33
583.06	46057.06
583.22	46045.36
583.38	46000.89
583.54	46033.66
583.70	45724.71
583.86	45785.56
584.02	45993.87
584.18	45904.93
584.34	46054.72
584.50	45858.12
584.66	46148.34
584.82	45935.35
584.98	45844.07
585.14	46209.20
585.30	46408.14
585.46	45935.35
585.62	45572.57
585.78	45830.03
585.94	45703.64
586.10	45776.20
586.26	45654.49
586.42	46040.68
586.58	45935.35
586.74	45940.04
586.90	45949.40
587.06	46426.87
587.22	46368.35
587.38	45937.69
587.54	46286.43
587.70	46176.43
587.86	46476.02
588.02	45942.38
588.18	45982.16
588.34	45968.12
588.49	45511.72
588.65	45294.05
588.81	45741.09
588.97	45684.92
589.13	46213.88
589.29	45717.68
589.45	46036.00
589.61	46124.94
589.77	45944.72
589.93	46295.80
590.08	46253.67
590.24	46263.03
590.40	45853.44
590.56	46167.07
590.72	46213.88
590.88	45935.35
591.04	46438.57
591.20	46424.53
591.35	46284.09
591.51	46784.97
591.67	45963.44
591.83	46567.30
591.99	45869.82
592.15	46562.62
592.31	46574.32
592.46	46036.00
592.62	46429.21
592.78	46230.26
592.94	46564.96
593.10	46351.97
593.26	46742.84
593.41	46419.84
593.57	46195.15
593.73	46443.25
593.89	46319.20
594.05	46263.03
594.20	46295.80
594.36	46176.43
594.52	46419.84
594.68	46148.34
594.84	46424.53
594.99	46571.98
595.15	46384.74
595.31	46380.06
595.47	46211.54
595.62	46225.58
595.78	46347.29
595.94	46536.87
596.10	46808.37
596.25	46600.07
596.41	46454.95
596.57	46471.34
596.73	46150.68
596.88	45893.22
597.04	46445.59
597.20	46674.96
597.36	46155.36
597.51	46520.49
597.67	46361.33
597.83	46286.43
597.99	46726.46
598.14	46227.92
598.30	45998.55
598.46	46344.95
598.61	46223.24
598.77	46461.97
598.93	46349.63
599.09	46583.68
599.24	46656.24
599.40	46560.28
599.56	46829.44
599.71	46595.38
599.87	46564.96
600.03	46520.49
600.18	46480.70
600.34	46143.66
600.50	46136.64
600.65	46581.34
600.81	46799.01
600.97	46513.47
601.12	46766.24
601.28	46412.82
601.44	46199.83
601.59	46155.36
601.75	46054.72
601.91	46520.49
602.06	46321.54
602.22	46153.02
602.37	46515.81
602.53	46277.07
602.69	46492.40
602.84	46218.56
603.00	46604.75
603.16	46515.81
603.31	45830.03
603.47	46279.41
603.62	46160.05
603.78	46763.90
603.94	46291.12
604.09	46361.33
604.25	46265.37
604.40	46202.18
604.56	46384.74
604.71	46415.16
604.87	46054.72
605.03	46550.91
605.18	46511.13
605.34	46113.23
605.49	45588.95
605.65	46078.13
605.80	46314.52
605.96	46190.47
606.12	45956.42
606.27	46270.05
606.43	46036.00
606.58	46747.52
606.74	46153.02
606.89	45855.78
607.05	45778.54
607.20	46274.73
607.36	46129.62
607.51	46579.00
607.67	46305.16
607.82	46080.47
607.98	46043.02
608.13	46471.34
608.29	46050.04
608.44	45823.01
608.60	45535.12
608.75	45755.13
608.91	45734.07
609.06	45954.08
609.22	45799.60
609.37	45642.79
609.53	46497.08
609.68	46103.87
609.84	45179.36
609.99	45865.14
610.15	46361.33
610.30	45806.62
610.46	45933.01
610.61	46003.23
610.76	45607.68
610.92	46316.86
611.07	45902.59
611.23	45783.22
611.38	45675.55
611.54	45415.76
611.69	45521.08
611.84	45717.68
612.00	45750.45
612.15	45514.06
612.31	45476.61
612.46	45825.35
612.62	45345.54
612.77	46012.59
612.92	46089.83
613.08	45340.86
613.23	45242.56
613.39	45287.03
613.54	45191.06
613.69	45275.32
613.85	45291.71
614.00	45375.97
614.15	45776.20
614.31	45659.17
614.46	45364.26
614.62	45392.35
614.77	45052.97
614.92	45366.60
615.08	45254.26
615.23	45139.57
615.38	45216.81
615.54	45179.36
615.69	44992.12
615.84	45078.72
616.00	44968.71
616.15	44713.59
616.30	45024.89
616.46	45083.40
616.61	44931.26
616.76	44758.06
616.92	44250.17
617.07	44725.30
617.22	44439.75
617.37	44926.58
617.53	44905.52
617.68	45415.76
617.83	45193.40
617.99	45146.59
618.14	44587.21
618.29	44619.97
618.45	44563.80
618.60	44395.28
618.75	44935.95
618.90	44828.28
619.06	44804.88
619.21	44863.39
619.36	45003.82
619.51	44210.38
619.67	44746.36
619.82	44612.95
619.97	44790.83
620.12	44605.93
620.28	44491.24
620.43	44088.67
620.58	44287.62
620.73	44151.87
620.89	44091.01
621.04	44584.86
621.19	44528.69
621.34	43962.28
621.49	44018.46
621.65	44051.22
621.80	44224.42
621.95	43768.02
622.10	44102.71
622.25	43646.31
622.41	43917.81
622.56	44168.25
622.71	44521.67
622.86	43704.82
623.01	44444.43
623.16	44336.77
623.32	43826.53
623.47	44341.45
623.62	44339.11
623.77	43669.72
623.92	43941.22
624.07	44083.99
624.23	43475.45
624.38	43508.22
624.53	43491.83
624.68	43826.53
624.83	43632.27
624.98	43721.21
625.13	43627.59
625.29	43461.41
625.44	43557.37
625.59	43620.56
625.74	43089.26
625.89	43178.20
626.04	43288.21
626.19	43538.65
626.34	43313.95
626.49	43475.45
626.65	43288.21
626.80	43374.81
626.95	43079.90
627.10	42770.95
627.25	43009.68
627.40	42726.48
627.55	42965.21
627.70	43023.73
627.85	42796.70
628.00	43047.13
628.15	43363.11
628.30	42784.99
628.45	42941.81
628.60	42564.98
628.76	42979.26
628.91	43236.72
629.06	42902.02
629.21	43033.09
629.36	42756.91
629.51	42436.25
629.66	42632.86
629.81	42155.39
629.96	42719.46
630.11	42426.89
630.26	42569.66
630.41	43044.79
630.56	42499.45
630.71	42284.12
630.86	42646.90
631.01	42272.42
631.16	42157.73
631.31	42110.92
631.46	42019.64
631.61	42293.48
631.76	42340.29
631.91	42045.38
632.06	42232.63
632.21	42801.38
632.36	42684.35
632.51	41956.44
632.66	42141.35
632.81	41972.83
632.96	42157.73
633.10	42010.28
633.25	41848.78
633.40	41977.51
633.55	41984.53
633.70	42239.65
633.85	42330.93
634.00	42375.40
634.15	42429.23
634.30	41951.76
634.45	41673.24
634.60	41673.24
634.75	41820.69
634.90	41832.39
635.05	41862.82
635.19	41567.91
635.34	41834.74
635.49	42007.94
635.64	41390.03
635.79	41326.84
635.94	41617.07
636.09	41462.59
636.24	41254.28
636.39	41317.48
636.53	41422.80
636.68	41315.14
636.83	40975.76
636.98	41603.02
637.13	41177.04
637.28	41680.26
637.43	41581.96
637.57	41713.03
637.72	41457.91
637.87	41823.03
638.02	41469.61
638.17	41078.74
638.32	40755.75
638.46	41076.40
638.61	40734.68
638.76	40666.81
638.91	40985.12
639.06	41265.99
639.20	40762.77
639.35	40959.38
639.50	41270.67
639.65	41385.35
639.80	41083.42
639.94	40851.71
640.09	40769.79
640.24	41298.75
640.39	40748.73
640.54	40509.99
640.68	40818.94
640.83	41043.63
640.98	40973.42
641.13	40488.93
641.27	40697.24
641.42	40407.01
641.57	40690.21
641.72	41031.93
641.86	40739.36
642.01	40671.49
642.16	40919.59
642.31	40069.97
642.45	40584.89
642.60	39920.18
642.75	40332.11
642.90	40315.73
643.04	40250.19
643.19	40238.49
643.34	40624.68
643.48	40201.04
643.63	40018.48
643.78	40105.08
643.93	40072.31
644.07	40156.57
644.22	40156.57
644.37	39695.49
644.51	39966.99
644.66	40187.00
644.81	40414.03
644.95	40048.91
645.10	40109.76
645.25	40006.78
645.39	40013.80
645.54	40126.14
645.69	39887.41
645.83	39569.10
645.98	40208.06
646.13	39819.53
646.27	39950.60
646.42	39838.26
646.57	39875.71
646.71	39835.92
646.86	39431.01
647.00	39927.20
647.15	39583.14
647.30	39508.24
647.44	39627.61
647.59	39695.49
647.74	39505.90
647.88	39505.90
648.03	39103.33
648.17	39770.38
648.32	39140.78
648.47	39108.01
648.61	39103.33
648.76	39812.51
648.90	39526.97
649.05	39290.57
649.20	39585.48
649.34	39248.44
649.49	39126.74
649.63	39175.89
649.78	39213.34
649.92	38967.58
650.07	39379.51
650.21	39248.44
650.36	39129.08
650.51	38836.51
650.65	39590.16
650.80	39629.95
650.94	39871.03
651.09	38990.98
651.23	39014.39
651.38	39044.82
651.52	39033.11
651.67	38520.54
651.81	38946.51
651.96	38665.65
652.10	38682.03
652.25	39028.43
652.39	38829.49
652.54	38490.11
652.68	38850.55
652.83	38628.20
652.97	38920.77
653.12	38834.17
653.26	38611.82
653.41	38888.00
653.55	38366.06
653.70	38424.57
653.84	38181.16
653.99	38387.13
654.13	38890.34
654.27	38562.67
654.42	38036.05
654.56	38635.22
654.71	38124.99
654.85	38330.95
655.00	38132.01
655.14	38546.28
655.29	37668.58
655.43	37947.11
655.57	37883.91
655.72	37460.27
655.86	37446.23
656.01	37766.88
656.15	38024.34
656.30	37713.05
656.44	37794.97
656.58	37652.20
656.73	37874.55
656.87	37633.47
657.01	37820.72
657.16	37413.46
657.30	37301.12
657.45	37668.58
657.59	37607.73
657.73	37427.51
657.88	37507.08
658.02	37118.56
658.16	37923.70
658.31	37708.37
658.45	37790.29
658.60	37486.02
658.74	37827.74
658.88	37507.08
659.03	37184.09
659.17	37523.47
659.31	37249.63
659.46	37001.53
659.60	37069.40
659.74	36833.01
659.89	36952.38
660.03	37043.66
660.17	37156.00
660.32	37315.16
660.46	37076.43
660.60	36835.35
660.74	37071.75
660.89	36467.89
661.03	36360.22
661.17	36376.61
661.32	36535.76
661.46	36477.25
661.60	36605.98
661.74	36648.11
661.89	36486.61
662.03	36247.88
662.17	36348.52
662.31	36685.56
662.46	36772.16
662.60	36512.36
662.74	36259.58
662.88	36594.28
663.03	35999.78
663.17	36444.48
663.31	36266.60
663.45	36282.98
663.60	36320.43
663.74	35754.02
663.88	35435.71
664.02	35377.20
664.17	35854.67
664.31	35278.89
664.45	35620.61
664.59	35751.68
664.73	35711.89
664.88	35538.69
665.02	35388.90
665.16	35807.86
665.30	35306.98
665.44	35112.72
665.59	34852.92
665.73	35304.64
665.87	35105.70
666.01	34810.79
666.15	35218.04
666.29	34925.47
666.44	35433.37
666.58	34515.88
666.72	35051.86
666.86	35161.87
667.00	35115.06
667.14	34937.18
667.28	34501.84
667.43	34773.34
667.57	34490.13
667.71	34511.20
667.85	34476.09
667.99	34518.22
668.13	34216.29
668.27	34345.02
668.41	34305.23
668.56	34066.50
668.70	34347.36
668.84	34616.52
668.98	33851.17
669.12	33809.04
669.26	33867.55
669.40	33895.64
669.54	33701.37
669.68	33809.04
669.82	33537.54
669.96	33429.87
670.10	33134.96
670.25	33670.95
670.39	33500.09
670.53	33247.31
670.67	33060.07
670.81	33493.07
670.95	33242.63
671.09	33301.14
671.23	33661.58
671.37	33284.76
671.51	32739.41
671.65	32758.14
671.79	33167.73
671.93	32364.93
672.07	32821.33
672.21	32945.38
672.35	32360.25
672.49	32313.44
672.63	32418.76
672.77	32547.49
672.91	32488.98
673.05	32425.78
673.19	32105.13
673.33	32205.77
673.47	32294.71
673.61	32308.76
673.75	32233.86
673.89	31777.45
674.03	31494.25
674.17	31468.50
674.31	31454.46
674.45	31491.91
674.59	31552.76
674.73	31468.50
674.87	31241.47
675.01	31409.99
675.15	31166.57
675.29	31438.08
675.43	31236.79
675.56	31475.52
675.70	31072.95
675.84	31260.20
675.98	30204.61
676.12	31079.97
676.26	30405.90
676.40	30068.86
676.54	30778.04
676.68	30396.54
676.82	30202.27
676.96	30015.03
677.10	30029.07
677.23	30190.57
677.37	29816.08
677.51	29802.04
677.65	30000.99
677.79	29851.19
677.93	29642.88
678.07	29364.36
678.21	29195.84
678.34	29427.56
678.48	28987.53
678.62	29034.35
678.76	28814.34
678.90	28891.57
679.04	28982.85
679.18	29078.82
679.31	28587.30
679.45	28493.68
679.59	28449.21
679.73	28231.54
679.87	28268.99
680.00	28446.87
680.14	28645.82
680.28	28245.58
680.42	28231.54
680.56	28098.13
680.70	27990.47
680.83	28226.86
680.97	27541.08
681.11	27632.36
681.25	27377.25
681.39	27597.26
681.52	27501.29
681.66	27309.37
681.80	27009.78
681.94	27232.13
682.07	26920.84
682.21	26890.41
682.35	26635.30
682.49	26909.14
682.62	26794.45
682.76	26541.68
682.90	26382.52
683.04	26441.03
683.17	26429.33
683.31	26429.33
683.45	26232.72
683.59	26085.27
683.72	25923.77
683.86	25537.59
684.00	25795.04
684.13	26221.02
684.27	25851.22
684.41	25755.26
684.55	25497.80
684.68	25202.89
684.82	25209.91
684.96	25118.63
685.09	25289.49
685.23	25097.56
685.37	24933.73
685.50	25127.99
685.64	24627.12
685.78	24446.90
685.91	24929.05
686.05	24938.41
686.19	24418.81
686.32	24503.07
686.46	24037.30
686.60	23819.63
686.73	24098.16
686.87	23646.43
687.01	23693.24
687.14	23388.97
687.28	23187.69
687.42	23236.84
687.55	23344.50
687.69	23344.50
687.82	23070.66
687.96	23143.22
688.10	23108.11
688.23	23140.88
688.37	22731.28
688.50	22642.34
688.64	22862.35
688.78	22738.30
688.91	22387.22
689.05	22572.13
689.18	22443.40
689.32	22190.62
689.46	22401.27
689.59	22551.06
689.73	22317.01
689.86	21935.50
690.00	21937.84
690.13	22260.84
690.27	22005.72
690.41	21963.59
690.54	21497.82
690.68	21305.90
690.81	21600.80
690.95	21336.32
691.08	21270.79
691.22	21273.13
691.35	21481.44
691.49	21109.29
691.62	21170.15
691.76	21256.75
691.89	21235.68
692.03	20833.11
692.16	20814.38
692.30	20844.81
692.43	20713.74
692.57	20266.70
692.70	20617.78
692.84	20432.88
692.97	20329.89
693.11	20229.25
693.24	20325.21
693.38	19861.79
693.51	19840.72
693.65	19960.09
693.78	19908.60
693.92	19978.81
694.05	19637.09
694.19	19819.66
694.32	19683.91
694.45	19213.46
694.59	19623.05
694.72	19501.34
694.86	19246.23
694.99	18974.72
695.13	18684.50
695.26	19110.47
695.39	18623.64
695.53	18892.80
695.66	18979.40
695.80	18696.20
695.93	18640.03
696.07	18525.34
696.20	18553.43
696.33	18101.70
696.47	18211.71
696.60	18352.14
696.73	18157.88
696.87	18148.51
697.00	18029.15
697.14	18249.16
697.27	18040.85
697.40	17818.50
697.54	17696.79
697.67	17888.71
697.80	17607.85
697.94	17444.01
698.07	17345.71
698.21	17193.58
698.34	17326.99
698.47	17043.78
698.61	16814.41
698.74	16783.98
698.87	17116.34
699.01	16699.72
699.14	16744.19
699.27	16676.32
699.40	16762.92
699.54	16561.63
699.67	16276.09
699.80	16191.83
699.94	16313.53
700.07	16273.74
700.20	16063.10
700.34	16070.12
700.47	16098.20
700.60	15969.48
700.73	16051.39
700.87	16086.50
701.00	15620.74
701.13	15616.05
701.26	15770.53
701.40	15641.80
701.53	15662.86
701.66	15613.71
701.79	15386.68
701.93	15644.14
702.06	15157.31
702.19	15021.56
702.32	15487.32
702.46	14925.60
702.59	14801.55
702.72	15035.60
702.85	14970.07
702.99	14752.40
703.12	15047.30
703.25	15075.39
703.38	14745.38
703.51	14359.19
703.65	14586.22
703.78	14363.87
703.91	14464.51
704.04	14214.07
704.17	14073.64
704.31	14183.65
704.44	13823.20
704.57	13755.33
704.70	13792.78
704.83	13841.93
704.96	14005.77
705.10	14090.02
705.23	13741.29
>>>>>End Processed Spectral Data<<<<<
