SpectraSuite Data File
++++++++++++++++++++++++++++++++++++
Date: Fri Oct 25 11:25:27 EDT 2013
User: price-jones
Dark Spectrum Present: No
Reference Spectrum Present: No
Number of Sampled Component Spectra: 1
Spectrometers: USB2+H05261
Integration Time (usec): 100000 (USB2+H05261)
Spectra Averaged: 1 (USB2+H05261)
Boxcar Smoothing: 0 (USB2+H05261)
Correct for Electrical Dark: No (USB2+H05261)
Strobe/Lamp Enabled: No (USB2+H05261)
Correct for Detector Non-linearity: No (USB2+H05261)
Correct for Stray Light: No (USB2+H05261)
Number of Pixels in Processed Spectrum: 2048
>>>>>Begin Processed Spectral Data<<<<<
365.73	215.33
365.92	215.33
366.12	215.33
366.32	205.97
366.52	117.03
366.72	184.90
366.91	93.62
367.11	135.75
367.31	159.16
367.51	173.20
367.70	135.75
367.90	170.86
368.10	128.73
368.30	121.71
368.49	107.66
368.69	60.85
368.89	126.39
369.09	177.88
369.28	271.50
369.48	147.45
369.68	205.97
369.87	156.82
370.07	255.12
370.27	248.10
370.47	351.08
370.66	564.07
370.86	655.35
371.06	655.35
371.25	683.44
371.45	720.88
371.65	660.03
371.84	711.52
372.04	697.48
372.24	716.20
372.44	716.20
372.63	720.88
372.83	826.21
373.03	741.95
373.22	795.78
373.42	777.06
373.62	765.36
373.81	765.36
374.01	786.42
374.21	793.44
374.40	816.85
374.60	830.89
374.79	802.80
374.99	718.54
375.19	922.17
375.38	919.83
375.58	833.23
375.78	922.17
375.97	863.66
376.17	765.36
376.37	760.67
376.56	884.72
376.76	851.96
376.95	805.14
377.15	954.94
377.35	887.06
377.54	915.15
377.74	866.00
377.93	952.60
378.13	926.85
378.33	936.21
378.52	973.66
378.72	894.08
378.91	985.37
379.11	971.32
379.31	844.93
379.50	938.55
379.70	889.40
379.89	929.19
380.09	1006.43
380.28	966.64
380.48	940.90
380.68	919.83
380.87	917.49
381.07	1001.75
381.26	1076.65
381.46	1081.33
381.65	1032.18
381.85	1036.86
382.04	1043.88
382.24	1015.79
382.43	1027.50
382.63	1128.14
382.83	1020.47
383.02	1062.60
383.22	1093.03
383.41	1071.97
383.61	1064.94
383.80	1022.81
384.00	1121.12
384.19	1118.78
384.39	1083.67
384.58	1114.10
384.78	1165.59
384.97	1214.74
385.17	1114.10
385.36	1086.01
385.56	1102.39
385.75	1170.27
385.95	1097.71
386.14	1174.95
386.34	1181.97
386.53	1233.46
386.72	1172.61
386.92	1280.27
387.11	1228.78
387.31	1282.61
387.50	1203.04
387.70	1219.42
387.89	1263.89
388.09	1203.04
388.28	1224.10
388.48	1266.23
388.67	1277.93
388.86	1322.40
389.06	1366.87
389.25	1392.62
389.45	1296.66
389.64	1350.49
389.84	1423.05
390.03	1380.92
390.22	1366.87
390.42	1446.45
390.61	1399.64
390.81	1364.53
391.00	1359.85
391.19	1465.18
391.39	1423.05
391.58	1427.73
391.78	1392.62
391.97	1493.26
392.16	1385.60
392.36	1472.20
392.55	1446.45
392.75	1535.39
392.94	1504.96
393.13	1612.63
393.33	1528.37
393.52	1507.30
393.71	1467.52
393.91	1516.67
394.10	1542.41
394.29	1570.50
394.49	1589.22
394.68	1530.71
394.88	1565.82
395.07	1593.90
395.26	1603.27
395.46	1556.46
395.65	1582.20
395.84	1664.12
396.04	1699.23
396.23	1753.06
396.42	1706.25
396.62	1736.68
396.81	1762.42
397.00	1699.23
397.19	1874.77
397.39	1722.63
397.58	1802.21
397.77	1774.13
397.97	1877.11
398.16	1781.15
398.35	1937.96
398.55	1771.79
398.74	1846.68
398.93	1888.81
399.12	1923.92
399.32	1837.32
399.51	1874.77
399.70	2015.20
399.90	1933.28
400.09	2029.24
400.28	2052.65
400.47	2015.20
400.67	1975.41
400.86	2017.54
401.05	2050.31
401.24	2071.37
401.44	2038.61
401.63	2146.27
401.82	2195.42
402.01	2090.10
402.21	2115.84
402.40	2120.53
402.59	2181.38
402.78	2303.09
402.97	2272.66
403.17	2345.22
403.36	2345.22
403.55	2207.13
403.74	2279.68
403.93	2310.11
404.13	2293.72
404.32	2452.88
404.51	2333.51
404.70	2455.22
404.89	2394.37
405.09	2513.74
405.28	2450.54
405.47	2532.46
405.66	2466.92
405.85	2443.52
406.05	2382.67
406.24	2525.44
406.43	2445.86
406.62	2576.93
406.81	2661.19
407.00	2548.84
407.20	2502.03
407.39	2490.33
407.58	2597.99
407.77	2731.41
407.96	2635.44
408.15	2794.60
408.34	2792.26
408.54	2745.45
408.73	2803.96
408.92	2871.84
409.11	2834.39
409.30	2864.82
409.49	2892.90
409.68	2958.44
409.87	2813.32
410.07	3016.95
410.26	2979.50
410.45	3033.33
410.64	3075.46
410.83	3115.25
411.02	2981.84
411.21	3225.26
411.40	3030.99
411.59	3222.92
411.78	3204.19
411.98	3019.29
412.17	3325.90
412.36	3300.16
412.55	3475.70
412.74	3307.18
412.93	3325.90
413.12	3281.43
413.31	3435.91
413.50	3351.65
413.69	3403.14
413.88	3620.81
414.07	3609.11
414.26	3618.47
414.45	3695.71
414.64	3581.02
414.83	3749.54
415.02	3716.77
415.22	3838.48
415.41	3817.41
415.60	3859.54
415.79	3918.06
415.98	3936.78
416.17	3997.64
416.36	3875.93
416.55	3964.87
416.74	4198.92
416.93	4072.53
417.12	3969.55
417.31	4039.76
417.50	3911.04
417.69	4126.36
417.88	4306.59
418.07	4280.84
418.26	4161.47
418.45	4327.65
418.64	4498.51
418.83	4360.42
419.02	4447.02
419.21	4524.26
419.39	4550.00
419.58	4447.02
419.77	4435.32
419.96	4519.57
420.15	4545.32
420.34	4599.15
420.53	4416.59
420.72	4652.98
420.91	4643.62
421.10	4627.24
421.29	4774.69
421.48	4718.52
421.67	4753.63
421.86	4648.30
422.05	4690.43
422.24	4697.46
422.43	4912.78
422.61	4863.63
422.80	4844.91
422.99	4865.97
423.18	4926.83
423.37	4905.76
423.56	5008.75
423.75	4954.91
423.94	4847.25
424.13	4627.24
424.32	4664.69
424.50	5029.81
424.69	4945.55
424.88	4997.04
425.07	4966.62
425.26	4870.65
425.45	4896.40
425.64	4985.34
425.83	4840.23
426.01	5013.43
426.20	4975.98
426.39	5083.64
426.58	5053.22
426.77	4861.29
426.96	5008.75
427.15	4997.04
427.33	5329.40
427.52	5177.26
427.71	5146.84
427.90	5296.63
428.09	5238.12
428.28	5345.78
428.46	5287.27
428.65	5165.56
428.84	5631.33
429.03	5369.19
429.22	5303.65
429.40	5397.28
429.59	5296.63
429.78	5217.05
429.97	5233.44
430.16	5577.50
430.34	5497.92
430.53	5661.76
430.72	5605.58
430.91	5689.84
431.10	5696.86
431.28	5706.23
431.47	5853.68
431.66	5888.79
431.85	5708.57
432.03	5856.02
432.22	5879.43
432.41	5844.32
432.60	5799.85
432.79	6045.60
432.97	5900.49
433.16	6026.88
433.35	5839.64
433.54	5937.94
433.72	5973.05
433.91	5989.43
434.10	6029.22
434.28	6186.04
434.47	6108.80
434.66	6164.97
434.85	6258.59
435.03	6211.78
435.22	6216.46
435.41	6141.57
435.59	6225.82
435.78	6457.54
435.97	6370.94
436.16	6389.66
436.34	6394.34
436.53	6438.81
436.72	6595.63
436.90	6363.92
437.09	6476.26
437.28	6513.71
437.46	6478.60
437.65	6642.44
437.84	6630.74
438.02	6644.78
438.21	6640.10
438.40	6860.11
438.58	6967.77
438.77	7068.42
438.96	6895.22
439.14	6958.41
439.33	7056.72
439.52	7026.29
439.70	7028.63
439.89	7410.14
440.08	7201.83
440.26	7314.17
440.45	7187.79
440.63	7316.51
440.82	7588.02
441.01	7400.77
441.19	7508.44
441.38	7581.00
441.57	7646.53
441.75	7618.44
441.94	7819.73
442.12	7934.42
442.31	8060.80
442.50	8065.49
442.68	7915.69
442.87	8077.19
443.05	8039.74
443.24	8205.92
443.43	7981.23
443.61	8032.72
443.80	8290.18
443.98	7887.61
444.17	7798.66
444.35	8077.19
444.54	8557.00
444.73	8184.85
444.91	8201.24
445.10	8154.43
445.28	8315.92
445.47	8084.21
445.65	8257.41
445.84	8470.40
446.02	8461.04
446.21	8655.30
446.39	8292.52
446.58	8456.36
446.77	8648.28
446.95	8236.35
447.14	8435.29
447.32	8496.14
447.51	8479.76
447.69	8442.31
447.88	8496.14
448.06	8524.23
448.25	8444.65
448.43	8346.35
448.62	8521.89
448.80	8404.86
448.99	8533.59
449.17	8641.26
449.36	8613.17
449.54	8842.54
449.73	8784.03
449.91	8959.57
450.10	8915.10
450.28	8936.17
450.46	8978.30
450.65	8702.11
450.83	9029.79
451.02	8940.85
451.20	9305.97
451.39	8982.98
451.57	9139.79
451.76	9116.39
451.94	9172.56
452.13	9172.56
452.31	9006.38
452.49	9039.15
452.68	9315.33
452.86	9266.18
453.05	9287.25
453.23	9418.32
453.42	9418.32
453.60	9247.46
453.78	9415.98
453.97	9406.61
454.15	9528.32
454.34	9411.29
454.52	9626.62
454.70	9535.34
454.89	9472.15
455.07	9668.75
455.26	9472.15
455.44	9825.57
455.62	9638.33
455.81	9713.22
455.99	10008.13
456.17	9811.53
456.36	9816.21
456.54	9937.91
456.73	9956.64
456.91	10413.04
457.09	10319.42
457.28	10258.57
457.46	10090.05
457.64	10487.94
457.83	10307.72
458.01	10377.94
458.19	10616.67
458.38	10513.69
458.56	10518.37
458.74	10480.92
458.93	10450.49
459.11	10778.17
459.29	10593.26
459.48	10576.88
459.66	10696.25
459.84	10661.14
460.03	10857.75
460.21	10902.22
460.39	10878.81
460.57	10796.89
460.76	11063.71
460.94	11105.84
461.12	11150.31
461.31	10984.13
461.49	11108.18
461.67	11152.65
461.85	11283.72
462.04	11101.16
462.22	11690.98
462.40	11463.94
462.59	11353.94
462.77	11328.19
462.95	11536.50
463.13	11499.05
463.32	11454.58
463.50	11641.82
463.68	11590.33
463.86	11887.58
464.05	11562.25
464.23	11559.91
464.41	11983.54
464.59	11550.54
464.78	11955.46
464.96	11903.96
465.14	11676.93
465.32	12077.16
465.50	11836.09
465.69	11843.11
465.87	11922.69
466.05	12116.95
466.23	12051.42
466.41	11964.82
466.60	12297.17
466.78	11981.20
466.96	12009.29
467.14	12297.17
467.32	12351.01
467.51	12374.41
467.69	12070.14
467.87	12081.85
468.05	12374.41
468.23	12315.90
468.41	12376.75
468.60	12496.12
468.78	12671.66
468.96	12685.70
469.14	12650.60
469.32	12809.75
469.50	12564.00
469.69	12826.14
469.87	13057.85
470.05	12896.35
470.23	12992.31
470.41	12842.52
470.59	12917.42
470.77	12910.40
470.95	13158.49
471.14	13233.39
471.32	13184.24
471.50	13369.14
471.68	13575.11
471.86	13444.04
472.04	13579.79
472.22	13755.33
472.40	13406.59
472.58	13657.03
472.77	13736.60
472.95	13860.65
473.13	14497.28
473.31	13975.34
473.49	14085.34
473.67	14033.85
473.85	13921.51
474.03	14450.47
474.21	14209.39
474.39	14733.67
474.57	14551.11
474.75	14761.76
474.93	14731.33
475.12	14836.66
475.30	15019.22
475.48	15028.58
475.66	15096.46
475.84	15112.84
476.02	15152.63
476.20	15300.08
476.38	15653.50
476.56	15623.08
476.74	15915.64
476.92	15669.89
477.10	15807.98
477.28	15880.53
477.46	16194.17
477.64	16126.29
477.82	16009.26
478.00	17069.53
478.18	16849.52
478.36	16636.53
478.54	16870.58
478.72	16898.67
478.90	17348.05
479.08	17231.02
479.26	17518.91
479.44	17685.09
479.62	17860.63
479.80	17930.84
479.98	17944.89
480.16	18438.74
480.34	18256.18
480.52	18438.74
480.70	18429.38
480.88	18356.82
481.06	18726.63
481.24	18558.11
481.41	18691.52
481.59	19119.84
481.77	19152.60
481.95	19325.80
482.13	19637.09
482.31	19314.10
482.49	19932.00
482.67	19817.32
482.85	20194.14
483.03	20549.90
483.21	20435.22
483.39	20737.15
483.57	20769.91
483.74	20725.44
483.92	21226.32
484.10	21106.95
484.28	21305.90
484.46	21759.96
484.64	22333.39
484.82	21802.09
485.00	22384.88
485.18	22422.33
485.35	22920.87
485.53	22705.54
485.71	22593.19
485.89	23096.41
486.07	22845.97
486.25	23243.86
486.43	23307.05
486.61	23396.00
486.78	23623.03
486.96	24240.93
487.14	24568.60
487.32	24245.61
487.50	24313.48
487.68	24819.04
487.85	24929.05
488.03	25273.10
488.21	25771.64
488.39	25352.68
488.57	26066.55
488.75	26185.91
488.92	26127.40
489.10	26356.77
489.28	26429.33
489.46	27351.50
489.64	27026.17
489.81	27241.50
489.99	27421.72
490.17	27438.10
490.35	27934.29
490.53	27761.09
490.70	27938.97
490.88	28353.25
491.06	28875.19
491.24	28627.09
491.41	28673.90
491.59	28760.50
491.77	29111.58
491.95	29432.24
492.13	29486.07
492.30	29579.69
492.48	29593.73
492.66	30008.01
492.84	30148.44
493.01	30174.19
493.19	30295.89
493.37	30321.64
493.54	30878.69
493.72	30780.39
493.90	30785.07
494.08	31428.71
494.25	31583.19
494.43	31714.26
494.61	32208.11
494.79	32247.90
494.96	32374.29
495.14	32336.84
495.32	33198.16
495.49	32797.93
495.67	32830.69
495.85	33120.92
496.02	33345.61
496.20	33710.74
496.38	33404.13
496.55	33785.63
496.73	34590.78
496.91	34115.65
497.09	34197.57
497.26	34815.47
497.44	34691.42
497.62	35002.71
497.79	35342.09
497.97	35229.74
498.14	35737.64
498.32	35842.96
498.50	35068.25
498.67	36034.89
498.85	36077.02
499.03	36182.34
499.20	36119.15
499.38	36627.04
499.56	36275.96
499.73	36893.86
499.91	36854.08
500.08	37514.11
500.26	36989.83
500.44	37483.68
500.61	37848.80
500.79	37457.93
500.97	37888.59
501.14	38443.30
501.32	38127.33
501.49	38059.45
501.67	38440.96
501.84	38447.98
502.02	38635.22
502.20	38925.45
502.37	39100.99
502.55	38927.79
502.72	39051.84
502.90	39395.90
503.07	39201.63
503.25	39283.55
503.43	39250.78
503.60	39770.38
503.78	39845.28
503.95	39983.37
504.13	40292.32
504.30	40062.95
504.48	39882.73
504.65	40481.91
504.83	40856.39
505.01	40828.30
505.18	40964.06
505.36	41111.51
505.53	40708.94
505.71	41586.64
505.88	41612.38
506.06	41015.55
506.23	41354.93
506.41	41581.96
506.58	41359.61
506.76	41598.34
506.93	42164.75
507.11	41830.05
507.28	42344.97
507.46	42761.59
507.63	42354.33
507.81	42728.82
507.98	42462.00
508.16	43164.16
508.33	42880.95
508.50	43229.69
508.68	43304.59
508.85	43777.38
509.03	43365.45
509.20	43044.79
509.38	44081.65
509.55	43981.01
509.73	44182.29
509.90	44194.00
510.08	44296.98
510.25	44657.42
510.42	44460.82
510.60	44769.77
510.77	45099.78
510.95	44851.69
511.12	44545.08
511.30	45038.93
511.47	45181.70
511.64	45120.85
511.82	45806.62
511.99	45151.27
512.17	45691.94
512.34	45918.97
512.51	45801.94
512.69	46373.03
512.86	45991.53
513.04	46480.70
513.21	46604.75
513.38	46263.03
513.56	46831.78
513.73	46855.18
513.90	46340.27
514.08	46726.46
514.25	46735.82
514.43	46967.53
514.60	47168.82
514.77	46866.89
514.95	47187.54
515.12	47119.66
515.29	47447.34
515.47	47674.37
515.64	47784.38
515.81	47456.70
515.99	47934.17
516.16	48257.17
516.33	47735.23
516.51	48369.51
516.68	48215.04
516.85	47749.27
517.03	48456.11
517.20	48484.20
517.37	48016.09
517.54	48128.44
517.72	48587.18
517.89	48472.49
518.06	48804.85
518.24	48612.93
518.41	48772.08
518.58	49090.40
518.75	48966.35
518.93	49397.01
519.10	49406.37
519.27	49411.05
519.45	49284.66
519.62	49595.95
519.79	49392.33
519.96	49722.34
520.14	50120.23
520.31	49883.84
520.48	50258.32
520.65	49970.44
520.83	50227.90
521.00	50323.86
521.17	50295.77
521.34	50326.20
521.52	50293.43
521.69	50356.63
521.86	50878.57
522.03	50733.45
522.20	50698.34
522.38	50841.12
522.55	50850.48
522.72	51075.17
522.89	51068.15
523.07	51494.13
523.24	50953.46
523.41	51367.74
523.58	51271.78
523.75	51894.36
523.92	51711.80
524.10	52037.13
524.27	51863.93
524.44	51793.71
524.61	51915.42
524.78	51950.53
524.96	52025.43
525.13	52144.80
525.30	52207.99
525.47	52130.75
525.64	52191.61
525.81	52453.75
525.98	52725.25
526.16	52367.15
526.33	52233.74
526.50	52683.12
526.67	52341.40
526.84	52687.80
527.01	52678.44
527.18	52397.57
527.36	52325.02
527.53	52865.68
527.70	52996.75
527.87	52975.69
528.04	52877.38
528.21	53282.30
528.38	53043.56
528.55	52999.09
528.72	53059.94
528.89	53120.80
529.07	53078.67
529.24	53286.98
529.41	53497.62
529.58	53162.93
529.75	53333.79
529.92	53549.12
530.09	53523.37
530.26	53708.27
530.43	53595.93
530.60	53558.48
530.77	53415.71
530.94	53537.41
531.11	53801.89
531.28	53963.39
531.46	53993.82
531.63	53797.21
531.80	54223.19
531.97	53996.16
532.14	54281.70
532.31	54314.47
532.48	54553.21
532.65	54454.90
532.82	54396.39
532.99	54349.58
533.16	54298.09
533.33	54798.96
533.50	54590.66
533.67	54564.91
533.84	54459.58
534.01	54529.80
534.18	54499.37
534.35	54934.71
534.52	54710.02
534.69	55098.55
534.86	54944.08
535.03	55004.93
535.20	55000.25
535.37	55220.26
535.54	55243.66
535.71	55033.02
535.88	54995.57
536.05	55285.79
536.22	55311.54
536.38	55236.64
536.55	55192.17
536.72	55473.04
536.89	55281.11
537.06	55388.78
537.23	55423.89
537.40	55494.10
537.57	55412.18
537.74	55767.94
537.91	55676.66
538.08	55451.97
538.25	55393.46
538.42	55412.18
538.59	55980.93
538.75	55915.40
538.92	55657.94
539.09	56055.83
539.26	56020.72
539.43	56009.02
539.60	56116.68
539.77	55983.27
539.94	56271.16
540.11	56177.54
540.28	56191.58
540.44	56186.90
540.61	56327.33
540.78	56200.94
540.95	56116.68
541.12	56095.62
541.29	56271.16
541.46	56486.49
541.62	56247.75
541.79	56420.95
541.96	56182.22
542.13	56343.72
542.30	56409.25
542.47	56472.45
542.63	56563.73
542.80	56570.75
542.97	56830.55
543.14	57165.24
543.31	56706.50
543.48	57148.86
543.64	57345.47
543.81	57162.90
543.98	56996.73
544.15	57123.11
544.32	57123.11
544.48	57240.14
544.65	57123.11
544.82	57338.44
544.99	56978.00
545.16	57310.36
545.32	56938.21
545.49	57317.38
545.66	57495.26
545.83	57570.16
546.00	57659.10
546.16	57375.89
546.33	57420.36
546.50	57251.84
546.67	57495.26
546.83	57095.03
547.00	57560.79
547.17	57488.24
547.34	57371.21
547.50	57511.64
547.67	58017.20
547.84	57907.19
548.00	57839.32
548.17	58073.37
548.34	57979.75
548.51	58192.74
548.67	57783.15
548.84	57928.26
549.01	57792.51
549.18	57925.92
549.34	58066.35
549.51	58148.27
549.68	58277.00
549.84	57963.37
550.01	58080.39
550.18	58171.67
550.34	58218.49
550.51	58157.63
550.68	58403.39
550.84	57968.05
551.01	58475.94
551.18	58237.21
551.34	58078.05
551.51	58286.36
551.68	58459.56
551.84	58293.38
552.01	58417.43
552.18	58419.77
552.34	58316.79
552.51	58433.81
552.68	58410.41
552.84	58562.54
553.01	58602.33
553.18	58560.20
553.34	58557.86
553.51	58604.67
553.67	58492.33
553.84	58574.25
554.01	58780.21
554.17	58719.36
554.34	58906.60
554.51	58644.46
554.67	58670.21
554.84	58857.45
555.00	58653.82
555.17	58749.79
555.33	58878.52
555.50	58796.60
555.67	58735.74
555.83	58836.39
556.00	59040.01
556.16	59119.59
556.33	58791.92
556.50	58955.75
556.66	59000.22
556.83	58967.46
556.99	59208.53
557.16	59386.41
557.32	59355.99
557.49	59426.20
557.65	58988.52
557.82	59103.21
557.98	59185.13
558.15	59154.70
558.32	59201.51
558.48	59229.60
558.65	59224.92
558.81	59245.98
558.98	59208.53
559.14	59454.29
559.31	59278.75
559.47	59529.19
559.64	59444.93
559.80	59358.33
559.97	59746.86
560.13	59208.53
560.30	59402.80
560.46	59559.61
560.63	59561.95
560.79	59508.12
560.96	59749.20
561.12	59405.14
561.29	59622.81
561.45	59552.59
561.61	59599.40
561.78	59664.94
561.94	59536.21
562.11	59655.57
562.27	59615.79
562.44	59489.40
562.60	59777.28
562.77	59784.30
562.93	59538.55
563.10	59903.67
563.26	59634.51
563.42	60067.51
563.59	59728.13
563.75	59786.64
563.92	59833.46
564.08	59688.34
564.24	59962.18
564.41	59882.61
564.57	59833.46
564.74	60133.04
564.90	59833.46
565.07	59978.57
565.23	60037.08
565.39	59861.54
565.56	60032.40
565.72	60046.44
565.88	59955.16
566.05	59941.12
566.21	59873.24
566.38	60126.02
566.54	60053.47
566.70	60303.90
566.87	60186.88
567.03	59891.97
567.19	60154.11
567.36	60207.94
567.52	60048.78
567.68	60444.33
567.85	60104.96
568.01	60151.77
568.17	59936.44
568.34	60238.37
568.50	60121.34
568.66	60076.87
568.83	60278.16
568.99	60296.88
569.15	60074.53
569.32	60123.68
569.48	60310.92
569.64	60343.69
569.81	60252.41
569.97	60016.02
570.13	60257.09
570.30	60074.53
570.46	60233.69
570.62	60343.69
570.78	60282.84
570.95	60130.70
571.11	60331.99
571.27	60217.30
571.43	60130.70
571.60	60563.70
571.76	60392.84
571.92	60343.69
572.09	60357.74
572.25	60460.72
572.41	60233.69
572.57	60285.18
572.74	60589.45
572.90	60444.33
573.06	60432.63
573.22	60350.71
573.38	60500.51
573.55	60388.16
573.71	60437.31
573.87	60495.83
574.03	60226.66
574.20	60542.64
574.36	60512.21
574.52	60327.31
574.68	60526.25
574.84	60502.85
575.01	60542.64
575.17	60402.21
575.33	60687.75
575.49	60526.25
575.65	60507.53
575.82	60544.98
575.98	60559.02
576.14	60711.16
576.30	60757.97
576.46	60633.92
576.62	60491.15
576.79	60509.87
576.95	60360.08
577.11	60715.84
577.27	60610.51
577.43	60523.91
577.59	60722.86
577.75	60397.52
577.92	60519.23
578.08	60622.22
578.24	60460.72
578.40	60814.14
578.56	60800.10
578.72	60472.42
578.88	60757.97
579.04	60860.95
579.21	60640.94
579.37	60669.03
579.53	60825.84
579.69	60622.22
579.85	60563.70
580.01	60458.38
580.17	60488.80
580.33	60566.04
580.49	60654.98
580.65	60715.84
580.82	60626.90
580.98	60800.10
581.14	60636.26
581.30	60842.23
581.46	60720.52
581.62	60764.99
581.78	60832.86
581.94	60832.86
582.10	60647.96
582.26	60633.92
582.42	60594.13
582.58	60697.11
582.74	60816.48
582.90	60718.18
583.06	60835.20
583.22	60783.71
583.38	60757.97
583.54	60821.16
583.70	60713.50
583.86	60818.82
584.02	60631.58
584.18	60680.73
584.34	60942.87
584.50	60786.05
584.66	60587.11
584.82	60783.71
584.98	60870.31
585.14	60816.48
585.30	60549.66
585.46	60952.23
585.62	60928.83
585.78	60912.44
585.94	60575.40
586.10	60900.74
586.26	60779.03
586.42	60884.36
586.58	60935.85
586.74	61071.60
586.90	60912.44
587.06	60952.23
587.22	60905.42
587.38	60722.86
587.54	60837.54
587.70	61029.47
587.86	60683.07
588.02	60879.67
588.18	60975.64
588.34	60809.46
588.49	60926.49
588.65	60945.21
588.81	61045.85
588.97	61048.19
589.13	61001.38
589.29	60797.76
589.45	61113.73
589.61	60905.42
589.77	61190.97
589.93	61034.15
590.08	61326.72
590.24	61219.05
590.40	61172.24
590.56	61254.16
590.72	61090.32
590.88	61205.01
591.04	61078.62
591.20	61261.18
591.35	61235.44
591.51	61324.38
591.67	61382.89
591.83	61403.95
591.99	61230.75
592.15	61270.54
592.31	61223.73
592.46	61256.50
592.62	61197.99
592.78	61190.97
592.94	61263.52
593.10	61059.90
593.26	61415.66
593.41	61340.76
593.57	61242.46
593.73	61366.51
593.89	61488.21
594.05	61387.57
594.20	61275.22
594.36	61361.82
594.52	61410.98
594.68	61296.29
594.84	61336.08
594.99	61425.02
595.15	61244.80
595.31	61392.25
595.47	61090.32
595.62	61352.46
595.78	61284.59
595.94	61520.98
596.10	61546.73
596.25	61343.10
596.41	61382.89
596.57	61361.82
596.73	61443.74
596.88	61249.48
597.04	61446.08
597.20	61467.15
597.36	61490.55
597.51	61565.45
597.67	61408.64
597.83	61364.17
597.99	61570.13
598.14	61558.43
598.30	61441.40
598.46	61277.57
598.61	61614.60
598.77	61324.38
598.93	61488.21
599.09	61600.56
599.24	61687.16
599.40	61567.79
599.56	61602.90
599.71	61680.14
599.87	61776.10
600.03	61565.45
600.18	61511.62
600.34	61609.92
600.50	61811.21
600.65	61488.21
600.81	61689.50
600.97	61584.18
601.12	61462.47
601.28	61464.81
601.44	61315.01
601.59	61626.31
601.75	61492.89
601.91	61684.82
602.06	61553.75
602.22	61794.82
602.37	61574.81
602.53	61593.54
602.69	61420.34
602.84	61677.80
603.00	61574.81
603.16	61457.79
603.31	61621.62
603.47	61436.72
603.62	61399.27
603.78	61701.20
603.94	61364.17
604.09	61701.20
604.25	61532.68
604.40	61708.22
604.56	61427.36
604.71	61710.56
604.87	61366.51
605.03	61520.98
605.18	61446.08
605.34	61396.93
605.49	61357.14
605.65	61614.60
605.80	61542.05
605.96	61698.86
606.12	61638.01
606.27	61769.08
606.43	61401.61
606.58	61640.35
606.74	61513.96
606.89	61439.06
607.05	61565.45
607.20	61443.74
607.36	61221.39
607.51	61293.95
607.67	61265.86
607.82	61502.26
607.98	61375.87
608.13	61471.83
608.29	61478.85
608.44	61432.04
608.60	61434.38
608.75	61581.84
608.91	61415.66
609.06	61448.42
609.22	61523.32
609.37	61499.92
609.53	61443.74
609.68	61371.19
609.84	61296.29
609.99	61446.08
610.15	61436.72
610.30	61492.89
610.46	61551.41
610.61	61396.93
610.76	61378.21
610.92	61282.25
611.07	61392.25
611.23	61443.74
611.38	61389.91
611.54	61254.16
611.69	61366.51
611.84	61277.57
612.00	61352.46
612.15	61279.91
612.31	61151.18
612.46	61200.33
612.62	61242.46
612.77	61263.52
612.92	61481.19
613.08	61146.50
613.23	61284.59
613.39	61095.00
613.54	61230.75
613.69	61352.46
613.85	61481.19
614.00	61406.30
614.15	61282.25
614.31	61338.42
614.46	61303.31
614.62	61027.13
614.77	60987.34
614.92	61104.37
615.08	61099.68
615.23	61183.94
615.38	61263.52
615.54	61202.67
615.69	61331.40
615.84	61137.13
616.00	61141.81
616.15	61186.28
616.30	61212.03
616.46	60772.01
616.61	60872.65
616.76	61052.87
616.92	61031.81
617.07	61123.09
617.22	61003.72
617.37	60926.49
617.53	61312.67
617.68	61188.63
617.83	60851.59
617.99	60917.12
618.14	60977.98
618.29	61066.92
618.45	60753.29
618.60	60942.87
618.75	60828.18
618.90	61113.73
619.06	60987.34
619.21	61111.39
619.36	61153.52
619.51	60963.93
619.67	60860.95
619.82	60835.20
619.97	60807.12
620.12	60870.31
620.28	60816.48
620.43	61048.19
620.58	60900.74
620.73	60725.20
620.89	60977.98
621.04	61048.19
621.19	60711.16
621.34	60790.73
621.49	60582.43
621.65	60760.31
621.80	60970.96
621.95	60530.93
622.10	60898.40
622.25	60652.64
622.41	60708.82
622.56	60643.28
622.71	60790.73
622.86	60420.93
623.01	60741.58
623.16	60713.50
623.32	60640.94
623.47	60776.69
623.62	60629.24
623.77	60584.77
623.92	60793.07
624.07	60683.07
624.23	60612.85
624.38	60423.27
624.53	60308.58
624.68	60231.35
624.83	60547.32
624.98	60463.06
625.13	60336.67
625.29	60580.09
625.44	60388.16
625.59	60292.20
625.74	60580.09
625.89	60397.52
626.04	60317.95
626.19	60292.20
626.34	60214.96
626.49	60090.91
626.65	60343.69
626.80	60404.55
626.95	60280.50
627.10	60027.72
627.25	60331.99
627.40	60053.47
627.55	60322.63
627.70	60179.85
627.85	59976.23
628.00	60158.79
628.15	60219.64
628.30	60062.83
628.45	60271.14
628.60	59945.80
628.76	60097.94
628.91	60119.00
629.06	60051.12
629.21	60100.28
629.36	60144.75
629.51	59983.25
629.66	59945.80
629.81	59796.01
629.96	60020.70
630.11	59980.91
630.26	59896.65
630.41	60137.72
630.56	59971.55
630.71	59873.24
630.86	59758.56
631.01	59742.17
631.16	59824.09
631.31	59716.43
631.46	59735.15
631.61	59819.41
631.76	59625.15
631.91	59945.80
632.06	59803.03
632.21	59704.73
632.36	59784.30
632.51	59463.65
632.66	59681.32
632.81	59571.32
632.96	59643.87
633.10	59683.66
633.25	59697.70
633.40	59758.56
633.55	59821.75
633.70	59398.12
633.85	59580.68
634.00	59522.16
634.15	59676.64
634.30	59344.28
634.45	59683.66
634.60	59723.45
634.75	59465.99
634.90	59318.54
635.05	59536.21
635.19	59377.05
635.34	59643.87
635.49	59381.73
635.64	59402.80
635.79	59444.93
635.94	59341.94
636.09	59320.88
636.24	59372.37
636.39	59395.77
636.53	59533.87
636.68	59414.50
636.83	59290.45
636.98	59391.09
637.13	59269.39
637.28	59119.59
637.43	59299.81
637.57	59360.67
637.72	58962.78
637.87	59187.47
638.02	59098.53
638.17	59365.35
638.32	59271.73
638.46	59042.35
638.61	59245.98
638.76	59105.55
638.91	58986.18
639.06	59100.87
639.20	59234.28
639.35	59157.04
639.50	58766.17
639.65	58836.39
639.80	59070.44
639.94	58855.11
640.09	59035.33
640.24	59100.87
640.39	58805.96
640.54	59084.48
640.68	58951.07
640.83	58859.79
640.98	58770.85
641.13	58614.04
641.27	59075.12
641.42	58960.44
641.57	58651.48
641.72	58890.22
641.86	58663.19
642.01	58630.42
642.16	58834.05
642.31	58738.08
642.45	58801.28
642.60	58646.80
642.75	58562.54
642.90	58658.51
643.04	58616.38
643.19	58501.69
643.34	58590.63
643.48	58707.66
643.63	58485.31
643.78	58660.85
643.93	58431.47
644.07	58576.59
644.22	58370.62
644.37	58164.65
644.51	58431.47
644.66	58581.27
644.81	58478.28
644.95	58656.17
645.10	58616.38
645.25	58248.91
645.39	58246.57
645.54	58466.58
645.69	58527.44
645.83	58471.26
645.98	58389.34
646.13	58506.37
646.27	58370.62
646.42	58237.21
646.57	58138.91
646.71	58218.49
646.86	58489.99
647.00	58365.94
647.15	58298.06
647.30	58169.33
647.44	58323.81
647.59	58349.56
647.74	58372.96
647.88	58349.56
648.03	58468.92
648.17	58131.89
648.32	58253.59
648.47	58248.91
648.61	57951.66
648.76	58073.37
648.90	58108.48
649.05	57972.73
649.20	58061.67
649.34	58134.23
649.49	58195.08
649.63	58295.72
649.78	58199.76
649.92	58288.70
650.07	58286.36
650.21	58059.33
650.36	58054.65
650.51	57963.37
650.65	58305.09
650.80	57748.04
650.94	57785.49
651.09	57736.34
651.23	57579.52
651.38	57914.22
651.52	57598.24
651.67	57530.37
651.81	57670.80
651.96	57684.84
652.10	57476.54
652.25	57778.46
652.39	57659.10
652.54	57394.62
652.68	57467.17
652.83	57504.62
652.97	57570.16
653.12	57577.18
653.26	57532.71
653.41	57640.37
653.55	57668.46
653.70	57628.67
653.84	57750.38
653.99	57277.59
654.13	57415.68
654.27	57352.49
654.42	57392.28
654.56	57160.56
654.71	57588.88
654.85	57570.16
655.00	57549.09
655.14	57286.95
655.29	57275.25
655.43	57521.01
655.57	57317.38
655.72	57366.53
655.86	57411.00
656.01	57293.97
656.15	57326.74
656.30	57389.94
656.44	57343.12
656.58	57265.89
656.73	57247.16
656.87	57160.56
657.01	57284.61
657.16	57141.84
657.30	56933.53
657.45	57062.26
657.59	57006.09
657.73	57059.92
657.88	56886.72
658.02	56846.93
658.16	57176.95
658.31	57160.56
658.45	56999.07
658.60	56933.53
658.74	56996.73
658.88	56994.39
659.03	56772.03
659.17	56720.54
659.31	56767.35
659.46	56935.87
659.60	56875.02
659.74	56493.51
659.89	56610.54
660.03	56537.98
660.17	56739.27
660.32	56507.55
660.46	56680.75
660.60	56545.00
660.74	56748.63
660.89	56816.50
661.03	56266.48
661.17	56053.49
661.32	56282.86
661.46	56210.31
661.60	56493.51
661.74	56332.01
661.89	56259.46
662.03	56186.90
662.17	56140.09
662.31	56048.81
662.46	56102.64
662.60	55959.87
662.74	55770.28
662.88	55873.27
663.03	55590.06
663.17	56067.53
663.31	55936.46
663.45	55608.79
663.60	55735.18
663.74	55451.97
663.88	55524.53
664.02	55561.98
664.17	55494.10
664.31	55428.57
664.45	55554.96
664.59	55400.48
664.73	55573.68
664.88	55484.74
665.02	55194.51
665.16	55365.37
665.30	55323.24
665.44	55407.50
665.59	55075.15
665.73	55037.70
665.87	55056.42
666.01	55250.69
666.15	54988.55
666.29	55033.02
666.44	55054.08
666.58	54681.94
666.72	54845.77
666.86	54815.35
667.00	54845.77
667.14	54475.97
667.28	54813.01
667.43	54672.57
667.57	54564.91
667.71	54487.67
667.85	54328.52
667.99	54302.77
668.13	54309.79
668.27	54183.40
668.41	54569.59
668.56	54157.66
668.70	54108.50
668.84	53703.59
668.98	54042.97
669.12	54155.32
669.26	54040.63
669.40	54057.01
669.54	54096.80
669.68	53818.28
669.82	53897.86
669.96	54012.54
670.10	53778.49
670.25	53993.82
670.39	53729.34
670.53	53867.43
670.67	54007.86
670.81	53745.72
670.95	53602.95
671.09	53270.59
671.23	53155.91
671.37	53155.91
671.51	53048.24
671.65	53373.58
671.79	53073.99
671.93	52905.47
672.07	53109.10
672.21	52891.43
672.35	52378.85
672.49	52329.70
672.63	52870.36
672.77	52631.63
672.91	52552.05
673.05	52317.99
673.19	52313.31
673.33	52079.26
673.47	52266.50
673.61	52444.38
673.75	51906.06
673.89	51749.24
674.03	51714.14
674.17	51547.96
674.31	51704.77
674.45	51414.55
674.59	51351.35
674.73	51543.28
674.87	51604.13
675.01	51739.88
675.15	51257.73
675.29	51241.35
675.43	51285.82
675.56	50878.57
675.70	50642.17
675.84	50593.02
675.98	50277.05
676.12	51124.32
676.26	50864.52
676.40	50515.78
676.54	50330.88
676.68	50473.65
676.82	49881.50
676.96	50349.60
677.10	50082.78
677.23	49804.26
677.37	49832.35
677.51	49492.97
677.65	49303.38
677.79	48465.47
677.93	48933.58
678.07	48769.74
678.21	48980.39
678.34	48388.24
678.48	48381.21
678.62	48425.68
678.76	48442.07
678.90	48598.88
679.04	48114.39
679.18	48385.89
679.31	47578.41
679.45	48039.50
679.59	47805.44
679.73	47831.19
679.87	47250.74
680.00	47295.21
680.14	47058.81
680.28	46911.36
680.42	46953.49
680.56	46672.62
680.70	46256.01
680.83	46239.62
680.97	46705.39
681.11	46571.98
681.25	46387.08
681.39	46419.84
681.52	46241.96
681.66	45942.38
681.80	46071.10
681.94	45687.26
682.07	45308.09
682.21	44645.72
682.35	45177.02
682.49	45556.19
682.62	45015.52
682.76	45340.86
682.90	44706.57
683.04	44676.15
683.17	44704.23
683.31	44343.79
683.45	43992.71
683.59	43695.46
683.72	43491.83
683.86	43697.80
684.00	43557.37
684.13	43985.69
684.27	43323.32
684.41	43997.39
684.55	43477.79
684.68	43138.41
684.82	42951.17
684.96	42490.09
685.09	42564.98
685.23	42347.31
685.37	42354.33
685.50	42415.19
685.64	42476.04
685.78	42153.05
685.91	41928.36
686.05	41530.47
686.19	41350.24
686.32	41420.46
686.46	40725.32
686.60	40547.44
686.73	40952.35
686.87	40704.26
687.01	40563.82
687.14	40486.59
687.28	40109.76
687.42	40257.21
687.55	40243.17
687.69	39995.07
687.82	39660.38
687.96	39021.41
688.10	39208.65
688.23	39531.65
688.37	39253.12
688.50	39171.21
688.64	38948.85
688.78	38672.67
688.91	38162.43
689.05	38227.97
689.18	38216.27
689.32	37818.38
689.46	37127.92
689.59	37624.11
689.73	37837.10
689.86	37387.72
690.00	37048.34
690.13	37198.13
690.27	37139.62
690.41	37724.75
690.54	36694.92
690.68	36601.30
690.81	37015.57
690.95	36409.37
691.08	36395.33
691.22	35793.81
691.35	36041.91
691.49	35964.67
691.62	35847.64
691.76	35438.05
691.89	35227.40
692.03	35131.44
692.16	34862.28
692.30	35063.57
692.43	34927.81
692.57	34518.22
692.70	34230.33
692.84	34277.15
692.97	34766.32
693.11	34438.64
693.24	34480.77
693.38	33778.61
693.51	33359.66
693.65	33752.87
693.78	33235.61
693.92	33319.87
694.05	33179.43
694.19	33139.65
694.32	32673.88
694.45	32746.44
694.59	32580.26
694.72	32491.32
694.86	31878.10
694.99	31920.23
695.13	32222.16
695.26	31728.30
695.39	31304.67
695.53	31681.49
695.66	31349.14
695.80	31124.44
695.93	30937.20
696.07	30691.44
696.20	30260.79
696.33	30539.31
696.47	30864.64
696.60	30288.87
696.73	30265.47
696.87	29879.28
697.00	30099.29
697.14	29954.18
697.27	29727.14
697.40	29778.64
697.54	29406.49
697.67	29277.76
697.80	28947.75
697.94	29369.04
698.07	29104.56
698.21	28676.24
698.34	28627.09
698.47	28837.74
698.61	28240.90
698.74	28533.47
698.87	28400.06
699.01	28041.96
699.14	27936.63
699.27	28086.43
699.40	27672.15
699.54	28058.34
699.67	27559.81
699.80	27281.28
699.94	27349.16
700.07	27267.24
700.20	26937.23
700.34	26448.05
700.47	26457.42
700.60	26473.80
700.73	26419.97
700.87	25846.54
701.00	25837.17
701.13	25703.76
701.26	25837.17
701.40	25949.52
701.53	25656.95
701.66	25640.57
701.79	25158.42
701.93	25015.65
702.06	24805.00
702.19	24800.32
702.32	24980.54
702.46	24753.51
702.59	24503.07
702.72	24154.33
702.85	24561.58
702.99	24379.02
703.12	23971.77
703.25	23805.59
703.38	23721.33
703.51	23908.57
703.65	23491.96
703.78	22939.59
703.91	22986.40
704.04	23049.60
704.17	23370.25
704.31	22817.88
704.44	22707.88
704.57	22569.79
704.70	22321.69
704.83	22314.67
704.96	22122.74
705.10	21956.57
705.23	22317.01
>>>>>End Processed Spectral Data<<<<<
