SpectraSuite Data File
++++++++++++++++++++++++++++++++++++
Date: Fri Oct 25 11:25:47 EDT 2013
User: price-jones
Dark Spectrum Present: No
Reference Spectrum Present: No
Number of Sampled Component Spectra: 1
Spectrometers: USB2+H05261
Integration Time (usec): 100000 (USB2+H05261)
Spectra Averaged: 1 (USB2+H05261)
Boxcar Smoothing: 0 (USB2+H05261)
Correct for Electrical Dark: No (USB2+H05261)
Strobe/Lamp Enabled: No (USB2+H05261)
Correct for Detector Non-linearity: No (USB2+H05261)
Correct for Stray Light: No (USB2+H05261)
Number of Pixels in Processed Spectrum: 2048
>>>>>Begin Processed Spectral Data<<<<<
365.73	177.88
365.92	177.88
366.12	177.88
366.32	196.60
366.52	166.18
366.72	133.41
366.91	166.18
367.11	135.75
367.31	163.84
367.51	138.09
367.70	163.84
367.90	196.60
368.10	84.26
368.30	133.41
368.49	168.52
368.69	145.11
368.89	124.05
369.09	184.90
369.28	212.99
369.48	131.07
369.68	117.03
369.87	222.35
370.07	170.86
370.27	212.99
370.47	360.44
370.66	634.29
370.86	638.97
371.06	674.07
371.25	709.18
371.45	662.37
371.65	662.37
371.84	716.20
372.04	683.44
372.24	669.39
372.44	718.54
372.63	786.42
372.83	746.63
373.03	791.10
373.22	784.08
373.42	734.93
373.62	748.97
373.81	807.48
374.01	737.27
374.21	959.62
374.40	748.97
374.60	835.57
374.79	758.33
374.99	840.25
375.19	842.59
375.38	866.00
375.58	809.83
375.78	854.30
375.97	908.13
376.17	858.98
376.37	887.06
376.56	863.66
376.76	861.32
376.95	870.68
377.15	880.04
377.35	880.04
377.54	929.19
377.74	842.59
377.93	861.32
378.13	931.53
378.33	1008.77
378.52	901.11
378.72	976.00
378.91	901.11
379.11	957.28
379.31	992.39
379.50	943.24
379.70	1034.52
379.89	957.28
380.09	968.98
380.28	964.30
380.48	990.05
380.68	1015.79
380.87	987.71
381.07	1004.09
381.26	1048.56
381.46	1069.62
381.65	1069.62
381.85	1055.58
382.04	959.62
382.24	1034.52
382.43	1034.52
382.63	1109.41
382.83	1050.90
383.02	1107.07
383.22	1137.50
383.41	1095.37
383.61	1039.20
383.80	1125.80
384.00	1123.46
384.19	1142.18
384.39	1217.08
384.58	1167.93
384.78	1114.10
384.97	1170.27
385.17	1146.86
385.36	1029.84
385.56	1196.01
385.75	1163.25
385.95	1174.95
386.14	1186.65
386.34	1238.14
386.53	1205.38
386.72	1245.16
386.92	1238.14
387.11	1238.14
387.31	1259.21
387.50	1240.48
387.70	1315.38
387.89	1221.76
388.09	1320.06
388.28	1256.87
388.48	1207.72
388.67	1359.85
388.86	1306.02
389.06	1320.06
389.25	1359.85
389.45	1308.36
389.64	1306.02
389.84	1385.60
390.03	1266.23
390.22	1336.45
390.42	1434.75
390.61	1472.20
390.81	1418.36
391.00	1385.60
391.19	1509.65
391.39	1397.30
391.58	1373.89
391.78	1547.09
391.97	1434.75
392.16	1458.15
392.36	1565.82
392.55	1563.48
392.75	1572.84
392.94	1497.94
393.13	1551.78
393.33	1411.34
393.52	1563.48
393.71	1570.50
393.91	1668.80
394.10	1493.26
394.29	1596.25
394.49	1544.75
394.68	1661.78
394.88	1671.14
395.07	1696.89
395.26	1565.82
395.46	1673.48
395.65	1736.68
395.84	1647.74
396.04	1865.41
396.23	1666.46
396.42	1788.17
396.62	1748.38
396.81	1687.53
397.00	1785.83
397.19	1849.02
397.39	1820.94
397.58	1970.73
397.77	1797.53
397.97	1944.99
398.16	1792.85
398.35	1874.77
398.55	1942.64
398.74	1900.52
398.93	2026.90
399.12	1846.68
399.32	1886.47
399.51	1959.03
399.70	2012.86
399.90	2080.74
400.09	1956.69
400.28	2069.03
400.47	2015.20
400.67	2092.44
400.86	2092.44
401.05	2104.14
401.24	2083.08
401.44	2094.78
401.63	2157.97
401.82	2118.18
402.01	2207.13
402.21	2073.71
402.40	2127.55
402.59	2125.21
402.78	2174.36
402.97	2160.31
403.17	2228.19
403.36	2349.90
403.55	2256.28
403.74	2370.96
403.93	2312.45
404.13	2370.96
404.32	2363.94
404.51	2406.07
404.70	2385.01
404.89	2401.39
405.09	2560.55
405.28	2506.71
405.47	2518.42
405.66	2525.44
405.85	2532.46
406.05	2483.31
406.24	2588.63
406.43	2576.93
406.62	2605.02
406.81	2588.63
407.00	2576.93
407.20	2602.68
407.39	2651.83
407.58	2595.65
407.77	2729.06
407.96	2698.64
408.15	2722.04
408.34	2740.77
408.54	2693.96
408.73	2834.39
408.92	2853.11
409.11	2834.39
409.30	2902.26
409.49	2862.48
409.68	2918.65
409.87	2881.20
410.07	2918.65
410.26	3068.44
410.45	3019.29
410.64	3110.57
410.83	3021.63
411.02	2991.20
411.21	3143.34
411.40	3094.19
411.59	3206.53
411.78	3185.47
411.98	3201.85
412.17	3274.41
412.36	3363.35
412.55	3414.84
412.74	3389.10
412.93	3356.33
413.12	3342.28
413.31	3517.83
413.50	3508.46
413.69	3492.08
413.88	3529.53
414.07	3365.69
414.26	3620.81
414.45	3583.36
414.64	3728.47
414.83	3702.73
415.02	3747.20
415.22	3920.40
415.41	3751.88
415.60	3911.04
415.79	3936.78
415.98	3992.95
416.17	3999.98
416.36	3953.16
416.55	3927.42
416.74	4124.02
416.93	3971.89
417.12	4128.70
417.31	4161.47
417.50	4135.73
417.69	4266.80
417.88	4067.85
418.07	4180.20
418.26	4400.21
418.45	4315.95
418.64	4503.19
418.83	4334.67
419.02	4393.19
419.21	4531.28
419.39	4472.76
419.58	4524.26
419.77	4381.48
419.96	4528.94
420.15	4573.41
420.34	4514.89
420.53	4601.49
420.72	4678.73
420.91	4727.88
421.10	4636.60
421.29	4784.06
421.48	4615.54
421.67	4755.97
421.86	4676.39
422.05	4926.83
422.24	4901.08
422.43	4954.91
422.61	5015.77
422.80	4781.71
422.99	4952.57
423.18	4884.70
423.37	5025.13
423.56	4856.61
423.75	4821.50
423.94	4910.44
424.13	4596.81
424.32	4777.03
424.50	4980.66
424.69	5111.73
424.88	5097.69
425.07	4912.78
425.26	4947.89
425.45	4880.02
425.64	4912.78
425.83	4959.60
426.01	4957.25
426.20	5081.30
426.39	4987.68
426.58	5018.11
426.77	5008.75
426.96	5240.46
427.15	5074.28
427.33	5200.67
427.52	5123.43
427.71	5254.50
427.90	5188.97
428.09	5200.67
428.28	5324.72
428.46	5313.02
428.65	5408.98
428.84	5345.78
429.03	5549.41
429.22	5383.23
429.40	5507.28
429.59	5537.71
429.78	5322.38
429.97	5301.31
430.16	5537.71
430.34	5621.97
430.53	5657.07
430.72	5605.58
430.91	5692.18
431.10	5565.79
431.28	5556.43
431.47	5755.38
431.66	5827.93
431.85	5727.29
432.03	5996.45
432.22	6026.88
432.41	5944.96
432.60	5813.89
432.79	5837.30
432.97	5996.45
433.16	6108.80
433.35	6073.69
433.54	6064.33
433.72	6024.54
433.91	6043.26
434.10	6050.28
434.28	6076.03
434.47	6104.12
434.66	6249.23
434.85	6024.54
435.03	6223.48
435.22	6382.64
435.41	6424.77
435.59	6282.00
435.78	6342.85
435.97	6443.49
436.16	6244.55
436.34	6434.13
436.53	6572.22
436.72	6579.25
436.90	6396.68
437.09	6637.76
437.28	6298.38
437.46	6628.40
437.65	6513.71
437.84	6726.70
438.02	6789.89
438.21	6780.53
438.40	6668.19
438.58	7000.54
438.77	7009.90
438.96	6911.60
439.14	7080.12
439.33	7089.48
439.52	7232.26
439.70	7075.44
439.89	7265.02
440.08	7330.56
440.26	7363.33
440.45	7272.04
440.63	7407.80
440.82	7522.48
441.01	7375.03
441.19	7492.05
441.38	7447.58
441.57	7632.49
441.75	7719.09
441.94	7918.03
442.12	7859.52
442.31	8018.68
442.50	8100.59
442.68	7948.46
442.87	8058.46
443.05	8131.02
443.24	8269.11
443.43	8086.55
443.61	8182.51
443.80	8446.99
443.98	8056.12
444.17	7889.95
444.35	8098.25
444.54	8194.22
444.73	8210.60
444.91	8226.98
445.10	8365.07
445.28	8290.18
445.47	8180.17
445.65	8402.52
445.84	8549.98
446.02	8318.26
446.21	8334.65
446.39	8381.46
446.58	8430.61
446.77	8557.00
446.95	8294.86
447.14	8430.61
447.32	8564.02
447.51	8493.80
447.69	8393.16
447.88	8568.70
448.06	8482.10
448.25	8486.78
448.43	8451.67
448.62	8596.79
448.80	8542.96
448.99	8758.28
449.17	8709.13
449.36	8575.72
449.54	8954.89
449.73	8762.97
449.91	8875.31
450.10	8833.18
450.28	9078.94
450.46	9050.85
450.65	8905.74
450.83	8994.68
451.02	9097.66
451.20	9172.56
451.39	9123.41
451.57	9170.22
451.76	8781.69
451.94	9053.19
452.13	9268.52
452.31	9174.90
452.49	9153.84
452.68	9441.72
452.86	9085.96
453.05	9408.95
453.23	9472.15
453.42	9385.55
453.60	9231.07
453.78	9444.06
453.97	9191.28
454.15	9460.45
454.34	9327.03
454.52	9418.32
454.70	9650.03
454.89	9598.54
455.07	9717.90
455.26	9867.70
455.44	9905.15
455.62	9769.40
455.81	9745.99
455.99	9951.96
456.17	10012.81
456.36	10024.51
456.54	10068.98
456.73	10270.27
456.91	10366.23
457.09	10244.52
457.28	10441.13
457.46	10296.02
457.64	10317.08
457.83	10324.10
458.01	10455.17
458.19	10427.09
458.38	10457.51
458.56	10658.80
458.74	10483.26
458.93	10785.19
459.11	10757.10
459.29	10963.07
459.48	10832.00
459.66	10635.39
459.84	10918.60
460.03	10796.89
460.21	11117.54
460.39	11035.63
460.57	10984.13
460.76	11030.94
460.94	11096.48
461.12	11066.05
461.31	11248.61
461.49	11173.72
461.67	10967.75
461.85	11363.30
462.04	11346.92
462.22	11868.86
462.40	11730.76
462.59	11641.82
462.77	11592.67
462.95	11623.10
463.13	11452.24
463.32	11363.30
463.50	11585.65
463.68	11679.27
463.86	11658.21
464.05	11543.52
464.23	11836.09
464.41	11754.17
464.59	11653.53
464.78	11920.35
464.96	11939.07
465.14	11730.76
465.32	12035.03
465.50	12177.81
465.69	12233.98
465.87	12119.29
466.05	11978.86
466.23	12138.02
466.41	12250.36
466.60	12552.29
466.78	11974.18
466.96	11997.59
467.14	12322.92
467.32	12407.18
467.51	12432.93
467.69	12121.63
467.87	12421.22
468.05	12418.88
468.23	12292.49
468.41	12381.43
468.60	12510.16
468.78	12727.83
468.96	12465.69
469.14	12458.67
469.32	12671.66
469.50	12355.69
469.69	12685.70
469.87	13067.21
470.05	12994.65
470.23	13153.81
470.41	13036.78
470.59	13034.44
470.77	13242.75
470.95	13067.21
471.14	13425.31
471.32	13174.88
471.50	13507.23
471.68	13437.02
471.86	13444.04
472.04	13635.96
472.22	14120.45
472.40	13614.90
472.58	13872.36
472.77	13870.01
472.95	14090.02
473.13	14611.96
473.31	13858.31
473.49	14090.02
473.67	13909.80
473.85	14235.14
474.03	14738.35
474.21	14417.70
474.39	14656.43
474.57	14820.27
474.75	14466.85
474.93	14778.14
475.12	14689.20
475.30	14820.27
475.48	15117.52
475.66	15229.87
475.84	15208.80
476.02	15438.17
476.20	15150.29
476.38	15557.54
476.56	15960.11
476.74	15910.96
476.92	15765.85
477.10	15676.91
477.28	16180.12
477.46	16224.59
477.64	16100.55
477.82	16322.90
478.00	16570.99
478.18	16699.72
478.36	16823.77
478.54	17048.46
478.72	17198.26
478.90	17167.83
479.08	17551.68
479.26	17561.04
479.44	17776.37
479.62	17682.75
479.80	17877.01
479.98	18136.81
480.16	18462.15
480.34	18221.07
480.52	18317.03
480.70	18452.78
480.88	18604.92
481.06	18640.03
481.24	18794.50
481.41	18941.96
481.59	19164.31
481.77	19590.28
481.95	19597.31
482.13	19590.28
482.31	19601.99
482.49	20266.70
482.67	20142.65
482.85	20383.73
483.03	20524.16
483.21	20929.07
483.39	20547.56
483.57	20664.59
483.74	20900.98
483.92	20992.26
484.10	21116.31
484.28	21521.23
484.46	21778.68
484.64	22143.81
484.82	21509.52
485.00	22202.32
485.18	22937.25
485.35	23094.07
485.53	22632.98
485.71	22782.77
485.89	23194.71
486.07	23459.19
486.25	23288.33
486.43	23623.03
486.61	23775.16
486.78	23971.77
486.96	24142.63
487.14	24456.26
487.32	24716.06
487.50	24374.34
487.68	24982.88
487.85	25120.97
488.03	25329.28
488.21	25692.06
488.39	25811.43
488.57	25872.28
488.75	26136.76
488.92	26352.09
489.10	26265.49
489.28	26597.85
489.46	27012.12
489.64	27030.85
489.81	27583.21
489.99	27489.59
490.17	27742.37
490.35	28105.15
490.53	27969.40
490.70	28493.68
490.88	28074.73
491.06	28699.65
491.24	28526.45
491.41	29106.90
491.59	28840.08
491.77	29455.64
491.95	29277.76
492.13	29668.63
492.30	30052.48
492.48	30094.61
492.66	30298.23
492.84	30246.74
493.01	30529.95
493.19	30551.01
493.37	30719.53
493.54	31295.30
493.72	31487.23
493.90	31185.30
494.08	31857.03
494.25	31948.31
494.43	31772.77
494.61	32727.71
494.79	32521.74
494.96	32617.71
495.14	32690.26
495.32	33275.40
495.49	33102.20
495.67	32835.38
495.85	33418.17
496.02	33427.53
496.20	34328.64
496.38	33905.00
496.55	34015.01
496.73	34391.83
496.91	34466.73
497.09	34930.16
497.26	34724.19
497.44	34389.49
497.62	35009.73
497.79	35475.50
497.97	35288.26
498.14	35606.57
498.32	35999.78
498.50	36018.50
498.67	36301.71
498.85	36477.25
499.03	36503.00
499.20	36449.16
499.38	36257.24
499.56	37151.32
499.73	36879.82
499.91	36818.97
500.08	37205.16
500.26	37081.11
500.44	37230.90
500.61	37525.81
500.79	37727.10
500.97	37876.89
501.14	38473.73
501.32	38349.68
501.49	38501.81
501.67	38230.31
501.84	38583.73
502.02	38600.12
502.20	38773.31
502.37	39147.80
502.55	39215.68
502.72	39009.71
502.90	39419.30
503.07	39414.62
503.25	39632.29
503.43	39143.12
503.60	39988.05
503.78	40226.79
503.95	39793.79
504.13	40840.01
504.30	40364.88
504.48	40453.82
504.65	40500.63
504.83	41050.66
505.01	41188.75
505.18	40870.43
505.36	40996.82
505.53	41296.41
505.71	41471.95
505.88	41422.80
506.06	41621.75
506.23	41771.54
506.41	41624.09
506.58	42139.00
506.76	41827.71
506.93	42082.83
507.11	42396.46
507.28	42579.03
507.46	42354.33
507.63	42733.50
507.81	43239.06
507.98	42827.12
508.16	42838.83
508.33	43606.52
508.50	43302.25
508.68	43344.38
508.85	43878.02
509.03	43648.65
509.20	43564.39
509.38	43775.04
509.55	44502.95
509.73	44212.72
509.90	44399.96
510.08	44451.45
510.25	44367.20
510.42	44556.78
510.60	44729.98
510.77	45078.72
510.95	45181.70
511.12	44975.73
511.30	44978.07
511.47	45478.95
511.64	45125.53
511.82	45652.15
511.99	45357.24
512.17	45729.39
512.34	45677.90
512.51	46330.90
512.69	46391.76
512.86	46213.88
513.04	46569.64
513.21	46429.21
513.38	46398.78
513.56	46646.88
513.73	46557.94
513.90	46918.38
514.08	46756.88
514.25	47281.16
514.43	47206.26
514.60	47292.86
514.77	47281.16
514.95	47384.15
515.12	47248.39
515.29	47330.31
515.47	47707.14
515.64	47688.42
515.81	47578.41
515.99	47955.24
516.16	48334.40
516.33	47973.96
516.51	48470.15
516.68	48404.62
516.85	48320.36
517.03	48704.21
517.20	48591.86
517.37	48346.11
517.54	48549.73
517.72	48528.67
517.89	48938.26
518.06	49069.33
518.24	48959.33
518.41	48931.24
518.58	48985.07
518.75	49006.14
518.93	49434.45
519.10	49291.68
519.27	49663.83
519.45	49537.44
519.62	49504.67
519.79	49790.22
519.96	49738.72
520.14	50127.25
520.31	50223.22
520.48	50302.79
520.65	50099.17
520.83	50354.29
521.00	50700.68
521.17	50424.50
521.34	49935.33
521.52	50955.80
521.69	50499.40
521.86	50937.08
522.03	50848.14
522.20	51236.67
522.38	51428.59
522.55	50923.04
522.72	50967.51
522.89	51185.18
523.07	51363.06
523.24	51269.43
523.41	51524.55
523.58	51554.98
523.75	51936.49
523.92	51838.18
524.10	51929.47
524.27	51934.15
524.44	51714.14
524.61	52088.62
524.78	51906.06
524.96	51814.78
525.13	52013.73
525.30	52533.32
525.47	52254.80
525.64	51987.98
525.81	52615.24
525.98	52556.73
526.16	52521.62
526.33	52495.88
526.50	52910.15
526.67	52341.40
526.84	52680.78
527.01	52767.38
527.18	52505.24
527.36	52828.23
527.53	52542.69
527.70	53389.96
527.87	53104.41
528.04	53141.86
528.21	53291.66
528.38	53387.62
528.55	53333.79
528.72	53172.29
528.89	53301.02
529.07	53137.18
529.24	53188.67
529.41	53645.08
529.58	53652.10
529.75	53392.30
529.92	53645.08
530.09	53876.79
530.26	53708.27
530.43	53900.20
530.60	53638.06
530.77	53745.72
530.94	54234.89
531.11	53872.11
531.28	53918.92
531.46	54094.46
531.63	54042.97
531.80	54148.29
531.97	53862.75
532.14	54213.83
532.31	54127.23
532.48	54387.03
532.65	54939.39
532.82	54342.56
532.99	54466.61
533.16	54300.43
533.33	54494.69
533.50	54604.70
533.67	54686.62
533.84	54403.41
534.01	54674.91
534.18	54471.29
534.35	55220.26
534.52	55004.93
534.69	55033.02
534.86	55107.91
535.03	54719.38
535.20	55138.34
535.37	54941.74
535.54	55428.57
535.71	54955.78
535.88	55554.96
536.05	55395.80
536.22	55578.36
536.38	55395.80
536.55	55393.46
536.72	55351.33
536.89	55414.52
537.06	55501.12
537.23	55386.44
537.40	55566.66
537.57	55515.17
537.74	55388.78
537.91	56020.72
538.08	55669.64
538.25	55536.23
538.42	55428.57
538.59	55938.80
538.75	55723.47
538.92	55821.78
539.09	55866.25
539.26	56254.78
539.43	55716.45
539.60	56203.28
539.77	56065.19
539.94	56402.23
540.11	56107.32
540.28	56320.31
540.44	56310.95
540.61	56378.82
540.78	56404.57
540.95	56437.34
541.12	56203.28
541.29	56336.69
541.46	56598.83
541.62	56528.62
541.79	56273.50
541.96	56229.03
542.13	56575.43
542.30	56535.64
542.47	56931.19
542.63	56830.55
542.80	56594.15
542.97	57052.90
543.14	57059.92
543.31	57132.48
543.48	56900.76
543.64	57359.51
543.81	57141.84
543.98	57228.44
544.15	57308.02
544.32	57167.58
544.48	57403.98
544.65	57329.08
544.82	57275.25
544.99	57062.26
545.16	57176.95
545.32	57326.74
545.49	57668.46
545.66	57511.64
545.83	57537.39
546.00	57755.06
546.16	57673.14
546.33	57509.30
546.50	57399.30
546.67	57729.31
546.83	57270.57
547.00	57502.28
547.17	57712.93
547.34	57682.50
547.50	57565.48
547.67	57982.09
547.84	57698.89
548.00	57968.05
548.17	58174.02
548.34	57911.88
548.51	58169.33
548.67	58059.33
548.84	58260.62
549.01	58026.56
549.18	58045.29
549.34	58106.14
549.51	58085.07
549.68	58024.22
549.84	58110.82
550.01	58265.30
550.18	58089.76
550.34	58162.31
550.51	58145.93
550.68	58607.01
550.84	58131.89
551.01	58379.98
551.18	58377.64
551.34	58433.81
551.51	58466.58
551.68	58604.67
551.84	58492.33
552.01	58279.34
552.18	58426.79
552.34	58454.88
552.51	58864.47
552.68	58314.45
552.84	58705.32
553.01	58756.81
553.18	58780.21
553.34	58944.05
553.51	58937.03
553.67	58780.21
553.84	59044.69
554.01	58908.94
554.17	58899.58
554.34	58939.37
554.51	58862.13
554.67	58810.64
554.84	58969.80
555.00	58934.69
555.17	58915.96
555.33	58988.52
555.50	58759.15
555.67	58857.45
555.83	58925.33
556.00	59281.09
556.16	59412.16
556.33	59229.60
556.50	59126.61
556.66	59220.23
556.83	58993.20
556.99	59370.03
557.16	59456.63
557.32	59318.54
557.49	59543.23
557.65	59295.13
557.82	59316.20
557.98	59290.45
558.15	59241.30
558.32	59442.59
558.48	59185.13
558.65	59480.03
558.81	59444.93
558.98	59391.09
559.14	59419.18
559.31	59615.79
559.47	59508.12
559.64	59559.61
559.80	59650.89
559.97	59536.21
560.13	59564.29
560.30	59437.90
560.46	59615.79
560.63	59515.14
560.79	59590.04
560.96	59709.41
561.12	59657.91
561.29	59597.06
561.45	59938.78
561.61	59786.64
561.78	59718.77
561.94	59639.19
562.11	59484.72
562.27	59842.82
562.44	59983.25
562.60	60076.87
562.77	59920.05
562.93	59721.11
563.10	60039.42
563.26	59866.22
563.42	60020.70
563.59	59854.52
563.75	59732.81
563.92	59807.71
564.08	59966.87
564.24	59842.82
564.41	59938.78
564.57	60224.32
564.74	60264.11
564.90	59971.55
565.07	59915.37
565.23	60207.94
565.39	60034.74
565.56	60013.68
565.72	59934.10
565.88	59994.95
566.05	59943.46
566.21	60023.04
566.38	60119.00
566.54	60308.58
566.70	60346.03
566.87	60058.15
567.03	60041.76
567.19	60331.99
567.36	60097.94
567.52	60144.75
567.68	60465.40
567.85	60313.26
568.01	60399.86
568.17	60198.58
568.34	60563.70
568.50	60324.97
568.66	60172.83
568.83	60240.71
568.99	60458.38
569.15	60355.39
569.32	60559.02
569.48	60229.01
569.64	60388.16
569.81	60273.48
569.97	60369.44
570.13	60027.72
570.30	60229.01
570.46	60418.59
570.62	60409.23
570.78	60299.22
570.95	60486.46
571.11	60535.62
571.27	60369.44
571.43	60430.29
571.60	60612.85
571.76	60566.04
571.92	60554.34
572.09	60369.44
572.25	60404.55
572.41	60547.32
572.57	60486.46
572.74	60624.56
572.90	60554.34
573.06	60704.13
573.22	60654.98
573.38	60240.71
573.55	60938.19
573.71	60652.64
573.87	60683.07
574.03	60601.15
574.20	60491.15
574.36	60535.62
574.52	60577.75
574.68	60811.80
574.84	60631.58
575.01	60701.79
575.17	60554.34
575.33	60549.66
575.49	60622.22
575.65	60610.51
575.82	60516.89
575.98	60699.45
576.14	60722.86
576.30	60816.48
576.46	60704.13
576.62	60463.06
576.79	60617.53
576.95	60472.42
577.11	60680.73
577.27	60877.33
577.43	60800.10
577.59	60542.64
577.75	60708.82
577.92	60535.62
578.08	60633.92
578.24	60596.47
578.40	60802.44
578.56	60718.18
578.72	60755.63
578.88	60711.16
579.04	60860.95
579.21	60853.93
579.37	60898.40
579.53	60807.12
579.69	60699.45
579.85	60526.25
580.01	60750.94
580.17	60603.49
580.33	60882.02
580.49	60863.29
580.65	60659.66
580.82	60633.92
580.98	60797.76
581.14	60650.30
581.30	60921.80
581.46	60772.01
581.62	60774.35
581.78	60835.20
581.94	60874.99
582.10	60673.71
582.26	60594.13
582.42	60767.33
582.58	60900.74
582.74	60678.39
582.90	60832.86
583.06	60994.36
583.22	60711.16
583.38	60910.10
583.54	60961.59
583.70	60727.54
583.86	60671.37
584.02	61013.08
584.18	61076.28
584.34	60858.61
584.50	60856.27
584.66	60657.32
584.82	60732.22
584.98	61092.66
585.14	61059.90
585.30	60734.56
585.46	61057.56
585.62	60844.57
585.78	61080.96
585.94	60664.35
586.10	60947.55
586.26	60891.38
586.42	60907.76
586.58	61020.11
586.74	60982.66
586.90	60762.65
587.06	60863.29
587.22	61076.28
587.38	60692.43
587.54	60842.23
587.70	61244.80
587.86	60900.74
588.02	61003.72
588.18	61048.19
588.34	60729.88
588.49	60959.25
588.65	61034.15
588.81	61015.43
588.97	60992.02
589.13	61066.92
589.29	61207.35
589.45	61190.97
589.61	61095.00
589.77	61385.23
589.93	61249.48
590.08	61052.87
590.24	61251.82
590.40	61139.47
590.56	61270.54
590.72	61317.35
590.88	61139.47
591.04	61146.50
591.20	61429.70
591.35	61240.12
591.51	61673.12
591.67	61247.14
591.83	61268.20
591.99	61090.32
592.15	61179.26
592.31	61380.55
592.46	61317.35
592.62	61179.26
592.78	61284.59
592.94	61422.68
593.10	61357.14
593.26	61443.74
593.41	61455.45
593.57	61368.85
593.73	61284.59
593.89	61535.02
594.05	61448.42
594.20	61373.53
594.36	61628.65
594.52	61382.89
594.68	61300.97
594.84	61197.99
594.99	61478.85
595.15	61296.29
595.31	61513.96
595.47	61279.91
595.62	61499.92
595.78	61373.53
595.94	61368.85
596.10	61584.18
596.25	61567.79
596.41	61240.12
596.57	61572.47
596.73	61387.57
596.88	61535.02
597.04	61544.39
597.20	61516.30
597.36	61434.38
597.51	61769.08
597.67	61310.33
597.83	61558.43
597.99	61666.09
598.14	61495.24
598.30	61558.43
598.46	61434.38
598.61	61790.14
598.77	61432.04
598.93	61396.93
599.09	61317.35
599.24	61890.79
599.40	61778.44
599.56	61691.84
599.71	61703.54
599.87	61628.65
600.03	61783.12
600.18	61577.15
600.34	61446.08
600.50	61731.63
600.65	61677.80
600.81	61682.48
600.97	61591.20
601.12	61579.49
601.28	61425.02
601.44	61525.66
601.59	61649.71
601.75	61586.52
601.91	61836.95
602.06	61656.73
602.22	61848.66
602.37	61642.69
602.53	61595.88
602.69	61689.50
602.84	61471.83
603.00	61616.94
603.16	61708.22
603.31	61860.36
603.47	61759.72
603.62	61446.08
603.78	61993.77
603.94	61829.93
604.09	61799.50
604.25	61528.00
604.40	61549.07
604.56	61726.95
604.71	61876.74
604.87	61719.93
605.03	61710.56
605.18	61546.73
605.34	61654.39
605.49	61469.49
605.65	61745.67
605.80	61691.84
605.96	61726.95
606.12	61682.48
606.27	61666.09
606.43	61598.22
606.58	61638.01
606.74	61446.08
606.89	61647.37
607.05	61766.74
607.20	61673.12
607.36	61443.74
607.51	61413.32
607.67	61343.10
607.82	61258.84
607.98	61429.70
608.13	61499.92
608.29	61532.68
608.44	61502.26
608.60	61434.38
608.75	61579.49
608.91	61689.50
609.06	61476.51
609.22	61748.01
609.37	61359.48
609.53	61605.24
609.68	61380.55
609.84	61385.23
609.99	61638.01
610.15	61659.07
610.30	61584.18
610.46	61408.64
610.61	61549.07
610.76	61614.60
610.92	61359.48
611.07	61347.78
611.23	61506.94
611.38	61410.98
611.54	61448.42
611.69	61443.74
611.84	61506.94
612.00	61460.13
612.15	61312.67
612.31	61354.80
612.46	61186.28
612.62	61476.51
612.77	61439.06
612.92	61513.96
613.08	61410.98
613.23	61455.45
613.39	61319.70
613.54	61165.22
613.69	61504.60
613.85	61282.25
614.00	61399.27
614.15	61523.32
614.31	61352.46
614.46	61556.09
614.62	61284.59
614.77	61399.27
614.92	61382.89
615.08	61207.35
615.23	61277.57
615.38	61293.95
615.54	61394.59
615.69	61263.52
615.84	61258.84
616.00	61415.66
616.15	61352.46
616.30	61251.82
616.46	61223.73
616.61	60933.51
616.76	61247.14
616.92	61069.26
617.07	61022.45
617.22	61141.81
617.37	61277.57
617.53	61366.51
617.68	61249.48
617.83	61209.69
617.99	61010.74
618.14	61169.90
618.29	61165.22
618.45	61109.05
618.60	60781.37
618.75	60849.25
618.90	61015.43
619.06	61048.19
619.21	60982.66
619.36	61197.99
619.51	60985.00
619.67	60989.68
619.82	61003.72
619.97	61048.19
620.12	61073.94
620.28	60926.49
620.43	61013.08
620.58	60713.50
620.73	60912.44
620.89	60977.98
621.04	61116.07
621.19	60891.38
621.34	60825.84
621.49	60764.99
621.65	60963.93
621.80	61003.72
621.95	60793.07
622.10	60676.05
622.25	60851.59
622.41	60795.42
622.56	60640.94
622.71	60830.52
622.86	60500.51
623.01	60788.39
623.16	60669.03
623.32	60898.40
623.47	60727.54
623.62	60774.35
623.77	60769.67
623.92	60966.27
624.07	60783.71
624.23	60704.13
624.38	60514.55
624.53	60381.14
624.68	60390.50
624.83	60779.03
624.98	60741.58
625.13	60640.94
625.29	60540.30
625.44	60781.37
625.59	60463.06
625.74	60568.38
625.89	60509.87
626.04	60172.83
626.19	60369.44
626.34	60566.04
626.49	60313.26
626.65	60210.28
626.80	60484.12
626.95	60191.56
627.10	60102.62
627.25	60397.52
627.40	60044.10
627.55	60280.50
627.70	60128.36
627.85	60409.23
628.00	60130.70
628.15	60404.55
628.30	60156.45
628.45	60109.64
628.60	60224.32
628.76	60186.88
628.91	60231.35
629.06	60027.72
629.21	59952.82
629.36	59952.82
629.51	60172.83
629.66	60058.15
629.81	59870.90
629.96	59941.12
630.11	60126.02
630.26	59969.21
630.41	60062.83
630.56	59957.50
630.71	60158.79
630.86	59950.48
631.01	60093.25
631.16	59955.16
631.31	59906.01
631.46	59664.94
631.61	59894.31
631.76	59934.10
631.91	59927.08
632.06	59948.14
632.21	59997.29
632.36	59812.39
632.51	59583.02
632.66	59849.84
632.81	59655.57
632.96	59854.52
633.10	59796.01
633.25	59608.76
633.40	59774.94
633.55	59758.56
633.70	59543.23
633.85	59749.20
634.00	59749.20
634.15	59531.53
634.30	59681.32
634.45	59917.71
634.60	59948.14
634.75	59803.03
634.90	59590.04
635.05	59714.09
635.19	59423.86
635.34	59627.49
635.49	59695.36
635.64	59735.15
635.79	59444.93
635.94	59395.77
636.09	59494.08
636.24	59400.46
636.39	59339.60
636.53	59463.65
636.68	59463.65
636.83	59451.95
636.98	59700.04
637.13	59393.43
637.28	59257.68
637.43	59227.26
637.57	59367.69
637.72	59260.02
637.87	59379.39
638.02	59440.24
638.17	59463.65
638.32	59461.31
638.46	59143.00
638.61	59260.02
638.76	59271.73
638.91	59316.20
639.06	59166.40
639.20	59199.17
639.35	59054.06
639.50	58951.07
639.65	58983.84
639.80	59145.34
639.94	58866.81
640.09	59058.74
640.24	59128.95
640.39	59068.10
640.54	59002.56
640.68	58976.82
640.83	59075.12
640.98	58850.43
641.13	58915.96
641.27	59234.28
641.42	58918.31
641.57	58815.32
641.72	58955.75
641.86	58908.94
642.01	58791.92
642.16	59032.99
642.31	58763.83
642.45	59049.38
642.60	58848.09
642.75	58876.18
642.90	58871.49
643.04	58609.35
643.19	58569.57
643.34	58768.51
643.48	58801.28
643.63	58803.62
643.78	58623.40
643.93	58700.64
644.07	58691.27
644.22	58628.08
644.37	58497.01
644.51	58333.17
644.66	58742.77
644.81	58632.76
644.95	58475.94
645.10	58539.14
645.25	58525.10
645.39	58597.65
645.54	58511.05
645.69	58342.53
645.83	58529.78
645.98	58323.81
646.13	58497.01
646.27	58628.08
646.42	58358.92
646.57	58323.81
646.71	58501.69
646.86	58665.53
647.00	58475.94
647.15	58305.09
647.30	58262.96
647.44	58255.93
647.59	58408.07
647.74	58562.54
647.88	58335.51
648.03	58443.18
648.17	58433.81
648.32	58265.30
648.47	58340.19
648.61	58138.91
648.76	58454.88
648.90	58288.70
649.05	58143.59
649.20	58019.54
649.34	58190.40
649.49	58115.50
649.63	58174.02
649.78	58293.38
649.92	58188.06
650.07	58302.74
650.21	58019.54
650.36	58340.19
650.51	57900.17
650.65	58129.54
650.80	57921.24
650.94	58159.97
651.09	57918.90
651.23	57764.42
651.38	58068.69
651.52	57689.52
651.67	57785.49
651.81	57811.23
651.96	57998.48
652.10	58106.14
652.25	57808.89
652.39	57792.51
652.54	57595.90
652.68	57436.75
652.83	57780.81
652.97	57757.40
653.12	57839.32
653.26	57724.63
653.41	57703.57
653.55	57612.29
653.70	57724.63
653.84	57748.04
653.99	57513.98
654.13	57574.84
654.27	57474.20
654.42	57499.94
654.56	57560.79
654.71	57396.96
654.85	57691.86
655.00	57907.19
655.14	57691.86
655.29	57387.60
655.43	57460.15
655.57	57326.74
655.72	57544.41
655.86	57574.84
656.01	57326.74
656.15	57324.40
656.30	57621.65
656.44	57516.32
656.58	57595.90
656.73	57586.54
656.87	57436.75
657.01	57401.64
657.16	57471.85
657.30	57296.31
657.45	57134.82
657.59	57298.65
657.73	57116.09
657.88	57080.98
658.02	57078.64
658.16	56910.13
658.31	56835.23
658.45	57092.69
658.60	56992.04
658.74	57106.73
658.88	57027.15
659.03	56858.63
659.17	56837.57
659.31	56949.92
659.46	56816.50
659.60	56994.39
659.74	56900.76
659.89	56769.69
660.03	56828.21
660.17	57095.03
660.32	56765.01
660.46	56786.08
660.60	56708.84
660.74	56884.38
660.89	56928.85
661.03	56406.91
661.17	56313.29
661.32	56231.37
661.46	56420.95
661.60	56287.54
661.74	56477.13
661.89	56081.58
662.03	56184.56
662.17	55985.61
662.31	56154.13
662.46	56369.46
662.60	55971.57
662.74	56193.92
662.88	56275.84
663.03	55903.70
663.17	55959.87
663.31	55845.18
663.45	55819.44
663.60	56004.34
663.74	55744.54
663.88	55657.94
664.02	55662.62
664.17	55732.84
664.31	55695.39
664.45	55533.89
664.59	55877.95
664.73	55484.74
664.88	55721.13
665.02	55246.00
665.16	55393.46
665.30	55037.70
665.44	55299.84
665.59	55288.13
665.73	55196.85
665.87	55138.34
666.01	55409.84
666.15	55150.04
666.29	55253.03
666.44	55538.57
666.58	54808.32
666.72	54787.26
666.86	55042.38
667.00	54897.27
667.14	54597.68
667.28	54609.38
667.43	54618.74
667.57	54607.04
667.71	54494.69
667.85	54342.56
667.99	54511.08
668.13	54583.63
668.27	54026.59
668.41	54419.80
668.56	54136.59
668.70	53886.15
668.84	54073.40
668.98	54244.26
669.12	54204.47
669.26	54349.58
669.40	54260.64
669.54	54185.74
669.68	54279.36
669.82	53916.58
669.96	54218.51
670.10	53982.12
670.25	54019.56
670.39	53804.24
670.53	53734.02
670.67	53600.61
670.81	53514.01
670.95	53539.75
671.09	53422.73
671.23	53478.90
671.37	53247.19
671.51	53354.85
671.65	53298.68
671.79	53432.09
671.93	52982.71
672.07	53258.89
672.21	52931.22
672.35	52753.33
672.49	52435.02
672.63	52589.50
672.77	52292.25
672.91	52779.08
673.05	52758.02
673.19	52250.12
673.33	52308.63
673.47	52074.58
673.61	52638.65
673.75	52353.10
673.89	52175.22
674.03	52095.64
674.17	51627.54
674.31	51746.90
674.45	51688.39
674.59	51512.85
674.73	51681.37
674.87	51318.59
675.01	51297.52
675.15	51302.20
675.29	51175.81
675.43	51650.94
675.56	51138.36
675.70	51044.74
675.84	50738.13
675.98	50082.78
676.12	50628.13
676.26	50855.16
676.40	50801.33
676.54	50487.70
676.68	50651.53
676.82	50073.42
676.96	50511.10
677.10	50012.57
677.23	49764.47
677.37	49815.96
677.51	49633.40
677.65	49277.64
677.79	48556.75
677.93	49134.87
678.07	48872.73
678.21	48811.87
678.34	49050.61
678.48	48889.11
678.62	48879.75
678.76	48568.46
678.90	48287.59
679.04	48470.15
679.18	48437.39
679.31	48334.40
679.45	48032.47
679.59	47838.21
679.73	48083.97
679.87	47367.76
680.00	47175.84
680.14	47285.84
680.28	47220.31
680.42	46703.05
680.56	46820.08
680.70	46361.33
680.83	46518.15
680.97	46728.80
681.11	46845.82
681.25	46204.52
681.39	46239.62
681.52	46162.39
681.66	46005.57
681.80	45530.44
681.94	45294.05
682.07	45434.48
682.21	44945.31
682.35	45429.80
682.49	44992.12
682.62	45165.32
682.76	45223.83
682.90	44851.69
683.04	44872.75
683.17	44582.52
683.31	44540.39
683.45	44053.56
683.59	44041.86
683.72	44126.12
683.86	43777.38
684.00	43955.26
684.13	44219.74
684.27	43627.59
684.41	43824.19
684.55	43463.75
684.68	43536.30
684.82	43414.60
684.96	42923.08
685.09	42703.07
685.23	42253.69
685.37	42356.67
685.50	42237.31
685.64	42443.27
685.78	42153.05
685.91	42258.37
686.05	41427.48
686.19	41249.60
686.32	41301.09
686.46	41148.96
686.60	40641.06
686.73	40844.69
686.87	40465.52
687.01	40737.02
687.14	40587.23
687.28	40065.29
687.42	40224.45
687.55	40217.43
687.69	40020.82
687.82	39552.71
687.96	39555.05
688.10	39335.04
688.23	39856.98
688.37	39423.98
688.50	39297.59
688.64	39061.20
688.78	38665.65
688.91	38888.00
689.05	38316.91
689.18	38450.32
689.32	37343.25
689.46	37914.34
689.59	37556.24
689.73	37125.58
689.86	37404.10
690.00	37053.02
690.13	37486.02
690.27	37530.49
690.41	37261.33
690.54	36687.90
690.68	36746.41
690.81	36877.48
690.95	36313.41
691.08	36397.67
691.22	36196.38
691.35	35976.37
691.49	35915.52
691.62	35644.02
691.76	35187.61
691.89	35328.05
692.03	34909.09
692.16	34780.36
692.30	34923.13
692.43	35185.27
692.57	34895.05
692.70	34260.76
692.84	34494.82
692.97	34740.57
693.11	34092.24
693.24	34120.33
693.38	34026.71
693.51	33582.01
693.65	33626.48
693.78	33462.64
693.92	33516.47
694.05	33043.68
694.19	32919.63
694.32	32856.44
694.45	32795.59
694.59	32587.28
694.72	32865.80
694.86	32201.09
694.99	32168.32
695.13	31908.52
695.26	31845.33
695.39	31512.97
695.53	31845.33
695.66	31903.84
695.80	31405.31
695.93	31218.07
696.07	30817.83
696.20	30845.92
696.33	30415.26
696.47	30864.64
696.60	30703.15
696.73	30539.31
696.87	30267.81
697.00	30279.51
697.14	30576.76
697.27	29788.00
697.40	29780.98
697.54	29589.05
697.67	29605.44
697.80	29310.53
697.94	29111.58
698.07	28980.51
698.21	28975.83
698.34	28947.75
698.47	28748.80
698.61	28432.83
698.74	28545.17
698.87	28386.02
699.01	28070.04
699.14	28273.67
699.27	28095.79
699.40	27953.02
699.54	28079.41
699.67	27529.38
699.80	27489.59
699.94	27157.24
700.07	27267.24
700.20	26876.37
700.34	26738.28
700.47	26321.66
700.60	26331.03
700.73	26281.88
700.87	26211.66
701.00	25771.64
701.13	25862.92
701.26	25867.60
701.40	26150.81
701.53	25802.07
701.66	25413.54
701.79	25130.33
701.93	24830.74
702.06	24568.60
702.19	24877.55
702.32	25041.39
702.46	24732.44
702.59	24503.07
702.72	24320.51
702.85	24599.03
702.99	24032.62
703.12	24133.26
703.25	23988.15
703.38	23672.18
703.51	23674.52
703.65	23183.01
703.78	23372.59
703.91	22721.92
704.04	23372.59
704.17	23040.23
704.31	22838.95
704.44	22670.43
704.57	22459.78
704.70	22642.34
704.83	22326.37
704.96	22441.06
705.10	22043.17
705.23	21989.33
>>>>>End Processed Spectral Data<<<<<
