SpectraSuite Data File
++++++++++++++++++++++++++++++++++++
Date: Fri Oct 25 11:22:44 EDT 2013
User: price-jones
Dark Spectrum Present: No
Reference Spectrum Present: No
Number of Sampled Component Spectra: 1
Spectrometers: USB2+H05261
Integration Time (usec): 100000 (USB2+H05261)
Spectra Averaged: 1 (USB2+H05261)
Boxcar Smoothing: 0 (USB2+H05261)
Correct for Electrical Dark: No (USB2+H05261)
Strobe/Lamp Enabled: No (USB2+H05261)
Correct for Detector Non-linearity: No (USB2+H05261)
Correct for Stray Light: No (USB2+H05261)
Number of Pixels in Processed Spectrum: 2048
>>>>>Begin Processed Spectral Data<<<<<
365.73	238.73
365.92	238.73
366.12	238.73
366.32	152.13
366.52	131.07
366.72	98.30
366.91	117.03
367.11	98.30
367.31	79.58
367.51	133.41
367.70	93.62
367.90	138.09
368.10	135.75
368.30	63.19
368.49	95.96
368.69	194.26
368.89	110.01
369.09	128.73
369.28	173.20
369.48	187.24
369.68	203.63
369.87	196.60
370.07	173.20
370.27	163.84
370.47	271.50
370.66	578.11
370.86	667.05
371.06	688.12
371.25	608.54
371.45	697.48
371.65	709.18
371.84	629.60
372.04	699.82
372.24	685.78
372.44	650.67
372.63	695.14
372.83	718.54
373.03	727.91
373.22	795.78
373.42	802.80
373.62	753.65
373.81	819.19
374.01	870.68
374.21	741.95
374.40	784.08
374.60	835.57
374.79	816.85
374.99	837.91
375.19	828.55
375.38	891.74
375.58	884.72
375.78	887.06
375.97	985.37
376.17	823.87
376.37	882.38
376.56	875.36
376.76	894.08
376.95	945.58
377.15	896.43
377.35	968.98
377.54	976.00
377.74	947.92
377.93	847.27
378.13	814.51
378.33	952.60
378.52	875.36
378.72	933.87
378.91	880.04
379.11	912.81
379.31	983.02
379.50	889.40
379.70	917.49
379.89	971.32
380.09	952.60
380.28	985.37
380.48	938.55
380.68	973.66
380.87	987.71
381.07	1008.77
381.26	1062.60
381.46	1029.84
381.65	973.66
381.85	1041.54
382.04	1050.90
382.24	1114.10
382.43	1078.99
382.63	1034.52
382.83	1069.62
383.02	1088.35
383.22	1100.05
383.41	1104.73
383.61	1116.44
383.80	1109.41
384.00	1116.44
384.19	1088.35
384.39	1132.82
384.58	1090.69
384.78	1128.14
384.97	1158.57
385.17	1088.35
385.36	1153.88
385.56	1095.37
385.75	1200.69
385.95	1174.95
386.14	1177.29
386.34	1181.97
386.53	1160.91
386.72	1179.63
386.92	1266.23
387.11	1191.33
387.31	1345.81
387.50	1214.74
387.70	1294.32
387.89	1291.98
388.09	1186.65
388.28	1193.67
388.48	1256.87
388.67	1364.53
388.86	1341.13
389.06	1240.48
389.25	1299.00
389.45	1446.45
389.64	1352.83
389.84	1392.62
390.03	1315.38
390.22	1390.28
390.42	1423.05
390.61	1331.76
390.81	1432.41
391.00	1439.43
391.19	1418.36
391.39	1376.24
391.58	1460.49
391.78	1497.94
391.97	1526.03
392.16	1432.41
392.36	1451.13
392.55	1504.96
392.75	1528.37
392.94	1582.20
393.13	1659.44
393.33	1547.09
393.52	1654.76
393.71	1565.82
393.91	1645.40
394.10	1586.88
394.29	1607.95
394.49	1640.72
394.68	1603.27
394.88	1614.97
395.07	1568.16
395.26	1682.85
395.46	1671.14
395.65	1647.74
395.84	1696.89
396.04	1823.28
396.23	1692.21
396.42	1689.87
396.62	1701.57
396.81	1776.47
397.00	1762.42
397.19	1783.49
397.39	1741.36
397.58	1783.49
397.77	1675.82
397.97	1842.00
398.16	1881.79
398.35	1872.43
398.55	1954.35
398.74	1914.56
398.93	1956.69
399.12	1930.94
399.32	2008.18
399.51	1940.30
399.70	1984.77
399.90	1996.48
400.09	2052.65
400.28	1923.92
400.47	2059.67
400.67	2043.29
400.86	2157.97
401.05	2087.76
401.24	2083.08
401.44	2090.10
401.63	2183.72
401.82	2172.02
402.01	2153.29
402.21	2153.29
402.40	2155.63
402.59	2251.60
402.78	2195.42
402.97	2162.66
403.17	2338.20
403.36	2406.07
403.55	2408.41
403.74	2197.76
403.93	2303.09
404.13	2368.62
404.32	2319.47
404.51	2326.49
404.70	2420.11
404.89	2490.33
405.09	2504.37
405.28	2466.92
405.47	2399.05
405.66	2469.27
405.85	2581.61
406.05	2612.04
406.24	2513.74
406.43	2647.15
406.62	2661.19
406.81	2621.40
407.00	2649.49
407.20	2609.70
407.39	2583.95
407.58	2677.57
407.77	2693.96
407.96	2902.26
408.15	2766.51
408.34	2747.79
408.54	2848.43
408.73	2780.56
408.92	2722.04
409.11	2820.35
409.30	2958.44
409.49	2951.42
409.68	3091.85
409.87	2988.86
410.07	2986.52
410.26	2970.14
410.45	2876.52
410.64	3049.72
410.83	3068.44
411.02	3169.09
411.21	3269.73
411.40	3204.19
411.59	3246.32
411.78	3131.64
411.98	3185.47
412.17	3269.73
412.36	3368.03
412.55	3393.78
412.74	3456.97
412.93	3335.26
413.12	3286.11
413.31	3522.51
413.50	3447.61
413.69	3433.57
413.88	3564.64
414.07	3599.74
414.26	3595.06
414.45	3698.05
414.64	3730.81
414.83	3616.13
415.02	3946.14
415.22	3878.27
415.41	4046.79
415.60	3843.16
415.79	3929.76
415.98	3978.91
416.17	4051.47
416.36	3904.01
416.55	3983.59
416.74	3992.95
416.93	4014.02
417.12	4004.66
417.31	4109.98
417.50	4161.47
417.69	4327.65
417.88	4124.02
418.07	4224.67
418.26	4238.71
418.45	4395.53
418.64	4358.08
418.83	4468.08
419.02	4477.44
419.21	4470.42
419.39	4634.26
419.58	4423.61
419.77	4662.35
419.96	4542.98
420.15	4660.01
420.34	4559.36
420.53	4814.48
420.72	4737.24
420.91	4774.69
421.10	4723.20
421.29	4800.44
421.48	4816.82
421.67	4655.33
421.86	4814.48
422.05	4880.02
422.24	4823.84
422.43	4865.97
422.61	4784.06
422.80	5001.72
422.99	4868.31
423.18	4919.81
423.37	5050.88
423.56	5032.15
423.75	4882.36
423.94	4915.12
424.13	4638.94
424.32	4755.97
424.50	4931.51
424.69	5109.39
424.88	5235.78
425.07	4926.83
425.26	4966.62
425.45	4908.10
425.64	4891.72
425.83	5053.22
426.01	5111.73
426.20	5121.09
426.39	5135.14
426.58	4975.98
426.77	5090.67
426.96	5067.26
427.15	5116.41
427.33	5327.06
427.52	5177.26
427.71	5247.48
427.90	5296.63
428.09	5151.52
428.28	5373.87
428.46	5308.34
428.65	5362.17
428.84	5537.71
429.03	5542.39
429.22	5481.53
429.40	5444.09
429.59	5451.11
429.78	5336.42
429.97	5261.52
430.16	5589.20
430.34	5582.18
430.53	5694.52
430.72	5680.48
430.91	5710.91
431.10	5687.50
431.28	5813.89
431.47	5647.71
431.66	5825.59
431.85	5879.43
432.03	5902.83
432.22	6209.44
432.41	5907.51
432.60	5989.43
432.79	6104.12
432.97	5926.24
433.16	6139.23
433.35	5940.28
433.54	6179.01
433.72	6265.61
433.91	6239.87
434.10	6162.63
434.28	6043.26
434.47	6164.97
434.66	6445.84
434.85	6310.08
435.03	6326.47
435.22	6345.19
435.41	6469.24
435.59	6504.35
435.78	6375.62
435.97	6530.09
436.16	6246.89
436.34	6506.69
436.53	6370.94
436.72	6796.92
436.90	6452.86
437.09	6593.29
437.28	6487.96
437.46	6747.76
437.65	6691.59
437.84	6871.81
438.02	6874.15
438.21	6761.81
438.40	6686.91
438.58	6951.39
438.77	7077.78
438.96	6981.82
439.14	7213.53
439.33	7243.96
439.52	7269.70
439.70	7358.64
439.89	7555.25
440.08	7332.90
440.26	7384.39
440.45	7295.45
440.63	7581.00
440.82	7536.52
441.01	7520.14
441.19	7508.44
441.38	7669.94
441.57	7808.03
441.75	7871.22
441.94	8095.91
442.12	7922.71
442.31	8175.49
442.50	7967.18
442.68	8107.62
442.87	7833.77
443.05	8170.81
443.24	8229.32
443.43	8355.71
443.61	8344.01
443.80	8505.51
443.98	8135.70
444.17	7829.09
444.35	8135.70
444.54	8505.51
444.73	8205.92
444.91	8421.25
445.10	8535.93
445.28	8304.22
445.47	8437.63
445.65	8442.31
445.84	8629.56
446.02	8662.32
446.21	8517.21
446.39	8500.83
446.58	8638.92
446.77	8454.02
446.95	8376.78
447.14	8503.17
447.32	8542.96
447.51	8430.61
447.69	8510.19
447.88	8638.92
448.06	8650.62
448.25	8444.65
448.43	8601.47
448.62	8732.54
448.80	8578.06
448.99	8716.16
449.17	8779.35
449.36	8678.71
449.54	8933.82
449.73	9078.94
449.91	8919.78
450.10	8961.91
450.28	9116.39
450.46	9179.58
450.65	9083.62
450.83	9032.13
451.02	9153.84
451.20	9277.88
451.39	9163.20
451.57	9067.24
451.76	9181.92
451.94	9348.10
452.13	9317.67
452.31	9432.36
452.49	9025.11
452.68	9411.29
452.86	9404.27
453.05	9432.36
453.23	9619.60
453.42	9362.14
453.60	9427.68
453.78	9603.22
453.97	9362.14
454.15	9568.11
454.34	9392.57
454.52	9874.72
454.70	9888.76
454.89	9919.19
455.07	9863.02
455.26	9879.40
455.44	10052.60
455.62	9947.28
455.81	9659.39
455.99	9996.43
456.17	9942.60
456.36	10312.40
456.54	10118.14
456.73	10342.83
456.91	10417.72
457.09	10394.32
457.28	10750.08
457.46	10466.88
457.64	10682.20
457.83	10682.20
458.01	10593.26
458.19	10883.49
458.38	10450.49
458.56	10740.72
458.74	10672.84
458.93	10675.18
459.11	10836.68
459.29	10820.30
459.48	10991.16
459.66	11030.94
459.84	10857.75
460.03	11101.16
460.21	11192.44
460.39	11147.97
460.57	11026.26
460.76	11047.33
460.94	11286.06
461.12	11073.07
461.31	11218.19
461.49	10995.84
461.67	11382.03
461.85	11597.35
462.04	11461.60
462.22	11913.33
462.40	11585.65
462.59	11604.38
462.77	11475.65
462.95	11815.02
463.13	11723.74
463.32	11786.94
463.50	11754.17
463.68	11864.18
463.86	11728.42
464.05	11688.64
464.23	11936.73
464.41	11992.90
464.59	11632.46
464.78	12105.25
464.96	12049.08
465.14	11857.15
465.32	12166.10
465.50	12051.42
465.69	12175.47
465.87	12191.85
466.05	12147.38
466.23	12430.59
466.41	12285.47
466.60	12531.23
466.78	12542.93
466.96	12299.52
467.14	12287.81
467.32	12538.25
467.51	12355.69
467.69	12173.13
467.87	12526.55
468.05	12505.48
468.23	12477.40
468.41	12674.00
468.60	12453.99
468.78	12470.37
468.96	12765.28
469.14	12868.27
469.32	13172.54
469.50	12528.89
469.69	13170.19
469.87	13090.62
470.05	13139.77
470.23	13104.66
470.41	12987.63
470.59	13437.02
470.77	13444.04
470.95	13329.35
471.14	13694.47
471.32	13406.59
471.50	13720.22
471.68	13717.88
471.86	13631.28
472.04	14153.22
472.22	14141.52
472.40	13687.45
472.58	13996.40
472.77	14141.52
472.95	14064.28
473.13	14855.38
473.31	14373.23
473.49	14017.47
473.67	14162.58
473.85	14473.87
474.03	14555.79
474.21	14841.34
474.39	15063.69
474.57	14984.11
474.75	14904.53
474.93	15197.10
475.12	14803.89
475.30	15119.86
475.48	14860.06
475.66	15440.51
475.84	15248.59
476.02	15466.26
476.20	15482.64
476.38	15548.18
476.56	15929.69
476.74	16018.63
476.92	15653.50
477.10	15999.90
477.28	16372.05
477.46	16290.13
477.64	16348.64
477.82	16556.95
478.00	17357.41
478.18	17001.65
478.36	16947.82
478.54	17172.51
478.72	17270.81
478.90	17441.67
479.08	18031.49
479.26	17612.53
479.44	17584.44
479.62	17741.26
479.80	18036.17
479.98	18148.51
480.16	18714.92
480.34	18115.75
480.52	18665.77
480.70	18841.31
480.88	18574.49
481.06	18757.05
481.24	19070.68
481.41	19522.41
481.59	19377.30
481.77	19669.86
481.95	19789.23
482.13	19805.61
482.31	19466.24
482.49	20748.85
482.67	20231.59
482.85	20500.75
483.03	20713.74
483.21	20793.32
483.39	20905.66
483.57	21139.72
483.74	21209.93
483.92	21460.37
484.10	21163.12
484.28	21774.00
484.46	22366.16
484.64	22553.40
484.82	22305.31
485.00	22284.24
485.18	22815.54
485.35	22841.29
485.53	23136.20
485.71	23269.61
485.89	23482.59
486.07	23447.49
486.25	23527.06
486.43	23723.67
486.61	23924.96
486.78	24065.39
486.96	24137.94
487.14	24994.58
487.32	24650.52
487.50	25083.52
487.68	25399.49
487.85	25383.11
488.03	25647.59
488.21	26071.23
488.39	25762.28
488.57	26244.43
488.75	26326.35
488.92	26394.22
489.10	26703.17
489.28	26698.49
489.46	27386.61
489.64	27037.87
489.81	27243.84
489.99	27915.57
490.17	27934.29
490.35	28198.77
490.53	28589.64
490.70	28826.04
490.88	28390.70
491.06	29109.24
491.24	28879.87
491.41	29497.77
491.59	29439.26
491.77	29427.56
491.95	29743.53
492.13	29701.40
492.30	30181.21
492.48	29986.94
492.66	30572.08
492.84	30452.71
493.01	31094.02
493.19	31021.46
493.37	31061.25
493.54	31138.49
493.72	31742.35
493.90	31613.62
494.08	31887.46
494.25	32332.16
494.43	32339.18
494.61	32837.72
494.79	32692.60
494.96	32882.19
495.14	33120.92
495.32	33659.24
495.49	33413.49
495.67	33319.87
495.85	33851.17
496.02	33881.60
496.20	34146.08
496.38	34260.76
496.55	34679.72
496.73	34742.91
496.91	34904.41
497.09	35044.84
497.26	35166.55
497.44	34583.76
497.62	35529.33
497.79	36463.21
497.97	35819.56
498.14	35955.31
498.32	36423.42
498.50	36074.68
498.67	36624.70
498.85	36521.72
499.03	36795.56
499.20	36844.71
499.38	37099.83
499.56	37408.78
499.73	37525.81
499.91	37666.24
500.08	37755.18
500.26	37628.79
500.44	37848.80
500.61	38003.28
500.79	37984.55
500.97	38518.20
501.14	38653.95
501.32	38476.07
501.49	38660.97
501.67	38864.60
501.84	39264.83
502.02	38934.81
502.20	39292.91
502.37	39086.95
502.55	38972.26
502.72	40039.54
502.90	40067.63
503.07	39601.86
503.25	40212.74
503.43	40016.14
503.60	40498.29
503.78	40432.75
503.95	40215.08
504.13	41020.23
504.30	41139.60
504.48	40676.17
504.65	41048.32
504.83	41500.04
505.01	41720.05
505.18	41336.20
505.36	41862.82
505.53	41191.09
505.71	42160.07
505.88	41909.63
506.06	41701.32
506.23	41830.05
506.41	42188.16
506.58	42497.11
506.76	42604.77
506.93	42923.08
507.11	42822.44
507.28	42579.03
507.46	43072.88
507.63	43267.14
507.81	43459.07
507.98	43295.23
508.16	43019.05
508.33	43641.63
508.50	43903.77
508.68	43702.48
508.85	44189.31
509.03	44348.47
509.20	44491.24
509.38	44364.85
509.55	44605.93
509.73	44708.91
509.90	45010.84
510.08	44231.44
510.25	44760.40
510.42	44821.26
510.60	45268.30
510.77	45801.94
510.95	45764.49
511.12	45230.85
511.30	45516.40
511.47	45860.46
511.64	45764.49
511.82	46202.18
511.99	45551.51
512.17	46588.36
512.34	46092.17
512.51	46398.78
512.69	46841.14
512.86	46370.69
513.04	47192.22
513.21	46948.81
513.38	46843.48
513.56	47241.37
513.73	46986.25
513.90	47313.93
514.08	47533.94
514.25	47498.83
514.43	47735.23
514.60	47849.91
514.77	47838.21
514.95	47988.00
515.12	47833.53
515.29	47716.50
515.47	48341.42
515.64	48212.70
515.81	48149.50
515.99	48631.65
516.16	48762.72
516.33	48772.08
516.51	48959.33
516.68	48491.22
516.85	48992.09
517.03	49069.33
517.20	49244.87
517.37	48900.81
517.54	49308.07
517.72	49357.22
517.89	49326.79
518.06	49404.03
518.24	49645.10
518.41	49427.43
518.58	49661.49
518.75	49422.75
518.93	50148.32
519.10	49600.63
519.27	50110.87
519.45	50174.06
519.62	50314.50
519.79	50351.94
519.96	50117.89
520.14	50321.52
520.31	50274.71
520.48	50862.18
520.65	50564.93
520.83	50848.14
521.00	50880.91
521.17	50958.14
521.34	51016.66
521.52	51089.21
521.69	51084.53
521.86	51466.04
522.03	51164.11
522.20	51690.73
522.38	51756.27
522.55	51686.05
522.72	51531.57
522.89	51679.03
523.07	51798.40
523.24	51657.96
523.41	51845.21
523.58	51821.80
523.75	51934.15
523.92	51856.91
524.10	51966.91
524.27	52390.55
524.44	52233.74
524.61	52252.46
524.78	52289.91
524.96	52378.85
525.13	52477.15
525.30	52687.80
525.47	52750.99
525.64	52563.75
525.81	52699.50
525.98	52891.43
526.16	52633.97
526.33	52631.63
526.50	53144.20
526.67	53057.60
526.84	53289.32
527.01	52765.04
527.18	53256.55
527.36	53212.08
527.53	53350.17
527.70	53689.55
527.87	53310.38
528.04	53233.14
528.21	53591.25
528.38	53631.04
528.55	53633.38
528.72	53734.02
528.89	53736.36
529.07	53808.92
529.24	53446.13
529.41	53792.53
529.58	53837.00
529.75	53787.85
529.92	54035.95
530.09	54078.08
530.26	54225.53
530.43	54340.22
530.60	54012.54
530.77	53996.16
530.94	54284.04
531.11	54066.38
531.28	54408.09
531.46	54195.10
531.63	54637.47
531.80	54494.69
531.97	54749.81
532.14	54789.60
532.31	54831.73
532.48	54939.39
532.65	54948.76
532.82	54646.83
532.99	55173.45
533.16	55018.97
533.33	54794.28
533.50	55018.97
533.67	55285.79
533.84	55072.81
534.01	55140.68
534.18	55353.67
534.35	55243.66
534.52	55276.43
534.69	55363.03
534.86	55512.83
535.03	55201.53
535.20	55463.67
535.37	55304.52
535.54	55618.15
535.71	55330.26
535.88	55566.66
536.05	55517.51
536.22	55812.41
536.38	55653.26
536.55	55526.87
536.72	55723.47
536.89	55786.67
537.06	55875.61
537.23	56172.86
537.40	55936.46
537.57	55653.26
537.74	56048.81
537.91	56275.84
538.08	56095.62
538.25	55753.90
538.42	56259.46
538.59	56383.51
538.75	55952.85
538.92	56261.80
539.09	56355.42
539.26	56336.69
539.43	56259.46
539.60	56367.12
539.77	56383.51
539.94	56540.32
540.11	56385.85
540.28	56645.65
540.44	56563.73
540.61	56397.55
540.78	56427.98
540.95	56610.54
541.12	56619.90
541.29	56786.08
541.46	56662.03
541.62	56706.50
541.79	56844.59
541.96	56732.25
542.13	56753.31
542.30	56933.53
542.47	57052.90
542.63	57125.46
542.80	56912.47
542.97	57406.32
543.14	57251.84
543.31	57268.23
543.48	57663.78
543.64	57698.89
543.81	57600.58
543.98	57488.24
544.15	57483.56
544.32	57663.78
544.48	57729.31
544.65	57497.60
544.82	57649.74
544.99	57385.25
545.16	57509.30
545.32	57298.65
545.49	57839.32
545.66	57968.05
545.83	57750.38
546.00	57916.56
546.16	57869.75
546.33	57780.81
546.50	57490.58
546.67	57942.30
546.83	57635.69
547.00	57855.70
547.17	58035.92
547.34	57954.00
547.50	58010.18
547.67	58309.77
547.84	58089.76
548.00	58227.85
548.17	58649.14
548.34	58417.43
548.51	58319.13
548.67	58382.32
548.84	58284.02
549.01	58099.12
549.18	58129.54
549.34	58445.52
549.51	58379.98
549.68	58651.48
549.84	58412.75
550.01	58660.85
550.18	58597.65
550.34	58644.46
550.51	58766.17
550.68	58628.08
550.84	58553.18
551.01	58827.02
551.18	58717.02
551.34	58644.46
551.51	58941.71
551.68	58759.15
551.84	58752.13
552.01	58574.25
552.18	59072.78
552.34	58745.11
552.51	58843.41
552.68	58824.68
552.84	58808.30
553.01	58913.62
553.18	58967.46
553.34	58988.52
553.51	58918.31
553.67	58871.49
553.84	59152.36
554.01	59058.74
554.17	59063.42
554.34	59004.91
554.51	59161.72
554.67	59447.27
554.84	59091.51
555.00	58904.26
555.17	58939.37
555.33	59365.35
555.50	59157.04
555.67	59154.70
555.83	59147.68
556.00	59203.85
556.16	59561.95
556.33	59377.05
556.50	59295.13
556.66	59618.13
556.83	59323.22
556.99	59517.48
557.16	59625.15
557.32	59590.04
557.49	59735.15
557.65	59400.46
557.82	59636.85
557.98	59526.84
558.15	59660.26
558.32	59620.47
558.48	59564.29
558.65	59662.60
558.81	59831.11
558.98	59660.26
559.14	59756.22
559.31	59868.56
559.47	59636.85
559.64	59934.10
559.80	60037.08
559.97	59959.84
560.13	59540.89
560.30	60027.72
560.46	59840.48
560.63	60062.83
560.79	59994.95
560.96	59994.95
561.12	59817.07
561.29	60020.70
561.45	59990.27
561.61	59931.76
561.78	59966.87
561.94	60032.40
562.11	60053.47
562.27	60144.75
562.44	59920.05
562.60	60264.11
562.77	60303.90
562.93	60011.34
563.10	60292.20
563.26	60044.10
563.42	60306.24
563.59	60357.74
563.75	60058.15
563.92	60116.66
564.08	60154.11
564.24	60357.74
564.41	60226.66
564.57	60067.51
564.74	60116.66
564.90	60434.97
565.07	60282.84
565.23	60395.18
565.39	60294.54
565.56	60523.91
565.72	60296.88
565.88	60329.65
566.05	60236.03
566.21	60268.79
566.38	60694.77
566.54	60544.98
566.70	60364.76
566.87	60528.59
567.03	60413.91
567.19	60556.68
567.36	60519.23
567.52	60460.72
567.68	60781.37
567.85	60446.68
568.01	60458.38
568.17	60463.06
568.34	60608.17
568.50	60458.38
568.66	60580.09
568.83	60640.94
568.99	60617.53
569.15	60722.86
569.32	60659.66
569.48	60509.87
569.64	60601.15
569.81	60502.85
569.97	60512.21
570.13	60690.09
570.30	60451.36
570.46	60575.40
570.62	60638.60
570.78	60774.35
570.95	60671.37
571.11	60624.56
571.27	60537.96
571.43	60671.37
571.60	60870.31
571.76	60760.31
571.92	60786.05
572.09	60699.45
572.25	60678.39
572.41	60692.43
572.57	60594.13
572.74	60954.57
572.90	60802.44
573.06	60839.89
573.22	60647.96
573.38	60676.05
573.55	60757.97
573.71	60949.89
573.87	61034.15
574.03	60683.07
574.20	60666.69
574.36	60884.36
574.52	60654.98
574.68	60882.02
574.84	61055.21
575.01	60977.98
575.17	60739.24
575.33	60821.16
575.49	60928.83
575.65	61050.53
575.82	60963.93
575.98	60872.65
576.14	61176.92
576.30	60935.85
576.46	60821.16
576.62	61003.72
576.79	60891.38
576.95	60863.29
577.11	60884.36
577.27	60945.21
577.43	60788.39
577.59	60809.46
577.75	60874.99
577.92	60776.69
578.08	60992.02
578.24	60945.21
578.40	60973.30
578.56	61195.65
578.72	61073.94
578.88	60954.57
579.04	60938.19
579.21	61085.64
579.37	61109.05
579.53	61258.84
579.69	60949.89
579.85	61113.73
580.01	60816.48
580.17	60767.33
580.33	61104.37
580.49	61036.49
580.65	60973.30
580.82	61034.15
580.98	60968.61
581.14	60889.04
581.30	61078.62
581.46	60970.96
581.62	61111.39
581.78	61073.94
581.94	61078.62
582.10	61008.40
582.26	61024.79
582.42	60970.96
582.58	61197.99
582.74	61141.81
582.90	60928.83
583.06	60949.89
583.22	60776.69
583.38	61312.67
583.54	61165.22
583.70	61275.22
583.86	61193.31
584.02	61022.45
584.18	61331.40
584.34	61179.26
584.50	61137.13
584.66	61153.52
584.82	60839.89
584.98	61315.01
585.14	61073.94
585.30	60959.25
585.46	61193.31
585.62	61050.53
585.78	61322.04
585.94	61031.81
586.10	61073.94
586.26	61254.16
586.42	61286.93
586.58	61464.81
586.74	61141.81
586.90	61247.14
587.06	61193.31
587.22	61378.21
587.38	61258.84
587.54	61478.85
587.70	61483.53
587.86	61289.27
588.02	61193.31
588.18	61265.86
588.34	61064.58
588.49	61286.93
588.65	61158.20
588.81	61368.85
588.97	61286.93
589.13	61345.44
589.29	61240.12
589.45	61343.10
589.61	61420.34
589.77	61499.92
589.93	61265.86
590.08	61441.40
590.24	61595.88
590.40	61485.87
590.56	61677.80
590.72	61464.81
590.88	61542.05
591.04	61544.39
591.20	61443.74
591.35	61483.53
591.51	61661.41
591.67	61586.52
591.83	61619.28
591.99	61368.85
592.15	61420.34
592.31	61677.80
592.46	61483.53
592.62	61296.29
592.78	61593.54
592.94	61586.52
593.10	61785.46
593.26	61778.44
593.41	61471.83
593.57	61729.29
593.73	61453.11
593.89	61822.91
594.05	61740.99
594.20	61553.75
594.36	61719.93
594.52	61769.08
594.68	61556.09
594.84	61684.82
594.99	61677.80
595.15	61572.47
595.31	61563.11
595.47	61595.88
595.62	61504.60
595.78	61537.36
595.94	61958.66
596.10	61776.10
596.25	61806.53
596.41	61829.93
596.57	61666.09
596.73	61668.44
596.88	61752.69
597.04	61612.26
597.20	61691.84
597.36	61965.68
597.51	61918.87
597.67	61748.01
597.83	61630.99
597.99	61645.03
598.14	61865.04
598.30	61750.35
598.46	61712.91
598.61	61764.40
598.77	61691.84
598.93	61918.87
599.09	61813.55
599.24	61972.70
599.40	62099.09
599.56	61881.42
599.71	61839.29
599.87	62031.22
600.03	61911.85
600.18	61654.39
600.34	61825.25
600.50	61755.03
600.65	61792.48
600.81	61939.94
600.97	61832.27
601.12	62092.07
601.28	61839.29
601.44	61691.84
601.59	61979.73
601.75	61815.89
601.91	62237.19
602.06	61977.39
602.22	62063.99
602.37	61715.25
602.53	61972.70
602.69	61843.98
602.84	61846.32
603.00	61930.58
603.16	61818.23
603.31	61904.83
603.47	62134.20
603.62	61785.46
603.78	62049.94
603.94	61918.87
604.09	61923.55
604.25	61726.95
604.40	61757.38
604.56	61886.10
604.71	62169.31
604.87	61834.61
605.03	61858.02
605.18	61984.41
605.34	61935.26
605.49	61806.53
605.65	62010.15
605.80	62052.28
605.96	61998.45
606.12	61998.45
606.27	62110.80
606.43	61769.08
606.58	62052.28
606.74	61904.83
606.89	61998.45
607.05	61799.50
607.20	62068.67
607.36	61689.50
607.51	61930.58
607.67	61893.13
607.82	61778.44
607.98	61733.97
608.13	61689.50
608.29	61937.60
608.44	61836.95
608.60	61769.08
608.75	61932.92
608.91	61572.47
609.06	61616.94
609.22	61907.17
609.37	61799.50
609.53	61879.08
609.68	61883.76
609.84	61710.56
609.99	61839.29
610.15	61949.30
610.30	61984.41
610.46	61818.23
610.61	61797.16
610.76	61787.80
610.92	61642.69
611.07	61787.80
611.23	61682.48
611.38	61773.76
611.54	61740.99
611.69	61820.57
611.84	61848.66
612.00	61591.20
612.15	61719.93
612.31	61626.31
612.46	61488.21
612.62	61586.52
612.77	61619.28
612.92	61717.59
613.08	61593.54
613.23	61626.31
613.39	61509.28
613.54	61537.36
613.69	61602.90
613.85	61656.73
614.00	61668.44
614.15	61619.28
614.31	61572.47
614.46	61790.14
614.62	61460.13
614.77	61616.94
614.92	61525.66
615.08	61574.81
615.23	61471.83
615.38	61619.28
615.54	61432.04
615.69	61474.17
615.84	61565.45
616.00	61528.00
616.15	61675.46
616.30	61499.92
616.46	61436.72
616.61	61565.45
616.76	61645.03
616.92	61455.45
617.07	61450.77
617.22	61439.06
617.37	61289.27
617.53	61642.69
617.68	61691.84
617.83	61331.40
617.99	61392.25
618.14	61539.71
618.29	61392.25
618.45	61326.72
618.60	61366.51
618.75	61080.96
618.90	61240.12
619.06	61502.26
619.21	61413.32
619.36	61352.46
619.51	61460.13
619.67	61162.88
619.82	61410.98
619.97	61331.40
620.12	61017.77
620.28	61048.19
620.43	61258.84
620.58	61268.20
620.73	61197.99
620.89	61132.45
621.04	61401.61
621.19	61212.03
621.34	61113.73
621.49	61190.97
621.65	61263.52
621.80	61296.29
621.95	61027.13
622.10	61141.81
622.25	61073.94
622.41	61099.68
622.56	61102.03
622.71	61017.77
622.86	60795.42
623.01	60851.59
623.16	60804.78
623.32	60900.74
623.47	61036.49
623.62	61202.67
623.77	60947.55
623.92	60921.80
624.07	60739.24
624.23	60970.96
624.38	60992.02
624.53	60830.52
624.68	60900.74
624.83	60835.20
624.98	61013.08
625.13	60718.18
625.29	60928.83
625.44	60790.73
625.59	60874.99
625.74	60640.94
625.89	60779.03
626.04	60713.50
626.19	60530.93
626.34	60659.66
626.49	60617.53
626.65	60523.91
626.80	60671.37
626.95	60507.53
627.10	60437.31
627.25	60603.49
627.40	60472.42
627.55	60615.19
627.70	60584.77
627.85	60608.17
628.00	60313.26
628.15	60509.87
628.30	60514.55
628.45	60238.37
628.60	60191.56
628.76	60561.36
628.91	60544.98
629.06	60416.25
629.21	60460.72
629.36	60451.36
629.51	60432.63
629.66	60371.78
629.81	60055.81
629.96	60081.55
630.11	60273.48
630.26	59987.93
630.41	60360.08
630.56	60322.63
630.71	60339.01
630.86	60427.95
631.01	60196.24
631.16	60200.92
631.31	60032.40
631.46	60072.19
631.61	60214.96
631.76	60233.69
631.91	60313.26
632.06	60320.29
632.21	60144.75
632.36	60039.42
632.51	59777.28
632.66	60032.40
632.81	59931.76
632.96	60322.63
633.10	60123.68
633.25	59997.29
633.40	59966.87
633.55	60032.40
633.70	59807.71
633.85	59632.17
634.00	59870.90
634.15	59854.52
634.30	59924.74
634.45	59721.11
634.60	60158.79
634.75	60193.90
634.90	59753.88
635.05	59765.58
635.19	59756.22
635.34	59831.11
635.49	59671.96
635.64	59934.10
635.79	59861.54
635.94	59622.81
636.09	59896.65
636.24	59632.17
636.39	59660.26
636.53	59903.67
636.68	59611.10
636.83	59861.54
636.98	59868.56
637.13	60011.34
637.28	59599.40
637.43	59655.57
637.57	59618.13
637.72	59473.01
637.87	59653.23
638.02	59751.54
638.17	59746.86
638.32	59613.44
638.46	59613.44
638.61	59468.33
638.76	59442.59
638.91	59309.18
639.06	59154.70
639.20	59208.53
639.35	59409.82
639.50	59257.68
639.65	59325.56
639.80	59585.36
639.94	59311.52
640.09	59253.00
640.24	59255.34
640.39	59185.13
640.54	59128.95
640.68	59091.51
640.83	59370.03
640.98	59332.58
641.13	59164.06
641.27	59398.12
641.42	59400.46
641.57	59086.82
641.72	59143.00
641.86	59065.76
642.01	58878.52
642.16	59150.02
642.31	59021.29
642.45	59302.15
642.60	58969.80
642.75	59030.65
642.90	59133.63
643.04	59161.72
643.19	59208.53
643.34	58934.69
643.48	58960.44
643.63	58908.94
643.78	58869.15
643.93	58965.12
644.07	58918.31
644.22	58906.60
644.37	58679.57
644.51	58972.14
644.66	58951.07
644.81	58731.06
644.95	58845.75
645.10	58965.12
645.25	59007.25
645.39	58707.66
645.54	58782.55
645.69	58777.87
645.83	58805.96
645.98	58862.13
646.13	58770.85
646.27	58637.44
646.42	58602.33
646.57	58724.04
646.71	58756.81
646.86	58927.67
647.00	58791.92
647.15	58658.51
647.30	58410.41
647.44	58543.82
647.59	58915.96
647.74	58684.25
647.88	58651.48
648.03	58728.72
648.17	58527.44
648.32	58468.92
648.47	58595.31
648.61	58489.99
648.76	58527.44
648.90	58356.58
649.05	58539.14
649.20	58677.23
649.34	58625.74
649.49	58340.19
649.63	58625.74
649.78	58738.08
649.92	58417.43
650.07	58653.82
650.21	58071.03
650.36	58461.90
650.51	58166.99
650.65	58478.28
650.80	58382.32
650.94	58031.24
651.09	58157.63
651.23	57773.78
651.38	58178.70
651.52	58064.01
651.67	58003.16
651.81	57935.28
651.96	58110.82
652.10	58010.18
652.25	58089.76
652.39	58056.99
652.54	58113.16
652.68	57853.36
652.83	58232.53
652.97	57785.49
653.12	57937.62
653.26	58075.71
653.41	58117.84
653.55	57869.75
653.70	57909.53
653.84	58071.03
653.99	57989.11
654.13	57949.32
654.27	57841.66
654.42	57890.81
654.56	57895.49
654.71	57874.43
654.85	57715.27
655.00	57666.12
655.14	57951.66
655.29	57741.02
655.43	57722.29
655.57	57733.99
655.72	57626.33
655.86	57764.42
656.01	57762.08
656.15	57712.93
656.30	57605.26
656.44	57675.48
656.58	57799.53
656.73	57862.72
656.87	57677.82
657.01	57764.42
657.16	57591.22
657.30	57492.92
657.45	57242.48
657.59	57631.01
657.73	57059.92
657.88	57172.27
658.02	57258.87
658.16	57502.28
658.31	57387.60
658.45	57439.09
658.60	57350.15
658.74	57212.06
658.88	57275.25
659.03	57214.40
659.17	57226.10
659.31	57162.90
659.46	57235.46
659.60	57088.01
659.74	56949.92
659.89	56882.04
660.03	56999.07
660.17	56982.68
660.32	56893.74
660.46	56868.00
660.60	56537.98
660.74	56743.95
660.89	56978.00
661.03	56802.46
661.17	56514.58
661.32	56715.86
661.46	56547.34
661.60	56734.59
661.74	56680.75
661.89	56549.68
662.03	56530.96
662.17	56533.30
662.31	56582.45
662.46	56615.22
662.60	56645.65
662.74	56411.59
662.88	56285.20
663.03	56149.45
663.17	56289.88
663.31	56055.83
663.45	56072.21
663.60	56104.98
663.74	55517.51
663.88	55992.64
664.02	55835.82
664.17	56177.54
664.31	55618.15
664.45	55875.61
664.59	55583.04
664.73	55868.59
664.88	55671.98
665.02	55285.79
665.16	55526.87
665.30	55592.40
665.44	55545.59
665.59	55416.86
665.73	55377.08
665.87	55395.80
666.01	55671.98
666.15	55309.20
666.29	55255.37
666.44	55264.73
666.58	55416.86
666.72	55302.18
666.86	55253.03
667.00	55180.47
667.14	54710.02
667.28	54780.24
667.43	54808.32
667.57	55117.28
667.71	54672.57
667.85	54794.28
667.99	54735.77
668.13	54646.83
668.27	54862.16
668.41	54918.33
668.56	54384.69
668.70	54518.10
668.84	54216.17
668.98	54436.18
669.12	54621.08
669.26	54588.31
669.40	54260.64
669.54	54162.34
669.68	54152.97
669.82	54190.42
669.96	54045.31
670.10	54225.53
670.25	54361.28
670.39	54225.53
670.53	54127.23
670.67	54021.90
670.81	54487.67
670.95	53932.96
671.09	53879.13
671.23	53394.64
671.37	53691.89
671.51	53464.86
671.65	53811.26
671.79	53811.26
671.93	53453.15
672.07	53434.43
672.21	53464.86
672.35	52968.66
672.49	53015.47
672.63	52666.73
672.77	52926.53
672.91	53097.39
673.05	52734.61
673.19	52985.05
673.33	52753.33
673.47	52818.87
673.61	52959.30
673.75	52538.01
673.89	52743.97
674.03	52282.89
674.17	52521.62
674.31	52179.90
674.45	51936.49
674.59	51875.63
674.73	51690.73
674.87	51852.23
675.01	51641.58
675.15	51660.30
675.29	52097.98
675.43	51751.59
675.56	51459.02
675.70	51105.60
675.84	51367.74
675.98	50148.32
676.12	51372.42
676.26	51573.70
676.40	51058.79
676.54	51019.00
676.68	50803.67
676.82	50307.47
676.96	50438.54
677.10	50202.15
677.23	50108.53
677.37	50354.29
677.51	50197.47
677.65	49485.95
677.79	49336.15
677.93	49181.68
678.07	49406.37
678.21	49343.17
678.34	49076.35
678.48	49350.20
678.62	48746.34
678.76	48671.44
678.90	48587.18
679.04	48505.26
679.18	48889.11
679.31	48531.01
679.45	48531.01
679.59	48119.07
679.73	48505.26
679.87	48531.01
680.00	47962.26
680.14	47770.33
680.28	47330.31
680.42	47615.86
680.56	47250.74
680.70	47037.75
680.83	47152.43
680.97	46894.97
681.11	47189.88
681.25	47260.10
681.39	46471.34
681.52	47208.61
681.66	46665.60
681.80	46344.95
681.94	46113.23
682.07	46429.21
682.21	45485.97
682.35	45722.37
682.49	45387.67
682.62	45556.19
682.76	45626.40
682.90	45514.06
683.04	45214.47
683.17	45446.18
683.31	45071.70
683.45	45125.53
683.59	44669.12
683.72	44381.24
683.86	44294.64
684.00	44790.83
684.13	43950.58
684.27	44341.45
684.41	43555.03
684.55	44142.50
684.68	43419.28
684.82	43915.47
684.96	43072.88
685.09	43400.55
685.23	42920.74
685.37	42792.01
685.50	43044.79
685.64	42808.40
685.78	42609.45
685.91	42653.92
686.05	42642.22
686.19	41406.42
686.32	41469.61
686.46	41249.60
686.60	41024.91
686.73	40882.14
686.87	40928.95
687.01	41076.40
687.14	41045.97
687.28	40505.31
687.42	40692.55
687.55	40596.59
687.69	41219.17
687.82	40114.44
687.96	39812.51
688.10	39868.69
688.23	40418.71
688.37	39992.73
688.50	39597.18
688.64	39431.01
688.78	39138.44
688.91	38841.19
689.05	38913.75
689.18	39068.22
689.32	38216.27
689.46	38068.81
689.59	37610.07
689.73	37921.36
689.86	38003.28
690.00	37825.40
690.13	37956.47
690.27	38068.81
690.41	37715.39
690.54	37188.77
690.68	37097.49
690.81	37392.40
690.95	36772.16
691.08	36535.76
691.22	36622.36
691.35	36315.75
691.49	36521.72
691.62	36437.46
691.76	35983.40
691.89	35585.50
692.03	35534.01
692.16	35356.13
692.30	35786.79
692.43	35264.85
692.57	34705.46
692.70	35166.55
692.84	34906.75
692.97	34494.82
693.11	34499.50
693.24	34450.35
693.38	34410.56
693.51	34195.23
693.65	33867.55
693.78	33933.09
693.92	34033.73
694.05	33244.97
694.19	33345.61
694.32	33268.37
694.45	33223.90
694.59	33134.96
694.72	32912.61
694.86	32868.14
694.99	32563.87
695.13	32161.30
695.26	32109.81
695.39	31519.99
695.53	31569.15
695.66	32229.18
695.80	31702.56
695.93	31257.85
696.07	31363.18
696.20	31028.48
696.33	31150.19
696.47	30913.80
696.60	30859.96
696.73	30864.64
696.87	30836.56
697.00	30394.20
697.14	30354.41
697.27	30087.59
697.40	30192.91
697.54	30043.12
697.67	29717.78
697.80	29923.75
697.94	29057.75
698.07	29340.96
698.21	29394.79
698.34	29378.40
698.47	28760.50
698.61	28680.92
698.74	28400.06
698.87	28809.65
699.01	28149.62
699.14	28407.08
699.27	28112.17
699.40	27950.68
699.54	28318.14
699.67	28166.01
699.80	27623.00
699.94	27630.02
700.07	27840.67
700.20	27239.15
700.34	26909.14
700.47	26675.09
700.60	26480.82
700.73	26321.66
700.87	26129.74
701.00	26494.86
701.13	25923.77
701.26	25738.87
701.40	26469.12
701.53	25766.96
701.66	26188.25
701.79	25223.95
701.93	25099.90
702.06	24765.21
702.19	25062.46
702.32	25020.33
702.46	25053.09
702.59	24685.63
702.72	24556.90
702.85	24795.64
702.99	24716.06
703.12	24790.95
703.25	24374.34
703.38	24187.10
703.51	23782.18
703.65	23960.06
703.78	23461.53
703.91	23772.82
704.04	23672.18
704.17	23531.75
704.31	23524.72
704.44	23110.45
704.57	22939.59
704.70	22876.40
704.83	22600.21
704.96	22707.88
705.10	22258.49
705.23	22223.39
>>>>>End Processed Spectral Data<<<<<
