SpectraSuite Data File
++++++++++++++++++++++++++++++++++++
Date: Fri Oct 25 11:26:09 EDT 2013
User: price-jones
Dark Spectrum Present: No
Reference Spectrum Present: No
Number of Sampled Component Spectra: 1
Spectrometers: USB2+H05261
Integration Time (usec): 100000 (USB2+H05261)
Spectra Averaged: 1 (USB2+H05261)
Boxcar Smoothing: 0 (USB2+H05261)
Correct for Electrical Dark: No (USB2+H05261)
Strobe/Lamp Enabled: No (USB2+H05261)
Correct for Detector Non-linearity: No (USB2+H05261)
Correct for Stray Light: No (USB2+H05261)
Number of Pixels in Processed Spectrum: 2048
>>>>>Begin Processed Spectral Data<<<<<
365.73	220.01
365.92	220.01
366.12	220.01
366.32	126.39
366.52	135.75
366.72	222.35
366.91	166.18
367.11	142.77
367.31	138.09
367.51	114.69
367.70	107.66
367.90	131.07
368.10	131.07
368.30	74.90
368.49	212.99
368.69	166.18
368.89	100.64
369.09	133.41
369.28	187.24
369.48	177.88
369.68	273.84
369.87	215.33
370.07	177.88
370.27	184.90
370.47	273.84
370.66	578.11
370.86	617.90
371.06	648.33
371.25	657.69
371.45	648.33
371.65	704.50
371.84	660.03
372.04	660.03
372.24	716.20
372.44	711.52
372.63	699.82
372.83	763.01
373.03	805.14
373.22	868.34
373.42	842.59
373.62	716.20
373.81	772.38
374.01	816.85
374.21	819.19
374.40	758.33
374.60	812.17
374.79	828.55
374.99	805.14
375.19	781.74
375.38	851.96
375.58	884.72
375.78	828.55
375.97	858.98
376.17	901.11
376.37	901.11
376.56	894.08
376.76	905.79
376.95	833.23
377.15	931.53
377.35	908.13
377.54	842.59
377.74	903.45
377.93	854.30
378.13	1004.09
378.33	978.34
378.52	875.36
378.72	990.05
378.91	964.30
379.11	992.39
379.31	994.73
379.50	922.17
379.70	931.53
379.89	952.60
380.09	980.68
380.28	933.87
380.48	945.58
380.68	926.85
380.87	938.55
381.07	1006.43
381.26	1090.69
381.46	1071.97
381.65	1039.20
381.85	1006.43
382.04	1027.50
382.24	945.58
382.43	1008.77
382.63	1062.60
382.83	1219.42
383.02	1165.59
383.22	1111.75
383.41	1121.12
383.61	1067.28
383.80	1086.01
384.00	1100.05
384.19	1043.88
384.39	1198.35
384.58	1214.74
384.78	1081.33
384.97	1217.08
385.17	1184.31
385.36	1135.16
385.56	1102.39
385.75	1153.88
385.95	1029.84
386.14	1219.42
386.34	1308.36
386.53	1259.21
386.72	1210.06
386.92	1109.41
387.11	1259.21
387.31	1266.23
387.50	1268.57
387.70	1259.21
387.89	1170.27
388.09	1249.85
388.28	1306.02
388.48	1310.70
388.67	1294.32
388.86	1380.92
389.06	1348.15
389.25	1385.60
389.45	1327.08
389.64	1299.00
389.84	1376.24
390.03	1416.02
390.22	1308.36
390.42	1345.81
390.61	1406.66
390.81	1446.45
391.00	1317.72
391.19	1427.73
391.39	1341.13
391.58	1474.54
391.78	1453.47
391.97	1404.32
392.16	1483.90
392.36	1413.68
392.55	1551.78
392.75	1533.05
392.94	1556.46
393.13	1533.05
393.33	1540.07
393.52	1645.40
393.71	1549.43
393.91	1519.01
394.10	1530.71
394.29	1664.12
394.49	1643.06
394.68	1636.03
394.88	1509.65
395.07	1675.82
395.26	1535.39
395.46	1659.44
395.65	1720.29
395.84	1671.14
396.04	1741.36
396.23	1715.61
396.42	1762.42
396.62	1846.68
396.81	1827.96
397.00	1748.38
397.19	1675.82
397.39	1792.85
397.58	1895.83
397.77	1757.74
397.97	1844.34
398.16	1827.96
398.35	1926.26
398.55	1825.62
398.74	1888.81
398.93	1942.64
399.12	1839.66
399.32	1930.94
399.51	1872.43
399.70	1949.67
399.90	1987.11
400.09	2022.22
400.28	2087.76
400.47	2026.90
400.67	2078.40
400.86	2092.44
401.05	2059.67
401.24	2118.18
401.44	2108.82
401.63	2125.21
401.82	2132.23
402.01	2155.63
402.21	2179.04
402.40	2141.59
402.59	2207.13
402.78	2249.25
402.97	2270.32
403.17	2228.19
403.36	2321.81
403.55	2305.43
403.74	2476.29
403.93	2321.81
404.13	2181.38
404.32	2279.68
404.51	2375.64
404.70	2420.11
404.89	2450.54
405.09	2487.99
405.28	2403.73
405.47	2471.61
405.66	2518.42
405.85	2605.02
406.05	2593.31
406.24	2562.89
406.43	2457.56
406.62	2668.21
406.81	2637.78
407.00	2553.52
407.20	2504.37
407.39	2677.57
407.58	2656.51
407.77	2726.72
407.96	2637.78
408.15	2722.04
408.34	2794.60
408.54	2761.83
408.73	2920.99
408.92	2923.33
409.11	2902.26
409.30	2876.52
409.49	2895.24
409.68	2918.65
409.87	2874.18
410.07	3030.99
410.26	3040.36
410.45	3040.36
410.64	3110.57
410.83	3052.06
411.02	3105.89
411.21	3068.44
411.40	3101.21
411.59	3129.30
411.78	3194.83
411.98	3131.64
412.17	3108.23
412.36	3258.03
412.55	3337.60
412.74	3534.21
412.93	3414.84
413.12	3279.09
413.31	3440.59
413.50	3496.76
413.69	3478.04
413.88	3632.51
414.07	3506.12
414.26	3623.15
414.45	3709.75
414.64	3499.10
414.83	3779.97
415.02	3733.15
415.22	3859.54
415.41	3854.86
415.60	3819.75
415.79	3887.63
415.98	3887.63
416.17	4028.06
416.36	3953.16
416.55	3885.29
416.74	4102.96
416.93	4011.68
417.12	4046.79
417.31	4025.72
417.50	4056.15
417.69	4280.84
417.88	4425.95
418.07	4278.50
418.26	4283.18
418.45	4243.39
418.64	4437.66
418.83	4372.12
419.02	4475.10
419.21	4484.47
419.39	4519.57
419.58	4571.07
419.77	4411.91
419.96	4479.79
420.15	4730.22
420.34	4463.40
420.53	4671.71
420.72	4833.21
420.91	4732.56
421.10	4748.95
421.29	4774.69
421.48	4657.67
421.67	4793.42
421.86	4751.29
422.05	4816.82
422.24	4685.75
422.43	4828.53
422.61	4980.66
422.80	4929.17
422.99	4648.30
423.18	4849.59
423.37	4961.94
423.56	4961.94
423.75	5008.75
423.94	4779.37
424.13	4582.77
424.32	4791.08
424.50	5020.45
424.69	5081.30
424.88	5172.58
425.07	5029.81
425.26	4781.71
425.45	4802.78
425.64	4791.08
425.83	4917.47
426.01	5020.45
426.20	5132.79
426.39	5093.01
426.58	5008.75
426.77	5167.90
426.96	5114.07
427.15	5095.35
427.33	5158.54
427.52	5174.92
427.71	5132.79
427.90	5350.46
428.09	5228.76
428.28	5343.44
428.46	5364.51
428.65	5336.42
428.84	5446.43
429.03	5486.22
429.22	5313.02
429.40	5460.47
429.59	5535.37
429.78	5364.51
429.97	5448.77
430.16	5373.87
430.34	5614.95
430.53	5680.48
430.72	5530.69
430.91	5516.64
431.10	5488.56
431.28	5853.68
431.47	5846.66
431.66	5755.38
431.85	5647.71
432.03	6052.63
432.22	6090.07
432.41	5783.46
432.60	5811.55
432.79	6031.56
432.97	6076.03
433.16	5797.51
433.35	5874.74
433.54	6094.76
433.72	6106.46
433.91	6097.10
434.10	6155.61
434.28	6033.90
434.47	6085.39
434.66	6209.44
434.85	6282.00
435.03	6251.57
435.22	6183.70
435.41	6413.07
435.59	6235.19
435.78	6291.36
435.97	6457.54
436.16	6494.99
436.34	6389.66
436.53	6462.22
436.72	6672.87
436.90	6485.62
437.09	6562.86
437.28	6523.07
437.46	6506.69
437.65	6588.61
437.84	6750.10
438.02	6670.53
438.21	6738.40
438.40	6642.44
438.58	6836.70
438.77	6883.52
438.96	6972.46
439.14	7052.03
439.33	7007.56
439.52	7220.55
439.70	7297.79
439.89	7335.24
440.08	7353.96
440.26	7412.48
440.45	7370.35
440.63	7510.78
440.82	7576.31
441.01	7478.01
441.19	7375.03
441.38	7688.66
441.57	7730.79
441.75	7742.49
441.94	7903.99
442.12	7955.48
442.31	7932.08
442.50	7995.27
442.68	7903.99
442.87	7964.84
443.05	8018.68
443.24	8236.35
443.43	8156.77
443.61	8060.80
443.80	8538.27
443.98	8063.15
444.17	7901.65
444.35	8060.80
444.54	8297.20
444.73	8320.60
444.91	8116.98
445.10	8266.77
445.28	8432.95
445.47	8444.65
445.65	8126.34
445.84	8320.60
446.02	8524.23
446.21	8306.56
446.39	8306.56
446.58	8477.42
446.77	8545.30
446.95	8299.54
447.14	8446.99
447.32	8409.54
447.51	8461.04
447.69	8180.17
447.88	8210.60
448.06	8526.57
448.25	8465.72
448.43	8496.14
448.62	8596.79
448.80	8454.02
448.99	8615.51
449.17	8706.79
449.36	8596.79
449.54	8683.39
449.73	8957.23
449.91	8931.48
450.10	8889.35
450.28	9064.89
450.46	9074.26
450.65	9041.49
450.83	8922.12
451.02	8903.40
451.20	9200.65
451.39	9064.89
451.57	9090.64
451.76	8987.66
451.94	9270.86
452.13	9259.16
452.31	9191.28
452.49	8964.25
452.68	9359.80
452.86	9427.68
453.05	9462.79
453.23	9348.10
453.42	9235.75
453.60	9135.11
453.78	9650.03
453.97	9547.05
454.15	9430.02
454.34	9408.95
454.52	9755.35
454.70	9406.61
454.89	9816.21
455.07	9727.27
455.26	9748.33
455.44	9753.01
455.62	9966.00
455.81	9982.38
455.99	9792.80
456.17	10256.23
456.36	10150.90
456.54	10211.76
456.73	10260.91
456.91	10523.05
457.09	10401.34
457.28	10331.12
457.46	10188.35
457.64	10413.04
457.83	10368.57
458.01	10354.53
458.19	10595.61
458.38	10427.09
458.56	10607.31
458.74	10892.85
458.93	10677.52
459.11	10696.25
459.29	10764.12
459.48	10860.09
459.66	10656.46
459.84	10890.51
460.03	11073.07
460.21	10939.66
460.39	11267.34
460.57	11204.14
460.76	11126.91
460.94	11084.78
461.12	11232.23
461.31	11307.13
461.49	11154.99
461.67	10949.03
461.85	11468.62
462.04	11143.29
462.22	11871.20
462.40	11751.83
462.59	11421.81
462.77	11384.37
462.95	11515.44
463.13	11817.36
463.32	11709.70
463.50	11454.58
463.68	11641.82
463.86	11901.62
464.05	11452.24
464.23	11449.90
464.41	11859.49
464.59	11620.76
464.78	11955.46
464.96	12058.44
465.14	11910.99
465.32	12102.91
465.50	11939.07
465.69	12262.07
465.87	12271.43
466.05	12182.49
466.23	12194.19
466.41	12208.23
466.60	12542.93
466.78	12168.45
466.96	11878.22
467.14	12318.24
467.32	12243.34
467.51	12402.50
467.69	12156.74
467.87	12294.83
468.05	12585.06
468.23	12327.60
468.41	12388.46
468.60	12592.08
468.78	12877.63
468.96	12556.97
469.14	12791.03
469.32	12931.46
469.50	12505.48
469.69	13076.57
469.87	13153.81
470.05	13284.88
470.23	13125.72
470.41	13053.17
470.59	13497.87
470.77	13181.90
470.95	13032.10
471.14	13369.14
471.32	13235.73
471.50	13425.31
471.68	13479.15
471.86	13865.33
472.04	13364.46
472.22	14043.21
472.40	13617.24
472.58	13846.61
472.77	14019.81
472.95	14003.43
473.13	14415.36
473.31	14026.83
473.49	14132.15
473.67	13951.93
473.85	14050.24
474.03	14438.76
474.21	14654.09
474.39	14796.87
474.57	14712.61
474.75	14712.61
474.93	14995.81
475.12	15087.09
475.30	15077.73
475.48	14913.89
475.66	15267.31
475.84	15169.01
476.02	15520.09
476.20	15379.66
476.38	15702.65
476.56	15854.79
476.74	16013.95
476.92	15917.98
477.10	15807.98
477.28	16032.67
477.46	16145.02
477.64	16205.87
477.82	16430.56
478.00	16837.81
478.18	16908.03
478.36	16821.43
478.54	17277.83
478.72	17041.44
478.90	17345.71
479.08	17542.32
479.26	17467.42
479.44	17692.11
479.62	17818.50
479.80	17839.56
479.98	18195.32
480.16	18345.12
480.34	18387.25
480.52	18359.16
480.70	18391.93
480.88	18436.40
481.06	18478.53
481.24	18675.13
481.41	19192.39
481.59	19199.41
481.77	19569.22
481.95	19606.67
482.13	19646.46
482.31	19669.86
482.49	20191.80
482.67	20240.95
482.85	20276.06
483.03	20655.23
483.21	20608.42
483.39	20961.84
483.57	20767.57
483.74	21207.59
483.92	21420.58
484.10	21235.68
484.28	21900.39
484.46	21759.96
484.64	22054.87
484.82	21855.92
485.00	22197.64
485.18	22558.08
485.35	22721.92
485.53	22625.96
485.71	23222.80
485.89	23648.77
486.07	22897.46
486.25	23372.59
486.43	23269.61
486.61	24081.77
486.78	23939.00
486.96	24088.79
487.14	24203.48
487.32	24776.91
487.50	24903.30
487.68	24610.73
487.85	25076.50
488.03	25551.63
488.21	25879.30
488.39	25764.62
488.57	26209.32
488.75	25841.85
488.92	26572.10
489.10	26885.73
489.28	26588.49
489.46	26984.04
489.64	26637.64
489.81	27475.55
489.99	27295.33
490.17	27688.54
490.35	27641.73
490.53	27992.81
490.70	28393.04
490.88	28009.19
491.06	28704.33
491.24	28891.57
491.41	28643.48
491.59	28980.51
491.77	29076.48
491.95	29404.15
492.13	29734.17
492.30	29855.87
492.48	29874.60
492.66	29991.62
492.84	29949.50
493.01	30579.10
493.19	30649.32
493.37	30726.55
493.54	31133.81
493.72	31299.98
493.90	31412.33
494.08	31297.64
494.25	31548.08
494.43	31611.28
494.61	32088.74
494.79	32121.51
494.96	32311.10
495.14	32470.25
495.32	33448.60
495.49	33132.62
495.67	33263.69
495.85	33106.88
496.02	33380.72
496.20	34045.43
496.38	33706.05
496.55	33991.60
496.73	34632.91
496.91	34682.06
497.09	34754.61
497.26	35091.65
497.44	34403.53
497.62	34944.20
497.79	35372.52
497.97	35461.46
498.14	35789.13
498.32	35725.94
498.50	36079.36
498.67	36041.91
498.85	36360.22
499.03	36680.88
499.20	36503.00
499.38	36605.98
499.56	37064.72
499.73	36720.66
499.91	36765.14
500.08	37113.87
500.26	37319.84
500.44	37881.57
500.61	37799.65
500.79	37614.75
500.97	37530.49
501.14	38370.74
501.32	38649.27
501.49	38412.87
501.67	38422.23
501.84	38569.69
502.02	38998.01
502.20	38822.47
502.37	39201.63
502.55	39157.16
502.72	39360.79
502.90	39541.01
503.07	39161.84
503.25	39700.17
503.43	39363.13
503.60	39868.69
503.78	40067.63
503.95	39910.82
504.13	40311.05
504.30	40395.31
504.48	40364.88
504.65	40561.48
504.83	40753.41
505.01	41167.68
505.18	40945.33
505.36	41326.84
505.53	40952.35
505.71	41460.25
505.88	41675.58
506.06	41151.30
506.23	41659.20
506.41	41467.27
506.58	41825.37
506.76	42274.76
506.93	42562.64
507.11	41965.81
507.28	42213.90
507.46	42527.53
507.63	42792.01
507.81	43372.47
507.98	42691.37
508.16	42986.28
508.33	43276.51
508.50	43082.24
508.68	43278.85
508.85	43529.28
509.03	44102.71
509.20	43906.11
509.38	44418.69
509.55	43863.98
509.73	44158.89
509.90	43821.85
510.08	44058.24
510.25	44421.03
510.42	44692.53
510.60	44678.49
510.77	45034.25
510.95	45343.20
511.12	44893.82
511.30	44479.54
511.47	45387.67
511.64	45406.39
511.82	46047.70
511.99	45654.49
512.17	45752.79
512.34	45698.96
512.51	46539.21
512.69	46244.30
512.86	46293.46
513.04	46389.42
513.21	46216.22
513.38	46721.77
513.56	46567.30
513.73	47028.38
513.90	46555.60
514.08	46321.54
514.25	47365.42
514.43	47061.15
514.60	47187.54
514.77	47150.09
514.95	47519.90
515.12	47217.97
515.29	47086.90
515.47	47833.53
515.64	47917.79
515.81	47714.16
515.99	47711.82
516.16	48154.18
516.33	48088.65
516.51	48568.46
516.68	48100.35
516.85	48193.97
517.03	48699.53
517.20	48818.89
517.37	48348.45
517.54	48552.07
517.72	48741.66
517.89	48755.70
518.06	49277.64
518.24	49148.91
518.41	48964.01
518.58	49191.04
518.75	48772.08
518.93	49841.71
519.10	49397.01
519.27	49556.16
519.45	49518.71
519.62	50052.36
519.79	49539.78
519.96	49886.18
520.14	50007.89
520.31	49975.12
520.48	50354.29
520.65	49886.18
520.83	50326.20
521.00	50403.44
521.17	50515.78
521.34	50408.12
521.52	50815.37
521.69	50904.31
521.86	50621.11
522.03	50724.09
522.20	51107.94
522.38	51346.67
522.55	50878.57
522.72	51082.19
522.89	51194.54
523.07	51746.90
523.24	51112.62
523.41	51283.48
523.58	51379.44
523.75	51892.02
523.92	51517.53
524.10	51702.43
524.27	51538.60
524.44	51760.95
524.61	51997.34
524.78	51917.76
524.96	52030.11
525.13	52217.35
525.30	52161.18
525.47	52528.64
525.64	52196.29
525.81	52105.01
525.98	52420.98
526.16	52554.39
526.33	52404.59
526.50	52662.05
526.67	52451.41
526.84	52804.83
527.01	52444.38
527.18	52409.28
527.36	52917.17
527.53	52783.76
527.70	53420.39
527.87	53169.95
528.04	53066.97
528.21	53092.71
528.38	53254.21
528.55	53251.87
528.72	53514.01
528.89	53373.58
529.07	53279.96
529.24	53261.23
529.41	53616.99
529.58	53296.34
529.75	53743.38
529.92	53698.91
530.09	53822.96
530.26	53675.51
530.43	53954.03
530.60	53624.01
530.77	53794.87
530.94	54031.27
531.11	53991.48
531.28	53914.24
531.46	54377.67
531.63	54218.51
531.80	54017.22
531.97	54080.42
532.14	54188.08
532.31	54164.68
532.48	54291.07
532.65	54649.17
532.82	54178.72
532.99	54440.86
533.16	54160.00
533.33	54543.84
533.50	54995.57
533.67	54576.61
533.84	54302.77
534.01	54632.78
534.18	54855.14
534.35	55152.38
534.52	54672.57
534.69	55082.17
534.86	55194.51
535.03	54862.16
535.20	55079.83
535.37	55199.19
535.54	55583.04
535.71	54988.55
535.88	55402.82
536.05	55243.66
536.22	55393.46
536.38	55466.02
536.55	55276.43
536.72	55433.25
536.89	55313.88
537.06	55402.82
537.23	55789.01
537.40	55550.27
537.57	55339.63
537.74	55569.00
537.91	55847.52
538.08	55920.08
538.25	55571.34
538.42	56030.08
538.59	55749.22
538.75	55725.81
538.92	55950.51
539.09	56018.38
539.26	55997.32
539.43	55866.25
539.60	55955.19
539.77	56229.03
539.94	55978.59
540.11	56371.80
540.28	56140.09
540.44	55994.98
540.61	56294.56
540.78	56250.09
540.95	56390.53
541.12	56189.24
541.29	56119.02
541.46	56575.43
541.62	56470.11
541.79	56568.41
541.96	56247.75
542.13	56470.11
542.30	56388.19
542.47	56949.92
542.63	56900.76
542.80	56545.00
542.97	56828.21
543.14	57160.56
543.31	57120.77
543.48	56844.59
543.64	57069.28
543.81	57216.74
543.98	57279.93
544.15	56994.39
544.32	57350.15
544.48	57502.28
544.65	57090.35
544.82	57467.17
544.99	57198.01
545.16	57329.08
545.32	57293.97
545.49	57420.36
545.66	57623.99
545.83	57581.86
546.00	57832.30
546.16	57406.32
546.33	57308.02
546.50	57284.61
546.67	57586.54
546.83	57322.06
547.00	57581.86
547.17	57434.41
547.34	57663.78
547.50	57914.22
547.67	58064.01
547.84	57705.91
548.00	58085.07
548.17	58101.46
548.34	57773.78
548.51	58145.93
548.67	58246.57
548.84	58031.24
549.01	57841.66
549.18	58024.22
549.34	58129.54
549.51	58054.65
549.68	58274.66
549.84	58064.01
550.01	58368.28
550.18	58248.91
550.34	58337.85
550.51	58464.24
550.68	58206.78
550.84	57860.38
551.01	58326.15
551.18	58576.59
551.34	58206.78
551.51	58501.69
551.68	58511.05
551.84	58457.22
552.01	58349.56
552.18	58358.92
552.34	58541.48
552.51	58724.04
552.68	58337.85
552.84	58768.51
553.01	58698.30
553.18	58700.64
553.34	58845.75
553.51	58700.64
553.67	58756.81
553.84	58728.72
554.01	58915.96
554.17	58717.02
554.34	59082.14
554.51	58908.94
554.67	58922.99
554.84	58749.79
555.00	58770.85
555.17	58911.28
555.33	58962.78
555.50	58890.22
555.67	59011.93
555.83	58843.41
556.00	59025.97
556.16	59161.72
556.33	59215.55
556.50	58925.33
556.66	59358.33
556.83	59056.40
556.99	59391.09
557.16	59381.73
557.32	59358.33
557.49	59449.61
557.65	59166.40
557.82	59138.32
557.98	59395.77
558.15	59199.17
558.32	59384.07
558.48	59355.99
558.65	59339.60
558.81	59573.66
558.98	59393.43
559.14	59611.10
559.31	59578.34
559.47	59594.72
559.64	59533.87
559.80	59487.06
559.97	59554.93
560.13	59398.12
560.30	59519.82
560.46	59512.80
560.63	59643.87
560.79	59714.09
560.96	59732.81
561.12	59751.54
561.29	59711.75
561.45	59732.81
561.61	59622.81
561.78	59873.24
561.94	59840.48
562.11	59749.20
562.27	59929.42
562.44	59866.22
562.60	59917.71
562.77	59962.18
562.93	59465.99
563.10	59845.16
563.26	59831.11
563.42	60317.95
563.59	59807.71
563.75	59798.35
563.92	59847.50
564.08	59812.39
564.24	60121.34
564.41	60102.62
564.57	60081.55
564.74	60156.45
564.90	60081.55
565.07	60060.49
565.23	60025.38
565.39	59894.31
565.56	60271.14
565.72	60219.64
565.88	59950.48
566.05	60191.56
566.21	59927.08
566.38	60079.21
566.54	60168.15
566.70	60254.75
566.87	60413.91
567.03	60111.98
567.19	60182.19
567.36	60137.72
567.52	60133.04
567.68	60369.44
567.85	60200.92
568.01	60254.75
568.17	60233.69
568.34	60343.69
568.50	60170.49
568.66	60193.90
568.83	60282.84
568.99	60289.86
569.15	60540.30
569.32	60411.57
569.48	60250.07
569.64	60509.87
569.81	60357.74
569.97	60009.00
570.13	60266.45
570.30	60212.62
570.46	60390.50
570.62	60348.37
570.78	60350.71
570.95	60329.65
571.11	60446.68
571.27	60292.20
571.43	60397.52
571.60	60310.92
571.76	60420.93
571.92	60294.54
572.09	60331.99
572.25	60460.72
572.41	60540.30
572.57	60381.14
572.74	60678.39
572.90	60381.14
573.06	60570.72
573.22	60411.57
573.38	60554.34
573.55	60533.28
573.71	60685.41
573.87	60636.26
574.03	60643.28
574.20	60629.24
574.36	60374.12
574.52	60647.96
574.68	60542.64
574.84	60535.62
575.01	60729.88
575.17	60500.51
575.33	60516.89
575.49	60301.56
575.65	60715.84
575.82	60636.26
575.98	60839.89
576.14	60828.18
576.30	60596.47
576.46	60582.43
576.62	60617.53
576.79	60736.90
576.95	60643.28
577.11	60786.05
577.27	60788.39
577.43	60903.08
577.59	60610.51
577.75	60669.03
577.92	60535.62
578.08	60804.78
578.24	60762.65
578.40	60816.48
578.56	60795.42
578.72	60654.98
578.88	60910.10
579.04	60959.25
579.21	60816.48
579.37	60889.04
579.53	60743.92
579.69	60542.64
579.85	60612.85
580.01	60603.49
580.17	60540.30
580.33	60683.07
580.49	60687.75
580.65	60917.12
580.82	60814.14
580.98	60683.07
581.14	60657.32
581.30	61080.96
581.46	60893.72
581.62	60626.90
581.78	60657.32
581.94	60722.86
582.10	60865.63
582.26	60769.67
582.42	60795.42
582.58	60774.35
582.74	60797.76
582.90	60750.94
583.06	60647.96
583.22	60722.86
583.38	60903.08
583.54	60893.72
583.70	60933.51
583.86	60924.14
584.02	60956.91
584.18	60889.04
584.34	60940.53
584.50	60816.48
584.66	60860.95
584.82	60797.76
584.98	61052.87
585.14	61020.11
585.30	60879.67
585.46	60975.64
585.62	60912.44
585.78	61013.08
585.94	60772.01
586.10	60954.57
586.26	60907.76
586.42	60912.44
586.58	61120.75
586.74	60903.08
586.90	61029.47
587.06	60928.83
587.22	60882.02
587.38	60821.16
587.54	61237.78
587.70	61083.30
587.86	61015.43
588.02	61020.11
588.18	61038.83
588.34	60912.44
588.49	61062.24
588.65	60781.37
588.81	61116.07
588.97	61003.72
589.13	61132.45
589.29	60956.91
589.45	61258.84
589.61	61139.47
589.77	61439.06
589.93	61113.73
590.08	61261.18
590.24	61104.37
590.40	61436.72
590.56	61263.52
590.72	61286.93
590.88	61059.90
591.04	61181.60
591.20	61310.33
591.35	61291.61
591.51	61537.36
591.67	61307.99
591.83	61326.72
591.99	61169.90
592.15	61233.10
592.31	61247.14
592.46	61354.80
592.62	61537.36
592.78	61284.59
592.94	61357.14
593.10	61141.81
593.26	61523.32
593.41	61125.43
593.57	61478.85
593.73	61406.30
593.89	61630.99
594.05	61530.34
594.20	61317.35
594.36	61595.88
594.52	61338.42
594.68	61378.21
594.84	61286.93
594.99	61371.19
595.15	61277.57
595.31	61413.32
595.47	61586.52
595.62	61425.02
595.78	61394.59
595.94	61399.27
596.10	61502.26
596.25	61619.28
596.41	61584.18
596.57	61373.53
596.73	61506.94
596.88	61464.81
597.04	61469.49
597.20	61584.18
597.36	61375.87
597.51	61528.00
597.67	61434.38
597.83	61256.50
597.99	61553.75
598.14	61455.45
598.30	61542.05
598.46	61455.45
598.61	61418.00
598.77	61471.83
598.93	61588.86
599.09	61565.45
599.24	61909.51
599.40	61675.46
599.56	61722.27
599.71	61675.46
599.87	61640.35
600.03	61764.40
600.18	61670.78
600.34	61502.26
600.50	61635.67
600.65	61520.98
600.81	61787.80
600.97	61642.69
601.12	61528.00
601.28	61595.88
601.44	61485.87
601.59	61666.09
601.75	61635.67
601.91	61843.98
602.06	61675.46
602.22	61895.47
602.37	61710.56
602.53	61488.21
602.69	61539.71
602.84	61556.09
603.00	61708.22
603.16	61757.38
603.31	61581.84
603.47	61502.26
603.62	61586.52
603.78	61881.42
603.94	61661.41
604.09	61668.44
604.25	61853.34
604.40	61495.24
604.56	61738.65
604.71	61848.66
604.87	61506.94
605.03	61696.52
605.18	61469.49
605.34	61909.51
605.49	61645.03
605.65	61621.62
605.80	61661.41
605.96	61848.66
606.12	61652.05
606.27	61705.88
606.43	61630.99
606.58	61642.69
606.74	61591.20
606.89	61415.66
607.05	61759.72
607.20	61694.18
607.36	61593.54
607.51	61406.30
607.67	61572.47
607.82	61539.71
607.98	61609.92
608.13	61539.71
608.29	61544.39
608.44	61537.36
608.60	61399.27
608.75	61495.24
608.91	61392.25
609.06	61429.70
609.22	61895.47
609.37	61499.92
609.53	61630.99
609.68	61535.02
609.84	61441.40
609.99	61549.07
610.15	61581.84
610.30	61619.28
610.46	61572.47
610.61	61600.56
610.76	61474.17
610.92	61495.24
611.07	61436.72
611.23	61347.78
611.38	61560.77
611.54	61371.19
611.69	61682.48
611.84	61654.39
612.00	61385.23
612.15	61282.25
612.31	61518.64
612.46	61425.02
612.62	61387.57
612.77	61504.60
612.92	61677.80
613.08	61436.72
613.23	61432.04
613.39	61382.89
613.54	61197.99
613.69	61450.77
613.85	61282.25
614.00	61429.70
614.15	61525.66
614.31	61392.25
614.46	61490.55
614.62	61247.14
614.77	61263.52
614.92	61413.32
615.08	61303.31
615.23	61123.09
615.38	61317.35
615.54	61172.24
615.69	61153.52
615.84	61464.81
616.00	61331.40
616.15	61336.08
616.30	61441.40
616.46	61059.90
616.61	61085.64
616.76	61371.19
616.92	61073.94
617.07	61092.66
617.22	61071.60
617.37	61174.58
617.53	61179.26
617.68	61291.61
617.83	61123.09
617.99	61226.07
618.14	61083.30
618.29	61167.56
618.45	61085.64
618.60	61146.50
618.75	60874.99
618.90	60973.30
619.06	60952.23
619.21	61214.37
619.36	61148.84
619.51	61172.24
619.67	60844.57
619.82	60832.86
619.97	61214.37
620.12	60860.95
620.28	60711.16
620.43	60912.44
620.58	60961.59
620.73	60858.61
620.89	61146.50
621.04	61001.38
621.19	60825.84
621.34	60914.78
621.49	60849.25
621.65	60968.61
621.80	61071.60
621.95	60647.96
622.10	60783.71
622.25	60711.16
622.41	60666.69
622.56	60767.33
622.71	60671.37
622.86	60640.94
623.01	60439.65
623.16	60722.86
623.32	60664.35
623.47	60767.33
623.62	60804.78
623.77	60512.21
623.92	60736.90
624.07	60860.95
624.23	60657.32
624.38	60647.96
624.53	60624.56
624.68	60374.12
624.83	60748.60
624.98	60736.90
625.13	60367.10
625.29	60427.95
625.44	60512.21
625.59	60580.09
625.74	60519.23
625.89	60413.91
626.04	60095.60
626.19	60392.84
626.34	60460.72
626.49	60374.12
626.65	60200.92
626.80	60348.37
626.95	60236.03
627.10	60114.32
627.25	60259.43
627.40	60350.71
627.55	60221.98
627.70	60158.79
627.85	60238.37
628.00	60083.89
628.15	60259.43
628.30	60076.87
628.45	60320.29
628.60	60079.21
628.76	60172.83
628.91	60245.39
629.06	60189.22
629.21	60289.86
629.36	60205.60
629.51	59959.84
629.66	60083.89
629.81	59852.18
629.96	59877.93
630.11	59877.93
630.26	59863.88
630.41	59978.57
630.56	59835.80
630.71	59812.39
630.86	60062.83
631.01	59763.24
631.16	60069.85
631.31	59824.09
631.46	59650.89
631.61	59880.27
631.76	60060.49
631.91	60154.11
632.06	59950.48
632.21	59913.03
632.36	59721.11
632.51	59662.60
632.66	59657.91
632.81	59522.16
632.96	59704.73
633.10	59634.51
633.25	59716.43
633.40	59737.49
633.55	59664.94
633.70	59643.87
633.85	59526.84
634.00	59576.00
634.15	59482.37
634.30	59557.27
634.45	59760.90
634.60	59955.16
634.75	59650.89
634.90	59463.65
635.05	59475.35
635.19	59889.63
635.34	59749.20
635.49	59737.49
635.64	59552.59
635.79	59407.48
635.94	59423.86
636.09	59384.07
636.24	59625.15
636.39	59559.61
636.53	59606.42
636.68	59370.03
636.83	59643.87
636.98	59620.47
637.13	59168.74
637.28	59498.76
637.43	59299.81
637.57	59419.18
637.72	59203.85
637.87	59372.37
638.02	59458.97
638.17	59444.93
638.32	59559.61
638.46	59236.62
638.61	59274.07
638.76	59044.69
638.91	59255.34
639.06	59126.61
639.20	59231.94
639.35	58927.67
639.50	58948.73
639.65	59217.89
639.80	59173.42
639.94	59203.85
640.09	59196.83
640.24	58955.75
640.39	59000.22
640.54	59121.93
640.68	59112.57
640.83	59065.76
640.98	58885.54
641.13	58937.03
641.27	59519.82
641.42	58913.62
641.57	58885.54
641.72	59030.65
641.86	58731.06
642.01	58623.40
642.16	58693.61
642.31	58475.94
642.45	59028.31
642.60	58614.04
642.75	58925.33
642.90	58930.01
643.04	58796.60
643.19	58618.72
643.34	58735.74
643.48	58787.24
643.63	58822.34
643.78	58632.76
643.93	58639.78
644.07	58829.37
644.22	58693.61
644.37	58314.45
644.51	58344.87
644.66	58485.31
644.81	58480.63
644.95	58569.57
645.10	58499.35
645.25	58649.14
645.39	58611.70
645.54	58562.54
645.69	58450.20
645.83	58459.56
645.98	58515.73
646.13	58475.94
646.27	58571.91
646.42	58433.81
646.57	58356.58
646.71	58576.59
646.86	58618.72
647.00	58300.40
647.15	58206.78
647.30	58281.68
647.44	58176.36
647.59	58438.50
647.74	58478.28
647.88	58382.32
648.03	58340.19
648.17	58258.27
648.32	58078.05
648.47	58417.43
648.61	58295.72
648.76	58436.16
648.90	58307.43
649.05	58337.85
649.20	58274.66
649.34	58401.05
649.49	58148.27
649.63	58347.21
649.78	58300.40
649.92	58106.14
650.07	58340.19
650.21	58150.61
650.36	58094.44
650.51	58042.95
650.65	58237.21
650.80	58199.76
650.94	58056.99
651.09	57858.04
651.23	57654.42
651.38	57951.66
651.52	57733.99
651.67	57813.57
651.81	57790.17
651.96	57888.47
652.10	57790.17
652.25	57848.68
652.39	57645.05
652.54	57528.03
652.68	57521.01
652.83	57822.93
652.97	57928.26
653.12	57939.96
653.26	57860.38
653.41	57729.31
653.55	57521.01
653.70	57633.35
653.84	57696.55
653.99	57556.11
654.13	57523.35
654.27	57467.17
654.42	57612.29
654.56	57326.74
654.71	57350.15
654.85	57628.67
655.00	57631.01
655.14	57394.62
655.29	57322.06
655.43	57614.63
655.57	57310.36
655.72	57387.60
655.86	57450.79
656.01	57408.66
656.15	57272.91
656.30	57427.38
656.44	57605.26
656.58	57588.88
656.73	57560.79
656.87	57303.34
657.01	57490.58
657.16	57544.41
657.30	56882.04
657.45	57179.29
657.59	57050.56
657.73	56891.40
657.88	56989.70
658.02	56860.97
658.16	57216.74
658.31	57029.49
658.45	56994.39
658.60	57123.11
658.74	57038.86
658.88	57092.69
659.03	56891.40
659.17	56891.40
659.31	56853.95
659.46	56989.70
659.60	56821.19
659.74	56736.93
659.89	56505.21
660.03	56615.22
660.17	56985.02
660.32	56851.61
660.46	56898.42
660.60	56582.45
660.74	57024.81
660.89	56818.84
661.03	56505.21
661.17	56437.34
661.32	56214.99
661.46	56193.92
661.60	56264.14
661.74	56423.29
661.89	56123.71
662.03	56079.24
662.17	56217.33
662.31	56238.39
662.46	56254.78
662.60	56303.93
662.74	55987.95
662.88	56002.00
663.03	55756.24
663.17	56135.41
663.31	55709.43
663.45	56116.68
663.60	55746.88
663.74	55475.38
663.88	55681.34
664.02	55618.15
664.17	55475.38
664.31	55395.80
664.45	55536.23
664.59	55475.38
664.73	55557.30
664.88	55629.85
665.02	55033.02
665.16	55334.95
665.30	55243.66
665.44	55449.63
665.59	55105.57
665.73	55213.24
665.87	55128.98
666.01	55246.00
666.15	54990.89
666.29	55208.56
666.44	55262.39
666.58	54953.44
666.72	54588.31
666.86	54731.09
667.00	54768.54
667.14	54710.02
667.28	54801.30
667.43	54506.40
667.57	54770.88
667.71	54625.76
667.85	54593.00
667.99	54314.47
668.13	54520.44
668.27	54122.55
668.41	54424.48
668.56	54031.27
668.70	54246.60
668.84	54012.54
668.98	53993.82
669.12	53961.05
669.26	54101.48
669.40	54244.26
669.54	54192.76
669.68	54115.53
669.82	53755.08
669.96	54092.12
670.10	54138.93
670.25	54042.97
670.39	53991.48
670.53	53593.59
670.67	53516.35
670.81	53708.27
670.95	53460.18
671.09	53523.37
671.23	53396.98
671.37	53357.19
671.51	53298.68
671.65	53483.58
671.79	53134.84
671.93	53343.15
672.07	53230.80
672.21	52978.03
672.35	52814.19
672.49	52776.74
672.63	52725.25
672.77	52844.62
672.91	52743.97
673.05	52346.08
673.19	52549.71
673.33	52133.09
673.47	52477.15
673.61	52547.37
673.75	52058.20
673.89	51899.04
674.03	52179.90
674.17	51641.58
674.31	51636.90
674.45	51201.56
674.59	51821.80
674.73	51576.04
674.87	51522.21
675.01	51295.18
675.15	51381.78
675.29	51356.03
675.43	51171.13
675.56	51103.26
675.70	51063.47
675.84	51150.07
675.98	49801.92
676.12	50696.00
676.26	50740.47
676.40	50110.87
676.54	50688.98
676.68	50403.44
676.82	50085.12
676.96	50253.64
677.10	49848.73
677.23	49970.44
677.37	49942.35
677.51	49851.07
677.65	49298.70
677.79	48865.70
677.93	49027.20
678.07	49270.62
678.21	48889.11
678.34	48975.71
678.48	48952.30
678.62	48821.23
678.76	48596.54
678.90	48685.48
679.04	48296.95
679.18	48027.79
679.31	47662.67
679.45	47751.61
679.59	47494.15
679.73	48011.41
679.87	47491.81
680.00	47274.14
680.14	46738.16
680.28	47311.59
680.42	46679.64
680.56	46712.41
680.70	46588.36
680.83	46794.33
680.97	46667.94
681.11	46749.86
681.25	46660.92
681.39	46309.84
681.52	46059.40
681.66	45769.18
681.80	45464.91
681.94	45661.51
682.07	45549.17
682.21	45228.51
682.35	45043.61
682.49	45078.72
682.62	45205.11
682.76	45191.06
682.90	45221.49
683.04	44509.97
683.17	44430.39
683.31	43983.35
683.45	44243.15
683.59	44165.91
683.72	43913.13
683.86	43716.53
684.00	43749.29
684.13	43871.00
684.27	43566.73
684.41	43985.69
684.55	43768.02
684.68	43143.09
684.82	43330.34
684.96	42602.43
685.09	42518.17
685.23	42220.92
685.37	41853.46
685.50	42672.65
685.64	42403.49
685.78	41949.42
685.91	41947.08
686.05	41411.10
686.19	40755.75
686.32	41656.85
686.46	41045.97
686.60	40809.58
686.73	40832.99
686.87	40835.33
687.01	40914.90
687.14	40528.72
687.28	40016.14
687.42	40161.25
687.55	40123.80
687.69	40130.83
687.82	39721.23
687.96	39339.72
688.10	39447.39
688.23	39711.87
688.37	39349.09
688.50	38866.94
688.64	38698.42
688.78	38628.20
688.91	38337.98
689.05	38873.96
689.18	38579.05
689.32	37331.54
689.46	37383.04
689.59	37406.44
689.73	37474.32
689.86	36872.80
690.00	37455.59
690.13	37338.57
690.27	37287.07
690.41	37581.98
690.54	37055.36
690.68	36566.19
690.81	37146.64
690.95	36215.11
691.08	36114.47
691.22	35871.05
691.35	35931.90
691.49	35590.19
691.62	35784.45
691.76	35519.97
691.89	35468.48
692.03	35566.78
692.16	35030.80
692.30	35147.82
692.43	34962.92
692.57	34373.11
692.70	34656.31
692.84	34553.33
692.97	34073.52
693.11	34356.72
693.24	34347.36
693.38	33893.30
693.51	33701.37
693.65	33591.37
693.78	33738.82
693.92	33216.88
694.05	33020.28
694.19	32910.27
694.32	33130.28
694.45	32980.49
694.59	32809.63
694.72	32334.50
694.86	31807.88
694.99	31931.93
695.13	32231.52
695.26	31391.26
695.39	31182.96
695.53	31630.00
695.66	31557.44
695.80	31604.25
695.93	30752.30
696.07	30480.80
696.20	30831.88
696.33	30485.48
696.47	30824.86
696.60	30345.05
696.73	30237.38
696.87	30110.99
697.00	30099.29
697.14	30178.87
697.27	29708.42
697.40	29617.14
697.54	29352.66
697.67	29380.74
697.80	29195.84
697.94	29039.03
698.07	29151.37
698.21	28837.74
698.34	28936.04
698.47	28416.44
698.61	28737.10
698.74	28336.87
698.87	28491.34
699.01	28020.89
699.14	27899.19
699.27	28109.83
699.40	28177.71
699.54	27868.76
699.67	27489.59
699.80	27225.11
699.94	27309.37
700.07	27101.06
700.20	27012.12
700.34	26801.47
700.47	26340.39
700.60	26242.09
700.73	26426.99
700.87	25867.60
701.00	26005.69
701.13	25544.61
701.26	25930.80
701.40	26024.42
701.53	25612.48
701.66	25727.17
701.79	25516.52
701.93	24830.74
702.06	24664.57
702.19	25146.72
702.32	24952.45
702.46	24765.21
702.59	24222.20
702.72	24617.75
702.85	24568.60
702.99	24327.53
703.12	24100.50
703.25	23817.29
703.38	23695.58
703.51	23482.59
703.65	23271.95
703.78	23475.57
703.91	23080.02
704.04	23414.72
704.17	23082.36
704.31	23075.34
704.44	22850.65
704.57	22951.29
704.70	22427.01
704.83	22593.19
704.96	22565.10
705.10	22256.15
705.23	21935.50
>>>>>End Processed Spectral Data<<<<<
