SpectraSuite Data File
++++++++++++++++++++++++++++++++++++
Date: Fri Oct 25 11:23:30 EDT 2013
User: price-jones
Dark Spectrum Present: No
Reference Spectrum Present: No
Number of Sampled Component Spectra: 1
Spectrometers: USB2+H05261
Integration Time (usec): 100000 (USB2+H05261)
Spectra Averaged: 1 (USB2+H05261)
Boxcar Smoothing: 0 (USB2+H05261)
Correct for Electrical Dark: No (USB2+H05261)
Strobe/Lamp Enabled: No (USB2+H05261)
Correct for Detector Non-linearity: No (USB2+H05261)
Correct for Stray Light: No (USB2+H05261)
Number of Pixels in Processed Spectrum: 2048
>>>>>Begin Processed Spectral Data<<<<<
365.73	231.71
365.92	231.71
366.12	231.71
366.32	147.45
366.52	42.13
366.72	105.32
366.91	124.05
367.11	51.49
367.31	117.03
367.51	149.79
367.70	142.77
367.90	163.84
368.10	166.18
368.30	72.56
368.49	67.88
368.69	159.16
368.89	142.77
369.09	117.03
369.28	248.10
369.48	145.11
369.68	145.11
369.87	250.44
370.07	208.31
370.27	229.37
370.47	327.68
370.66	514.92
370.86	627.26
371.06	564.07
371.25	629.60
371.45	587.47
371.65	755.99
371.84	634.29
372.04	688.12
372.24	561.73
372.44	638.97
372.63	732.59
372.83	791.10
373.03	802.80
373.22	777.06
373.42	734.93
373.62	734.93
373.81	763.01
374.01	856.64
374.21	751.31
374.40	898.77
374.60	863.66
374.79	770.04
374.99	856.64
375.19	819.19
375.38	882.38
375.58	800.46
375.78	851.96
375.97	816.85
376.17	926.85
376.37	814.51
376.56	894.08
376.76	938.55
376.95	802.80
377.15	861.32
377.35	868.34
377.54	950.26
377.74	922.17
377.93	877.70
378.13	873.02
378.33	908.13
378.52	868.34
378.72	968.98
378.91	875.36
379.11	922.17
379.31	882.38
379.50	1083.67
379.70	910.47
379.89	931.53
380.09	940.90
380.28	922.17
380.48	978.34
380.68	931.53
380.87	924.51
381.07	1062.60
381.26	1036.86
381.46	957.28
381.65	940.90
381.85	1076.65
382.04	1034.52
382.24	1053.24
382.43	1090.69
382.63	973.66
382.83	940.90
383.02	1074.31
383.22	1034.52
383.41	1109.41
383.61	1097.71
383.80	1177.29
384.00	1034.52
384.19	1064.94
384.39	1128.14
384.58	1071.97
384.78	1193.67
384.97	1221.76
385.17	1228.78
385.36	1071.97
385.56	1172.61
385.75	1203.04
385.95	1135.16
386.14	1153.88
386.34	1196.01
386.53	1228.78
386.72	1191.33
386.92	1294.32
387.11	1315.38
387.31	1231.12
387.50	1151.54
387.70	1245.16
387.89	1263.89
388.09	1273.25
388.28	1247.51
388.48	1238.14
388.67	1336.45
388.86	1338.79
389.06	1348.15
389.25	1387.94
389.45	1315.38
389.64	1331.76
389.84	1432.41
390.03	1324.74
390.22	1394.96
390.42	1416.02
390.61	1348.15
390.81	1439.43
391.00	1568.16
391.19	1460.49
391.39	1432.41
391.58	1462.83
391.78	1430.07
391.97	1533.05
392.16	1451.13
392.36	1533.05
392.55	1533.05
392.75	1607.95
392.94	1437.09
393.13	1502.62
393.33	1430.07
393.52	1614.97
393.71	1579.86
393.91	1584.54
394.10	1610.29
394.29	1729.66
394.49	1614.97
394.68	1678.16
394.88	1750.72
395.07	1624.33
395.26	1760.08
395.46	1638.38
395.65	1809.23
395.84	1703.91
396.04	1750.72
396.23	1902.86
396.42	1680.50
396.62	1760.08
396.81	1757.74
397.00	1685.19
397.19	1813.92
397.39	1839.66
397.58	1825.62
397.77	1818.60
397.97	1825.62
398.16	1748.38
398.35	1959.03
398.55	1923.92
398.74	1937.96
398.93	1881.79
399.12	1900.52
399.32	1804.55
399.51	1905.20
399.70	2050.31
399.90	1907.54
400.09	2012.86
400.28	1998.82
400.47	2101.80
400.67	2094.78
400.86	2146.27
401.05	2069.03
401.24	2012.86
401.44	2157.97
401.63	2148.61
401.82	2120.53
402.01	2132.23
402.21	2054.99
402.40	2200.10
402.59	2139.25
402.78	2244.57
402.97	2150.95
403.17	2282.02
403.36	2230.53
403.55	2214.15
403.74	2352.24
403.93	2319.47
404.13	2286.70
404.32	2399.05
404.51	2265.64
404.70	2403.73
404.89	2385.01
405.09	2502.03
405.28	2490.33
405.47	2523.10
405.66	2480.97
405.85	2438.84
406.05	2443.52
406.24	2609.70
406.43	2541.82
406.62	2602.68
406.81	2605.02
407.00	2602.68
407.20	2588.63
407.39	2628.42
407.58	2670.55
407.77	2705.66
407.96	2864.82
408.15	2712.68
408.34	2799.28
408.54	2799.28
408.73	2766.51
408.92	2775.88
409.11	2991.20
409.30	2925.67
409.49	2885.88
409.68	2942.05
409.87	3002.91
410.07	3033.33
410.26	2972.48
410.45	3145.68
410.64	3000.57
410.83	3108.23
411.02	3211.22
411.21	3089.51
411.40	3108.23
411.59	3138.66
411.78	3045.04
411.98	3258.03
412.17	3297.81
412.36	3260.37
412.55	3295.47
412.74	3466.33
412.93	3379.73
413.12	3384.41
413.31	3559.95
413.50	3522.51
413.69	3433.57
413.88	3669.96
414.07	3618.47
414.26	3604.42
414.45	3829.12
414.64	3506.12
414.83	3768.26
415.02	3719.11
415.22	3681.66
415.41	3906.35
415.60	3805.71
415.79	3854.86
415.98	3946.14
416.17	3911.04
416.36	4028.06
416.55	3983.59
416.74	4198.92
416.93	3981.25
417.12	4292.54
417.31	4236.37
417.50	4117.00
417.69	4280.84
417.88	4308.93
418.07	4294.88
418.26	4287.86
418.45	4358.08
418.64	4386.16
418.83	4512.55
419.02	4344.03
419.21	4498.51
419.39	4353.40
419.58	4444.68
419.77	4557.02
419.96	4437.66
420.15	4606.17
420.34	4444.68
420.53	4606.17
420.72	4638.94
420.91	4753.63
421.10	4793.42
421.29	4774.69
421.48	4812.14
421.67	4821.50
421.86	4695.11
422.05	4842.57
422.24	4828.53
422.43	4980.66
422.61	4938.53
422.80	4947.89
422.99	4901.08
423.18	4873.00
423.37	5013.43
423.56	5085.98
423.75	4968.96
423.94	4833.21
424.13	4662.35
424.32	4746.61
424.50	4875.34
424.69	5174.92
424.88	5043.85
425.07	5036.83
425.26	4858.95
425.45	4945.55
425.64	4971.30
425.83	4908.10
426.01	5060.24
426.20	5172.58
426.39	5071.94
426.58	5036.83
426.77	5067.26
426.96	5057.90
427.15	5076.62
427.33	5095.35
427.52	5027.47
427.71	5245.14
427.90	5252.16
428.09	5357.49
428.28	5348.12
428.46	5373.87
428.65	5378.55
428.84	5563.45
429.03	5551.75
429.22	5256.84
429.40	5121.09
429.59	5600.90
429.78	5392.59
429.97	5270.89
430.16	5490.90
430.34	5610.26
430.53	5554.09
430.72	5685.16
430.91	5575.16
431.10	5708.57
431.28	5783.46
431.47	5877.09
431.66	5982.41
431.85	5788.14
432.03	6001.13
432.22	6033.90
432.41	5954.32
432.60	5914.53
432.79	6204.76
432.97	6160.29
433.16	6113.48
433.35	6024.54
433.54	6010.50
433.72	6057.31
433.91	6267.95
434.10	6204.76
434.28	6038.58
434.47	6216.46
434.66	6335.83
434.85	6265.61
435.03	6286.68
435.22	6347.53
435.41	6724.36
435.59	6466.90
435.78	6469.24
435.97	6459.88
436.16	6427.11
436.34	6368.60
436.53	6494.99
436.72	6724.36
436.90	6424.77
437.09	6722.02
437.28	6509.03
437.46	6607.33
437.65	6649.46
437.84	6827.34
438.02	6658.82
438.21	6700.95
438.40	6820.32
438.58	6958.41
438.77	7152.68
438.96	6951.39
439.14	7037.99
439.33	7222.89
439.52	7112.89
439.70	7290.77
439.89	7419.50
440.08	7442.90
440.26	7501.42
440.45	7438.22
440.63	7618.44
440.82	7552.91
441.01	7389.07
441.19	7716.75
441.38	7667.60
441.57	7730.79
441.75	7843.14
441.94	8025.70
442.12	7992.93
442.31	8018.68
442.50	8037.40
442.68	7887.61
442.87	7829.09
443.05	8072.51
443.24	8201.24
443.43	8234.00
443.61	8332.31
443.80	8554.66
443.98	7953.14
444.17	7791.64
444.35	8224.64
444.54	8358.05
444.73	8446.99
444.91	8226.98
445.10	8280.82
445.28	8432.95
445.47	8388.48
445.65	8423.59
445.84	8528.91
446.02	8388.48
446.21	8231.66
446.39	8594.45
446.58	8372.10
446.77	8603.81
446.95	8142.72
447.14	8482.10
447.32	8463.38
447.51	8376.78
447.69	8470.40
447.88	8571.04
448.06	8521.89
448.25	8540.61
448.43	8528.91
448.62	8521.89
448.80	8465.72
448.99	8734.88
449.17	8800.41
449.36	8861.27
449.54	8828.50
449.73	9069.58
449.91	9104.68
450.10	8968.93
450.28	9062.55
450.46	8982.98
450.65	9202.99
450.83	9202.99
451.02	9029.79
451.20	9305.97
451.39	9275.54
451.57	9132.77
451.76	8964.25
451.94	9195.96
452.13	9446.40
452.31	9254.48
452.49	9336.40
452.68	9376.19
452.86	9327.03
453.05	9320.01
453.23	9394.91
453.42	9383.21
453.60	9439.38
453.78	9525.98
453.97	9647.69
454.15	9661.73
454.34	9303.63
454.52	9729.61
454.70	9671.09
454.89	9738.97
455.07	9827.91
455.26	9827.91
455.44	10076.01
455.62	9809.19
455.81	9937.91
455.99	10059.62
456.17	10094.73
456.36	10038.56
456.54	10141.54
456.73	10136.86
456.91	10452.83
457.09	10413.04
457.28	10452.83
457.46	10370.91
457.64	10745.40
457.83	10511.35
458.01	10574.54
458.19	10665.82
458.38	10235.16
458.56	10546.45
458.74	10693.91
458.93	10656.46
459.11	10703.27
459.29	10738.38
459.48	10834.34
459.66	10890.51
459.84	10951.37
460.03	10916.26
460.21	10869.45
460.39	11087.12
460.57	11082.44
460.76	11066.05
460.94	11187.76
461.12	11236.91
461.31	11330.53
461.49	11227.55
461.67	11105.84
461.85	11592.67
462.04	11456.92
462.22	11733.11
462.40	11618.42
462.59	11417.13
462.77	11470.97
462.95	11674.59
463.13	11662.89
463.32	11646.51
463.50	11859.49
463.68	11733.11
463.86	11894.60
464.05	11651.19
464.23	11779.92
464.41	11815.02
464.59	11894.60
464.78	12313.56
464.96	12152.06
465.14	11873.54
465.32	12278.45
465.50	12095.89
465.69	12006.95
465.87	12079.50
466.05	12084.19
466.23	12079.50
466.41	12102.91
466.60	12599.10
466.78	12339.30
466.96	12367.39
467.14	12161.42
467.32	12329.94
467.51	12645.91
467.69	12028.01
467.87	12519.53
468.05	12564.00
468.23	12514.84
468.41	12648.26
468.60	12578.04
468.78	12645.91
468.96	12531.23
469.14	12709.11
469.32	12978.27
469.50	12762.94
469.69	12999.34
469.87	13130.41
470.05	13256.79
470.23	13064.87
470.41	13074.23
470.59	13420.63
470.77	13184.24
470.95	13357.44
471.14	13731.92
471.32	13282.54
471.50	13528.30
471.68	13589.15
471.86	13631.28
472.04	13551.70
472.22	13916.83
472.40	13687.45
472.58	13935.55
472.77	14045.55
472.95	14146.20
473.13	14663.46
473.31	13968.32
473.49	14347.48
473.67	14361.53
473.85	14459.83
474.03	14595.58
474.21	14888.15
474.39	14768.78
474.57	14604.94
474.75	14782.82
474.93	14981.77
475.12	14871.76
475.30	14991.13
475.48	14761.76
475.66	15442.85
475.84	14911.55
476.02	15367.96
476.20	15176.03
476.38	15573.92
476.56	16011.60
476.74	15864.15
476.92	15971.82
477.10	15885.22
477.28	16173.10
477.46	16301.83
477.64	16500.78
477.82	16697.38
478.00	16999.31
478.18	16943.14
478.36	17158.47
478.54	17399.54
478.72	17355.07
478.90	17322.30
479.08	17750.62
479.26	17462.74
479.44	17806.80
479.62	17666.36
479.80	17972.97
479.98	18265.54
480.16	18583.85
480.34	17989.36
480.52	18710.24
480.70	18672.79
480.88	18401.29
481.06	18738.33
481.24	18750.03
481.41	19185.37
481.59	19087.07
481.77	19522.41
481.95	19480.28
482.13	19585.60
482.31	19754.12
482.49	20559.27
482.67	20030.30
482.85	20451.60
483.03	20538.20
483.21	20774.60
483.39	21130.36
483.57	21144.40
483.74	21125.68
483.92	21287.17
484.10	21502.50
484.28	21825.50
484.46	21930.82
484.64	22043.17
484.82	22169.55
485.00	22331.05
485.18	22457.44
485.35	22792.14
485.53	22862.35
485.71	22923.21
485.89	23555.15
486.07	23178.33
486.25	23281.31
486.43	23630.05
486.61	24070.07
486.78	24084.11
486.96	24009.22
487.14	24453.92
487.32	24706.70
487.50	24835.42
487.68	25085.86
487.85	25736.53
488.03	25483.75
488.21	26024.42
488.39	25663.97
488.57	26153.15
488.75	26256.13
488.92	26396.56
489.10	26932.54
489.28	26595.51
489.46	27585.55
489.64	26768.71
489.81	27578.53
489.99	27915.57
490.17	27887.48
490.35	28041.96
490.53	28350.91
490.70	28884.55
490.88	28402.40
491.06	29069.45
491.24	28765.18
491.41	29071.79
491.59	29406.49
491.77	29373.72
491.95	29830.13
492.13	30043.12
492.30	30101.63
492.48	29963.54
492.66	30092.27
492.84	29944.81
493.01	31072.95
493.19	30845.92
493.37	31124.44
493.54	31007.42
493.72	31435.74
493.90	31681.49
494.08	32034.91
494.25	32299.39
494.43	32140.24
494.61	32786.22
494.79	32601.32
494.96	32606.00
495.14	32821.33
495.32	33174.75
495.49	33191.14
495.67	33406.47
495.85	33816.06
496.02	33638.18
496.20	33949.47
496.38	34108.63
496.55	34281.83
496.73	35040.16
496.91	34707.80
497.09	34909.09
497.26	35084.63
497.44	35634.66
497.62	35407.62
497.79	35835.94
497.97	35524.65
498.14	35999.78
498.32	36250.22
498.50	36336.82
498.67	36584.91
498.85	36238.51
499.03	37130.26
499.20	36868.12
499.38	37233.24
499.56	36987.49
499.73	37046.00
499.91	37521.13
500.08	37544.53
500.26	37556.24
500.44	37930.72
500.61	37755.18
500.79	37804.33
500.97	38284.14
501.14	38583.73
501.32	38822.47
501.49	38974.60
501.67	38946.51
501.84	39213.34
502.02	38447.98
502.20	39491.86
502.37	39342.06
502.55	39447.39
502.72	39639.31
502.90	39615.91
503.07	39791.45
503.25	40055.93
503.43	39856.98
503.60	40346.15
503.78	39981.03
503.95	40313.39
504.13	40926.61
504.30	40601.27
504.48	40392.97
504.65	40678.51
504.83	41055.34
505.01	41368.97
505.18	41036.61
505.36	41816.01
505.53	41677.92
505.71	41727.07
505.88	41720.05
506.06	41837.08
506.23	42085.17
506.41	42073.47
506.58	42359.02
506.76	42366.04
506.93	42604.77
507.11	42029.00
507.28	42866.91
507.46	42462.00
507.63	43054.15
507.81	43269.48
507.98	43103.31
508.16	43438.00
508.33	43337.36
508.50	43592.48
508.68	43372.47
508.85	44027.82
509.03	43686.10
509.20	44240.81
509.38	44418.69
509.55	44327.41
509.73	44774.45
509.90	44919.56
510.08	44711.25
510.25	45031.91
510.42	44477.20
510.60	44987.44
510.77	45301.07
510.95	45289.37
511.12	45481.29
511.30	45198.09
511.47	45954.08
511.64	45652.15
511.82	45773.86
511.99	45485.97
512.17	46024.29
512.34	46094.51
512.51	46478.36
512.69	46342.61
512.86	46520.49
513.04	46742.84
513.21	46415.16
513.38	46660.92
513.56	46747.52
513.73	46817.74
513.90	46775.61
514.08	46944.12
514.25	47636.92
514.43	47639.26
514.60	47456.70
514.77	46923.06
514.95	47452.02
515.12	47435.64
515.29	47732.89
515.47	48226.74
515.64	48306.32
515.81	48229.08
515.99	48252.48
516.16	48193.97
516.33	48577.82
516.51	48854.00
516.68	48500.58
516.85	48547.39
517.03	49085.72
517.20	48875.07
517.37	48563.78
517.54	48753.36
517.72	49097.42
517.89	49158.27
518.06	49415.73
518.24	49294.02
518.41	49516.37
518.58	49296.36
518.75	49298.70
518.93	49181.68
519.10	49298.70
519.27	49696.59
519.45	49514.03
519.62	50232.58
519.79	49736.38
519.96	50349.60
520.14	50227.90
520.31	50164.70
520.48	50183.43
520.65	50576.64
520.83	50192.79
521.00	50653.87
521.17	50660.90
521.34	50979.21
521.52	50901.97
521.69	51133.68
521.86	51002.61
522.03	50808.35
522.20	51363.06
522.38	51529.23
522.55	51416.89
522.72	51718.82
522.89	51353.69
523.07	51683.71
523.24	51538.60
523.41	51662.64
523.58	51297.52
523.75	52112.03
523.92	51760.95
524.10	52037.13
524.27	52093.30
524.44	52196.29
524.61	52023.09
524.78	52296.93
524.96	51941.17
525.13	52406.94
525.30	52392.89
525.47	52652.69
525.64	52446.72
525.81	52662.05
525.98	53024.84
526.16	52561.41
526.33	52748.65
526.50	53312.72
526.67	52893.77
526.84	52875.04
527.01	52942.92
527.18	52697.16
527.36	52933.56
527.53	52963.98
527.70	53656.78
527.87	53546.78
528.04	53209.74
528.21	53724.66
528.38	53118.46
528.55	53492.94
528.72	53357.19
528.89	53626.35
529.07	53469.54
529.24	53443.79
529.41	53996.16
529.58	53701.25
529.75	53598.27
529.92	53794.87
530.09	53902.54
530.26	53827.64
530.43	54195.10
530.60	53701.25
530.77	53619.33
530.94	54049.99
531.11	54024.25
531.28	54372.99
531.46	54298.09
531.63	54480.65
531.80	54394.05
531.97	54564.91
532.14	54513.42
532.31	54419.80
532.48	54862.16
532.65	54759.17
532.82	54649.17
532.99	54703.00
533.16	54583.63
533.33	54698.32
533.50	55037.70
533.67	54878.54
533.84	54459.58
534.01	54848.11
534.18	54955.78
534.35	55168.77
534.52	55107.91
534.69	55386.44
534.86	55398.14
535.03	55014.29
535.20	55260.05
535.37	55250.69
535.54	55688.37
535.71	55192.17
535.88	55716.45
536.05	55552.62
536.22	55529.21
536.38	55674.32
536.55	55683.69
536.72	55709.43
536.89	55533.89
537.06	55655.60
537.23	55662.62
537.40	55594.74
537.57	55784.33
537.74	55671.98
537.91	56041.79
538.08	55852.20
538.25	55561.98
538.42	55826.46
538.59	56353.08
538.75	55952.85
538.92	56123.71
539.09	56346.06
539.26	56184.56
539.43	56254.78
539.60	56353.08
539.77	56252.44
539.94	56563.73
540.11	56399.89
540.28	56514.58
540.44	56371.80
540.61	56481.81
540.78	56306.27
540.95	56465.42
541.12	56573.09
541.29	56409.25
541.46	56575.43
541.62	56437.34
541.79	56868.00
541.96	56257.12
542.13	56449.04
542.30	56851.61
542.47	56800.12
542.63	56900.76
542.80	57006.09
542.97	57050.56
543.14	57268.23
543.31	57134.82
543.48	57279.93
543.64	57460.15
543.81	57162.90
543.98	57488.24
544.15	57415.68
544.32	57563.14
544.48	57574.84
544.65	57439.09
544.82	57336.10
544.99	57331.42
545.16	57701.23
545.32	57408.66
545.49	57921.24
545.66	57916.56
545.83	57654.42
546.00	57661.44
546.16	57368.87
546.33	57570.16
546.50	57626.33
546.67	57822.93
546.83	57588.88
547.00	57806.55
547.17	57846.34
547.34	57827.62
547.50	57989.11
547.67	58024.22
547.84	58028.90
548.00	57998.48
548.17	58321.47
548.34	58300.40
548.51	58241.89
548.67	58277.00
548.84	58300.40
549.01	58010.18
549.18	58206.78
549.34	58155.29
549.51	58333.17
549.68	58377.64
549.84	58543.82
550.01	58541.48
550.18	58309.77
550.34	58485.31
550.51	58618.72
550.68	58604.67
550.84	58368.28
551.01	58749.79
551.18	58590.63
551.34	58583.61
551.51	58501.69
551.68	58529.78
551.84	58520.41
552.01	58511.05
552.18	58962.78
552.34	58394.03
552.51	58883.20
552.68	58637.44
552.84	58754.47
553.01	59014.27
553.18	58735.74
553.34	58976.82
553.51	58628.08
553.67	59028.31
553.84	58965.12
554.01	58754.47
554.17	58995.54
554.34	59114.91
554.51	59004.91
554.67	59185.13
554.84	58939.37
555.00	59002.56
555.17	58869.15
555.33	59278.75
555.50	59171.08
555.67	58930.01
555.83	59058.74
556.00	59126.61
556.16	59339.60
556.33	59370.03
556.50	59299.81
556.66	59414.50
556.83	59114.91
556.99	59250.66
557.16	59559.61
557.32	59540.89
557.49	59597.06
557.65	59297.47
557.82	59381.73
557.98	59344.28
558.15	59547.91
558.32	59601.74
558.48	59391.09
558.65	59590.04
558.81	59580.68
558.98	59566.63
559.14	59664.94
559.31	59599.40
559.47	59826.43
559.64	59796.01
559.80	59681.32
559.97	59721.11
560.13	59742.17
560.30	59810.05
560.46	59763.24
560.63	60060.49
560.79	59845.16
560.96	59945.80
561.12	59746.86
561.29	60123.68
561.45	59840.48
561.61	59763.24
561.78	59831.11
561.94	59875.58
562.11	60060.49
562.27	59629.83
562.44	60142.41
562.60	59945.80
562.77	60083.89
562.93	59803.03
563.10	60037.08
563.26	59891.97
563.42	60243.05
563.59	60086.23
563.75	59882.61
563.92	60151.77
564.08	60154.11
564.24	60196.24
564.41	60294.54
564.57	60346.03
564.74	60292.20
564.90	60303.90
565.07	60121.34
565.23	60142.41
565.39	60137.72
565.56	60303.90
565.72	60053.47
565.88	60273.48
566.05	60226.66
566.21	60441.99
566.38	60210.28
566.54	60224.32
566.70	60200.92
566.87	60404.55
567.03	60191.56
567.19	60505.19
567.36	60413.91
567.52	60217.30
567.68	60743.92
567.85	60418.59
568.01	60540.30
568.17	60493.49
568.34	60474.76
568.50	60346.03
568.66	60376.46
568.83	60339.01
568.99	60289.86
569.15	60395.18
569.32	60367.10
569.48	60547.32
569.64	60437.31
569.81	60355.39
569.97	60430.29
570.13	60523.91
570.30	60355.39
570.46	60676.05
570.62	60610.51
570.78	60500.51
570.95	60617.53
571.11	60638.60
571.27	60523.91
571.43	60530.93
571.60	60739.24
571.76	60523.91
571.92	60575.40
572.09	60762.65
572.25	60617.53
572.41	60601.15
572.57	60865.63
572.74	60654.98
572.90	60666.69
573.06	60741.58
573.22	60673.71
573.38	60931.17
573.55	60645.62
573.71	60889.04
573.87	60776.69
574.03	60687.75
574.20	60645.62
574.36	60750.94
574.52	60666.69
574.68	60900.74
574.84	60830.52
575.01	60870.31
575.17	60624.56
575.33	60842.23
575.49	60755.63
575.65	60952.23
575.82	60933.51
575.98	60853.93
576.14	60877.33
576.30	60701.79
576.46	60725.20
576.62	60933.51
576.79	60776.69
576.95	60772.01
577.11	60832.86
577.27	60926.49
577.43	60977.98
577.59	60746.26
577.75	60797.76
577.92	60706.47
578.08	60849.25
578.24	60954.57
578.40	60959.25
578.56	61038.83
578.72	60856.27
578.88	61078.62
579.04	61228.41
579.21	60949.89
579.37	60970.96
579.53	61008.40
579.69	60779.03
579.85	60884.36
580.01	60952.23
580.17	60750.94
580.33	60919.46
580.49	61118.41
580.65	61029.47
580.82	60961.59
580.98	60814.14
581.14	60917.12
581.30	61066.92
581.46	60947.55
581.62	61038.83
581.78	61116.07
581.94	61001.38
582.10	61003.72
582.26	61057.56
582.42	60896.06
582.58	61029.47
582.74	60966.27
582.90	61055.21
583.06	60963.93
583.22	60959.25
583.38	61001.38
583.54	60952.23
583.70	61097.34
583.86	60947.55
584.02	60811.80
584.18	60980.32
584.34	61066.92
584.50	61020.11
584.66	60811.80
584.82	60963.93
584.98	61254.16
585.14	61272.88
585.30	60701.79
585.46	60863.29
585.62	61160.54
585.78	61223.73
585.94	61174.58
586.10	61151.18
586.26	60977.98
586.42	61167.56
586.58	61064.58
586.74	60959.25
586.90	61062.24
587.06	61078.62
587.22	61148.84
587.38	60956.91
587.54	61270.54
587.70	61242.46
587.86	61048.19
588.02	61233.10
588.18	61219.05
588.34	61200.33
588.49	60947.55
588.65	60973.30
588.81	61357.14
588.97	61237.78
589.13	61141.81
589.29	61263.52
589.45	61518.64
589.61	61258.84
589.77	61371.19
589.93	61307.99
590.08	61539.71
590.24	61270.54
590.40	61567.79
590.56	61577.15
590.72	61361.82
590.88	61340.76
591.04	61544.39
591.20	61418.00
591.35	61663.75
591.51	61602.90
591.67	61537.36
591.83	61368.85
591.99	61460.13
592.15	61352.46
592.31	61385.23
592.46	61506.94
592.62	61380.55
592.78	61478.85
592.94	61586.52
593.10	61418.00
593.26	61464.81
593.41	61432.04
593.57	61441.40
593.73	61436.72
593.89	61825.25
594.05	61764.40
594.20	61366.51
594.36	61712.91
594.52	61551.41
594.68	61556.09
594.84	61406.30
594.99	61740.99
595.15	61666.09
595.31	61535.02
595.47	61537.36
595.62	61467.15
595.78	61460.13
595.94	61420.34
596.10	61839.29
596.25	61673.12
596.41	61722.27
596.57	61712.91
596.73	61778.44
596.88	61448.42
597.04	61771.42
597.20	61790.14
597.36	61738.65
597.51	61822.91
597.67	61528.00
597.83	61815.89
597.99	61516.30
598.14	61595.88
598.30	61638.01
598.46	61677.80
598.61	61684.82
598.77	61808.87
598.93	61712.91
599.09	61694.18
599.24	62124.84
599.40	61755.03
599.56	61907.17
599.71	61794.82
599.87	62033.56
600.03	61890.79
600.18	61769.08
600.34	61698.86
600.50	61801.85
600.65	61787.80
600.81	61883.76
600.97	61771.42
601.12	61785.46
601.28	61818.23
601.44	61509.28
601.59	61757.38
601.75	61832.27
601.91	62080.37
602.06	61939.94
602.22	61939.94
602.37	61890.79
602.53	61785.46
602.69	61825.25
602.84	61790.14
603.00	61698.86
603.16	61869.72
603.31	61902.49
603.47	61862.70
603.62	61612.26
603.78	61790.14
603.94	61801.85
604.09	61860.36
604.25	62007.81
604.40	61925.89
604.56	61834.61
604.71	61897.81
604.87	61656.73
605.03	61961.00
605.18	61783.12
605.34	61846.32
605.49	61635.67
605.65	61783.12
605.80	61883.76
605.96	61867.38
606.12	61780.78
606.27	62045.26
606.43	61776.10
606.58	61883.76
606.74	61694.18
606.89	61626.31
607.05	61834.61
607.20	61951.64
607.36	61815.89
607.51	61602.90
607.67	61460.13
607.82	61581.84
607.98	61698.86
608.13	61687.16
608.29	61785.46
608.44	61595.88
608.60	61710.56
608.75	61766.74
608.91	61497.58
609.06	61476.51
609.22	61595.88
609.37	61605.24
609.53	61755.03
609.68	61710.56
609.84	61724.61
609.99	61855.68
610.15	61677.80
610.30	61804.19
610.46	61663.75
610.61	61616.94
610.76	61715.25
610.92	61638.01
611.07	61462.47
611.23	61528.00
611.38	61591.20
611.54	61439.06
611.69	61567.79
611.84	61567.79
612.00	61649.71
612.15	61371.19
612.31	61495.24
612.46	61460.13
612.62	61502.26
612.77	61602.90
612.92	61640.35
613.08	61441.40
613.23	61647.37
613.39	61497.58
613.54	61638.01
613.69	61446.08
613.85	61443.74
614.00	61425.02
614.15	61609.92
614.31	61343.10
614.46	61605.24
614.62	61506.94
614.77	61385.23
614.92	61518.64
615.08	61319.70
615.23	61263.52
615.38	61396.93
615.54	61181.60
615.69	61329.06
615.84	61338.42
616.00	61492.89
616.15	61387.57
616.30	61403.95
616.46	61237.78
616.61	61485.87
616.76	61478.85
616.92	61235.44
617.07	61305.65
617.22	61155.86
617.37	61406.30
617.53	61530.34
617.68	61230.75
617.83	61228.41
617.99	61336.08
618.14	61359.48
618.29	61233.10
618.45	61256.50
618.60	61078.62
618.75	61322.04
618.90	60959.25
619.06	61205.01
619.21	61188.63
619.36	61296.29
619.51	61361.82
619.67	61141.81
619.82	60926.49
619.97	61263.52
620.12	61015.43
620.28	61141.81
620.43	61066.92
620.58	61080.96
620.73	60886.70
620.89	60884.36
621.04	61300.97
621.19	60989.68
621.34	61172.24
621.49	61020.11
621.65	60973.30
621.80	61230.75
621.95	60832.86
622.10	61087.98
622.25	60942.87
622.41	60814.14
622.56	60907.76
622.71	61043.51
622.86	60837.54
623.01	60727.54
623.16	60879.67
623.32	60755.63
623.47	60961.59
623.62	61006.06
623.77	60935.85
623.92	60772.01
624.07	61073.94
624.23	60999.04
624.38	60753.29
624.53	60584.77
624.68	60573.06
624.83	60790.73
624.98	60790.73
625.13	60685.41
625.29	60851.59
625.44	60694.77
625.59	60757.97
625.74	60701.79
625.89	60568.38
626.04	60151.77
626.19	60512.21
626.34	60664.35
626.49	60357.74
626.65	60306.24
626.80	60526.25
626.95	60343.69
627.10	60343.69
627.25	60254.75
627.40	60488.80
627.55	60636.26
627.70	60406.89
627.85	60275.82
628.00	60500.51
628.15	60479.44
628.30	60322.63
628.45	60348.37
628.60	60369.44
628.76	60385.82
628.91	60638.60
629.06	60301.56
629.21	60236.03
629.36	60289.86
629.51	60313.26
629.66	60175.17
629.81	60289.86
629.96	59992.61
630.11	59957.50
630.26	60130.70
630.41	60184.54
630.56	60203.26
630.71	60020.70
630.86	60243.05
631.01	60135.38
631.16	60046.44
631.31	59894.31
631.46	59887.29
631.61	60299.22
631.76	60065.17
631.91	60051.12
632.06	60126.02
632.21	60226.66
632.36	60013.68
632.51	59721.11
632.66	59859.20
632.81	59767.92
632.96	60100.28
633.10	59732.81
633.25	59861.54
633.40	60156.45
633.55	60123.68
633.70	59898.99
633.85	59660.26
634.00	59777.28
634.15	59767.92
634.30	59718.77
634.45	59709.41
634.60	59845.16
634.75	59824.09
634.90	59760.90
635.05	59828.77
635.19	59676.64
635.34	59767.92
635.49	59547.91
635.64	59774.94
635.79	59709.41
635.94	59671.96
636.09	59592.38
636.24	59538.55
636.39	59437.90
636.53	59655.57
636.68	59723.45
636.83	59480.03
636.98	59791.33
637.13	59346.62
637.28	59416.84
637.43	59533.87
637.57	59449.61
637.72	59440.24
637.87	59498.76
638.02	59517.48
638.17	59655.57
638.32	59498.76
638.46	59166.40
638.61	59355.99
638.76	59154.70
638.91	59468.33
639.06	59550.25
639.20	58974.48
639.35	59161.72
639.50	59241.30
639.65	59161.72
639.80	59203.85
639.94	59278.75
640.09	59302.15
640.24	59381.73
640.39	59164.06
640.54	59171.08
640.68	59173.42
640.83	59189.81
640.98	59234.28
641.13	59089.16
641.27	59365.35
641.42	59014.27
641.57	59093.85
641.72	59110.23
641.86	59157.04
642.01	58798.94
642.16	59110.23
642.31	58925.33
642.45	59203.85
642.60	58815.32
642.75	59173.42
642.90	58922.99
643.04	59096.19
643.19	58953.41
643.34	58869.15
643.48	58983.84
643.63	58808.30
643.78	58845.75
643.93	58983.84
644.07	58805.96
644.22	58927.67
644.37	58660.85
644.51	58571.91
644.66	58674.89
644.81	58761.49
644.95	58747.45
645.10	58922.99
645.25	58873.84
645.39	58670.21
645.54	58698.30
645.69	58777.87
645.83	58644.46
645.98	58361.26
646.13	58698.30
646.27	58660.85
646.42	58660.85
646.57	58356.58
646.71	58578.93
646.86	58560.20
647.00	58721.70
647.15	58562.54
647.30	58504.03
647.44	58497.01
647.59	58637.44
647.74	58534.46
647.88	58752.13
648.03	58794.26
648.17	58616.38
648.32	58480.63
648.47	58478.28
648.61	58555.52
648.76	58532.12
648.90	58344.87
649.05	58382.32
649.20	58426.79
649.34	58489.99
649.49	58230.19
649.63	58321.47
649.78	58719.36
649.92	58365.94
650.07	58389.34
650.21	58337.85
650.36	58340.19
650.51	58394.03
650.65	58508.71
650.80	58176.36
650.94	58028.90
651.09	58150.61
651.23	57839.32
651.38	57975.07
651.52	57771.44
651.67	57916.56
651.81	58124.86
651.96	57869.75
652.10	58064.01
652.25	57951.66
652.39	58089.76
652.54	57897.83
652.68	57710.59
652.83	57741.02
652.97	57925.92
653.12	57741.02
653.26	57717.61
653.41	58017.20
653.55	57684.84
653.70	58031.24
653.84	57820.59
653.99	57911.88
654.13	57804.21
654.27	57811.23
654.42	57684.84
654.56	57748.04
654.71	57935.28
654.85	57649.74
655.00	57890.81
655.14	57633.35
655.29	57502.28
655.43	57640.37
655.57	57598.24
655.72	57867.40
655.86	57670.80
656.01	57612.29
656.15	57333.76
656.30	57745.70
656.44	57722.29
656.58	57719.95
656.73	57483.56
656.87	57420.36
657.01	57574.84
657.16	57661.44
657.30	57502.28
657.45	57207.37
657.59	57443.77
657.73	57055.24
657.88	57162.90
658.02	57120.77
658.16	57174.61
658.31	57172.27
658.45	57382.91
658.60	57385.25
658.74	57179.29
658.88	57242.48
659.03	57130.14
659.17	56907.79
659.31	57057.58
659.46	57064.60
659.60	56875.02
659.74	57071.62
659.89	57003.75
660.03	56708.84
660.17	56994.39
660.32	56818.84
660.46	56795.44
660.60	56481.81
660.74	56772.03
660.89	56807.14
661.03	56612.88
661.17	56643.30
661.32	56662.03
661.46	56662.03
661.60	56633.94
661.74	56755.65
661.89	56301.59
662.03	56381.16
662.17	56320.31
662.31	56193.92
662.46	56750.97
662.60	56250.09
662.74	56329.67
662.88	56142.43
663.03	56083.92
663.17	55934.12
663.31	56133.07
663.45	56350.74
663.60	55917.74
663.74	55578.36
663.88	55828.80
664.02	55606.45
664.17	55847.52
664.31	55646.24
664.45	55547.93
664.59	55688.37
664.73	55650.92
664.88	55412.18
665.02	55702.41
665.16	55533.89
665.30	55285.79
665.44	55456.65
665.59	55405.16
665.73	55339.63
665.87	55070.46
666.01	55367.71
666.15	55243.66
666.29	55337.29
666.44	55304.52
666.58	55152.38
666.72	55152.38
666.86	55009.61
667.00	55061.10
667.14	54604.70
667.28	54864.50
667.43	55033.02
667.57	54761.51
667.71	54684.28
667.85	54637.47
667.99	54773.22
668.13	54515.76
668.27	54422.14
668.41	54768.54
668.56	54382.35
668.70	54326.17
668.84	54380.01
668.98	54204.47
669.12	54342.56
669.26	54611.72
669.40	53996.16
669.54	54330.86
669.68	54087.44
669.82	54061.69
669.96	54120.21
670.10	53750.40
670.25	54475.97
670.39	54251.28
670.53	54141.27
670.67	53514.01
670.81	54178.72
670.95	54017.22
671.09	53560.82
671.23	53521.03
671.37	53619.33
671.51	53476.56
671.65	53556.14
671.79	53371.24
671.93	53467.20
672.07	53607.63
672.21	53045.90
672.35	52968.66
672.49	52755.68
672.63	52872.70
672.77	53216.76
672.91	53102.07
673.05	52650.35
673.19	52835.25
673.33	52573.11
673.47	52336.72
673.61	52788.44
673.75	52491.19
673.89	52587.16
674.03	52383.53
674.17	52540.35
674.31	52046.49
674.45	51849.89
674.59	51985.64
674.73	52184.58
674.87	51824.14
675.01	51700.09
675.15	51674.35
675.29	51566.68
675.43	51725.84
675.56	51337.31
675.70	51325.61
675.84	51341.99
675.98	50153.00
676.12	51220.28
676.26	51459.02
676.40	51004.95
676.54	50920.70
676.68	50834.10
676.82	50185.77
676.96	50265.34
677.10	50747.50
677.23	50272.37
677.37	49970.44
677.51	49991.50
677.65	49890.86
677.79	49169.97
677.93	49481.27
678.07	49294.02
678.21	49422.75
678.34	48711.23
678.48	48996.77
678.62	48910.17
678.76	48907.83
678.90	48680.80
679.04	48318.02
679.18	48545.05
679.31	48072.26
679.45	47889.70
679.59	47966.94
679.73	48257.17
679.87	48147.16
680.00	47393.51
680.14	47173.50
680.28	47426.28
680.42	47028.38
680.56	47107.96
680.70	47122.01
680.83	46791.99
680.97	46918.38
681.11	46658.58
681.25	47079.88
681.39	46513.47
681.52	46754.54
681.66	46354.31
681.80	46328.56
681.94	45731.73
682.07	45801.94
682.21	45766.84
682.35	45755.13
682.49	45574.91
682.62	45263.62
682.76	45235.53
682.90	45296.39
683.04	45127.87
683.17	44542.74
683.31	44280.60
683.45	44374.22
683.59	44292.30
683.72	44329.75
683.86	44016.11
684.00	44554.44
684.13	44196.34
684.27	44013.77
684.41	43377.15
684.55	43859.30
684.68	43585.46
684.82	43440.34
684.96	42873.93
685.09	42885.64
685.23	42887.98
685.37	42466.68
685.50	42794.36
685.64	42426.89
685.78	42167.09
685.91	42494.77
686.05	42003.25
686.19	41350.24
686.32	41214.49
686.46	41069.38
686.60	40477.22
686.73	41125.55
686.87	40924.27
687.01	41060.02
687.14	40725.32
687.28	40610.64
687.42	40259.55
687.55	40062.95
687.69	40458.50
687.82	39875.71
687.96	39723.57
688.10	39868.69
688.23	40236.15
688.37	39751.66
688.50	39185.25
688.64	38810.76
688.78	38815.44
688.91	38707.78
689.05	39002.69
689.18	39056.52
689.32	37874.55
689.46	37890.93
689.59	38251.38
689.73	37886.25
689.86	37406.44
690.00	37947.11
690.13	37752.84
690.27	37516.45
690.41	37310.48
690.54	37591.34
690.68	36924.29
690.81	36617.68
690.95	36734.71
691.08	36392.99
691.22	36266.60
691.35	35810.20
691.49	36109.78
691.62	36322.77
691.76	35618.27
691.89	36067.66
692.03	35580.82
692.16	35732.96
692.30	35110.38
692.43	35367.84
692.57	34927.81
692.70	34883.34
692.84	34866.96
692.97	34885.68
693.11	34742.91
693.24	34459.71
693.38	34167.14
693.51	33795.00
693.65	34033.73
693.78	33708.40
693.92	33986.92
694.05	33607.75
694.19	33553.92
694.32	33654.56
694.45	33158.37
694.59	32840.06
694.72	32493.66
694.86	32538.13
694.99	32278.33
695.13	32177.68
695.26	32102.79
695.39	31552.76
695.53	31850.01
695.66	31842.99
695.80	31459.14
695.93	31117.42
696.07	30895.07
696.20	30944.22
696.33	30756.98
696.47	30909.11
696.60	30604.84
696.73	30672.72
696.87	30431.65
697.00	29963.54
697.14	29982.26
697.27	29694.38
697.40	30008.01
697.54	29713.10
697.67	29914.39
697.80	29514.16
697.94	29390.11
698.07	28973.49
698.21	29088.18
698.34	29230.95
698.47	28781.57
698.61	28498.36
698.74	28156.64
698.87	28767.52
699.01	28044.30
699.14	28219.84
699.27	27920.25
699.40	28287.71
699.54	28329.84
699.67	27950.68
699.80	27754.07
699.94	27428.74
700.07	27255.54
700.20	27328.10
700.34	26733.60
700.47	26836.58
700.60	26902.12
700.73	26455.08
700.87	26103.99
701.00	25879.30
701.13	25610.14
701.26	25855.90
701.40	26293.58
701.53	25823.13
701.66	25748.23
701.79	25710.78
701.93	24931.39
702.06	25006.28
702.19	24709.04
702.32	25191.19
702.46	24875.21
702.59	24957.13
702.72	24575.62
702.85	24570.94
702.99	24730.10
703.12	24432.85
703.25	24259.65
703.38	23889.85
703.51	23662.82
703.65	23908.57
703.78	23580.90
703.91	23218.11
704.04	23335.14
704.17	23293.01
704.31	23520.04
704.44	22902.14
704.57	22888.10
704.70	22726.60
704.83	22817.88
704.96	22733.62
705.10	22391.91
705.23	22136.79
>>>>>End Processed Spectral Data<<<<<
