SpectraSuite Data File
++++++++++++++++++++++++++++++++++++
Date: Fri Oct 25 11:26:25 EDT 2013
User: price-jones
Dark Spectrum Present: No
Reference Spectrum Present: No
Number of Sampled Component Spectra: 1
Spectrometers: USB2+H05261
Integration Time (usec): 100000 (USB2+H05261)
Spectra Averaged: 1 (USB2+H05261)
Boxcar Smoothing: 0 (USB2+H05261)
Correct for Electrical Dark: No (USB2+H05261)
Strobe/Lamp Enabled: No (USB2+H05261)
Correct for Detector Non-linearity: No (USB2+H05261)
Correct for Stray Light: No (USB2+H05261)
Number of Pixels in Processed Spectrum: 2048
>>>>>Begin Processed Spectral Data<<<<<
365.73	224.69
365.92	224.69
366.12	224.69
366.32	161.50
366.52	180.22
366.72	194.26
366.91	147.45
367.11	163.84
367.31	166.18
367.51	105.32
367.70	100.64
367.90	149.79
368.10	154.48
368.30	121.71
368.49	191.92
368.69	145.11
368.89	191.92
369.09	238.73
369.28	180.22
369.48	149.79
369.68	184.90
369.87	241.08
370.07	198.95
370.27	189.58
370.47	346.40
370.66	653.01
370.86	674.07
371.06	669.39
371.25	638.97
371.45	662.37
371.65	737.27
371.84	671.73
372.04	692.80
372.24	774.72
372.44	737.27
372.63	734.93
372.83	718.54
373.03	795.78
373.22	758.33
373.42	851.96
373.62	737.27
373.81	697.48
374.01	784.08
374.21	760.67
374.40	791.10
374.60	952.60
374.79	816.85
374.99	833.23
375.19	784.08
375.38	884.72
375.58	835.57
375.78	891.74
375.97	931.53
376.17	919.83
376.37	833.23
376.56	854.30
376.76	905.79
376.95	882.38
377.15	863.66
377.35	919.83
377.54	971.32
377.74	922.17
377.93	938.55
378.13	866.00
378.33	992.39
378.52	863.66
378.72	924.51
378.91	903.45
379.11	882.38
379.31	959.62
379.50	926.85
379.70	985.37
379.89	997.07
380.09	978.34
380.28	896.43
380.48	983.02
380.68	943.24
380.87	1013.45
381.07	1057.92
381.26	1083.67
381.46	1137.50
381.65	1018.13
381.85	1076.65
382.04	1053.24
382.24	1053.24
382.43	1029.84
382.63	1167.93
382.83	1137.50
383.02	1104.73
383.22	1057.92
383.41	1029.84
383.61	1167.93
383.80	1146.86
384.00	1104.73
384.19	1146.86
384.39	1210.06
384.58	1116.44
384.78	1193.67
384.97	1249.85
385.17	1181.97
385.36	1228.78
385.56	1191.33
385.75	1174.95
385.95	1149.20
386.14	1196.01
386.34	1090.69
386.53	1174.95
386.72	1235.80
386.92	1172.61
387.11	1240.48
387.31	1291.98
387.50	1219.42
387.70	1233.46
387.89	1268.57
388.09	1282.61
388.28	1210.06
388.48	1210.06
388.67	1308.36
388.86	1352.83
389.06	1310.70
389.25	1409.00
389.45	1320.06
389.64	1329.42
389.84	1284.95
390.03	1514.33
390.22	1439.43
390.42	1453.47
390.61	1350.49
390.81	1446.45
391.00	1390.28
391.19	1519.01
391.39	1394.96
391.58	1476.88
391.78	1544.75
391.97	1376.24
392.16	1460.49
392.36	1460.49
392.55	1540.07
392.75	1563.48
392.94	1558.80
393.13	1462.83
393.33	1511.99
393.52	1519.01
393.71	1563.48
393.91	1617.31
394.10	1563.48
394.29	1598.59
394.49	1596.25
394.68	1647.74
394.88	1687.53
395.07	1743.70
395.26	1579.86
395.46	1614.97
395.65	1694.55
395.84	1671.14
396.04	1820.94
396.23	1755.40
396.42	1724.97
396.62	1762.42
396.81	1746.04
397.00	1689.87
397.19	1762.42
397.39	1853.70
397.58	1839.66
397.77	1902.86
397.97	1853.70
398.16	1811.57
398.35	1888.81
398.55	1858.39
398.74	1970.73
398.93	1980.09
399.12	1961.37
399.32	1977.75
399.51	1905.20
399.70	1987.11
399.90	1912.22
400.09	2033.93
400.28	2024.56
400.47	2045.63
400.67	2122.87
400.86	2143.93
401.05	1998.82
401.24	2029.24
401.44	2139.25
401.63	2122.87
401.82	2218.83
402.01	2134.57
402.21	2174.36
402.40	2195.42
402.59	2211.81
402.78	2176.70
402.97	2242.23
403.17	2251.60
403.36	2193.08
403.55	2275.00
403.74	2354.58
403.93	2429.48
404.13	2253.94
404.32	2452.88
404.51	2338.20
404.70	2249.25
404.89	2394.37
405.09	2406.07
405.28	2354.58
405.47	2534.80
405.66	2502.03
405.85	2602.68
406.05	2434.16
406.24	2513.74
406.43	2518.42
406.62	2572.25
406.81	2562.89
407.00	2569.91
407.20	2590.97
407.39	2569.91
407.58	2677.57
407.77	2792.26
407.96	2759.49
408.15	2726.72
408.34	2593.31
408.54	2764.17
408.73	2909.29
408.92	2729.06
409.11	2911.63
409.30	2928.01
409.49	2949.08
409.68	2923.33
409.87	2981.84
410.07	2958.44
410.26	2995.89
410.45	2986.52
410.64	2967.80
410.83	3070.78
411.02	3164.40
411.21	3070.78
411.40	3148.02
411.59	3204.19
411.78	3075.46
411.98	3124.62
412.17	3276.75
412.36	3251.00
412.55	3393.78
412.74	3407.82
412.93	3438.25
413.12	3353.99
413.31	3599.74
413.50	3365.69
413.69	3473.36
413.88	3592.72
414.07	3524.85
414.26	3616.13
414.45	3665.28
414.64	3737.84
414.83	3784.65
415.02	3700.39
415.22	3742.52
415.41	3840.82
415.60	3946.14
415.79	3899.33
415.98	3889.97
416.17	3990.61
416.36	3882.95
416.55	3817.41
416.74	4117.00
416.93	3981.25
417.12	4042.11
417.31	4138.07
417.50	4271.48
417.69	4208.28
417.88	4269.14
418.07	4292.54
418.26	4355.74
418.45	4376.80
418.64	4423.61
418.83	4381.48
419.02	4510.21
419.21	4542.98
419.39	4470.42
419.58	4409.57
419.77	4397.87
419.96	4554.68
420.15	4655.33
420.34	4587.45
420.53	4580.43
420.72	4737.24
420.91	4624.90
421.10	4781.71
421.29	4929.17
421.48	4734.90
421.67	4718.52
421.86	4720.86
422.05	4849.59
422.24	4718.52
422.43	4905.76
422.61	4950.23
422.80	4821.50
422.99	4863.63
423.18	4912.78
423.37	5025.13
423.56	4903.42
423.75	4943.21
423.94	4875.34
424.13	4667.03
424.32	4627.24
424.50	5078.96
424.69	5025.13
424.88	4915.12
425.07	5102.37
425.26	4912.78
425.45	5011.09
425.64	4987.68
425.83	4959.60
426.01	5107.05
426.20	5135.14
426.39	5123.43
426.58	5015.77
426.77	5179.61
426.96	5050.88
427.15	5074.28
427.33	5181.95
427.52	5170.24
427.71	5188.97
427.90	5298.97
428.09	5245.14
428.28	5219.39
428.46	5254.50
428.65	5298.97
428.84	5446.43
429.03	5521.32
429.22	5289.61
429.40	5535.37
429.59	5479.19
429.78	5242.80
429.97	5298.97
430.16	5373.87
430.34	5500.26
430.53	5460.47
430.72	5610.26
430.91	5760.06
431.10	5640.69
431.28	5722.61
431.47	5675.80
431.66	5811.55
431.85	5659.42
432.03	5757.72
432.22	5916.87
432.41	5867.72
432.60	5902.83
432.79	5853.68
432.97	5928.58
433.16	5879.43
433.35	5888.79
433.54	5996.45
433.72	5935.60
433.91	6059.65
434.10	6148.59
434.28	6167.31
434.47	6218.80
434.66	6209.44
434.85	6134.54
435.03	6403.71
435.22	6291.36
435.41	6612.01
435.59	6099.44
435.78	6380.30
435.97	6406.05
436.16	6312.42
436.34	6413.07
436.53	6422.43
436.72	6612.01
436.90	6504.35
437.09	6586.27
437.28	6509.03
437.46	6527.75
437.65	6443.49
437.84	6829.68
438.02	6651.80
438.21	6724.36
438.40	6700.95
438.58	6740.74
438.77	7019.27
438.96	6862.45
439.14	7136.29
439.33	7164.38
439.52	7204.17
439.70	7143.32
439.89	7515.46
440.08	7382.05
440.26	7258.00
440.45	7274.38
440.63	7578.65
440.82	7676.96
441.01	7566.95
441.19	7578.65
441.38	7730.79
441.57	7672.28
441.75	7833.77
441.94	7763.56
442.12	7953.14
442.31	7868.88
442.50	7969.52
442.68	7992.93
442.87	8093.57
443.05	7957.82
443.24	8168.47
443.43	8332.31
443.61	8016.33
443.80	8194.22
443.98	8063.15
444.17	7847.82
444.35	8168.47
444.54	8315.92
444.73	8079.53
444.91	8257.41
445.10	8250.39
445.28	8262.09
445.47	8201.24
445.65	8280.82
445.84	8414.23
446.02	8449.33
446.21	8285.50
446.39	8456.36
446.58	8325.29
446.77	8444.65
446.95	8376.78
447.14	8262.09
447.32	8531.25
447.51	8428.27
447.69	8409.54
447.88	8390.82
448.06	8528.91
448.25	8446.99
448.43	8432.95
448.62	8615.51
448.80	8561.68
448.99	8585.08
449.17	8573.38
449.36	8608.49
449.54	8767.65
449.73	8868.29
449.91	8952.55
450.10	8950.21
450.28	9074.26
450.46	9188.94
450.65	8975.95
450.83	8901.06
451.02	8891.70
451.20	9200.65
451.39	8943.19
451.57	9048.51
451.76	8929.14
451.94	9121.07
452.13	9067.24
452.31	9357.46
452.49	9067.24
452.68	9275.54
452.86	9317.67
453.05	9282.56
453.23	9451.08
453.42	9397.25
453.60	9231.07
453.78	9603.22
453.97	9322.35
454.15	9268.52
454.34	9411.29
454.52	9736.63
454.70	9554.07
454.89	9598.54
455.07	9624.28
455.26	9900.47
455.44	9933.23
455.62	9788.12
455.81	9778.76
455.99	9930.89
456.17	9977.70
456.36	10047.92
456.54	10186.01
456.73	10127.50
456.91	10359.21
457.09	10384.96
457.28	10436.45
457.46	10253.89
457.64	10576.88
457.83	10251.55
458.01	10153.24
458.19	10429.43
458.38	10469.22
458.56	10698.59
458.74	10752.42
458.93	10745.40
459.11	10733.70
459.29	10824.98
459.48	10626.03
459.66	10834.34
459.84	10700.93
460.03	10927.96
460.21	10972.43
460.39	10869.45
460.57	10986.47
460.76	10981.79
460.94	11239.25
461.12	11236.91
461.31	10974.77
461.49	10988.82
461.67	11070.73
461.85	11379.68
462.04	11255.64
462.22	11468.62
462.40	11824.39
462.59	11346.92
462.77	11445.22
462.95	11707.36
463.13	11609.06
463.32	11517.78
463.50	11793.96
463.68	11761.19
463.86	11672.25
464.05	11421.81
464.23	11819.71
464.41	11618.42
464.59	11705.02
464.78	12264.41
464.96	11894.60
465.14	11719.06
465.32	11880.56
465.50	12011.63
465.69	11946.09
465.87	12028.01
466.05	12145.04
466.23	12070.14
466.41	12140.36
466.60	12292.49
466.78	12051.42
466.96	12107.59
467.14	11990.56
467.32	12166.10
467.51	12533.57
467.69	12016.31
467.87	12367.39
468.05	12732.51
468.23	12290.15
468.41	12542.93
468.60	12578.04
468.78	12725.49
468.96	12540.59
469.14	12755.92
469.32	12760.60
469.50	12678.68
469.69	12980.61
469.87	12926.78
470.05	13004.02
470.23	13369.14
470.41	13085.94
470.59	13275.52
470.77	13036.78
470.95	13179.56
471.14	13584.47
471.32	13179.56
471.50	13224.03
471.68	13411.27
471.86	13617.24
472.04	13530.64
472.22	13944.91
472.40	13671.07
472.58	13556.38
472.77	13717.88
472.95	14029.17
473.13	14331.10
473.31	13989.38
473.49	14106.41
473.67	14129.81
473.85	14321.74
474.03	14576.86
474.21	14693.88
474.39	14506.64
474.57	14679.84
474.75	14736.01
474.93	14813.25
475.12	14750.06
475.30	15075.39
475.48	14857.72
475.66	15103.48
475.84	14981.77
476.02	15421.79
476.20	15087.09
476.38	15260.29
476.56	15992.88
476.74	15896.92
476.92	15672.23
477.10	15798.62
477.28	15992.88
477.46	16072.46
477.64	15999.90
477.82	16540.57
478.00	16779.30
478.18	16697.38
478.36	16704.40
478.54	17078.89
478.72	17205.28
478.90	17123.36
479.08	17617.21
479.26	17434.65
479.44	17731.90
479.62	17734.24
479.80	17951.91
479.98	18162.56
480.16	18391.93
480.34	18272.56
480.52	18483.21
480.70	18197.67
480.88	18216.39
481.06	18796.84
481.24	18665.77
481.41	19117.50
481.59	19381.98
481.77	19176.01
481.95	19318.78
482.13	19606.67
482.31	19293.04
482.49	20060.73
482.67	19978.81
482.85	20294.79
483.03	20542.88
483.21	20744.17
483.39	20889.28
483.57	20711.40
483.74	20959.50
483.92	21544.63
484.10	21132.70
484.28	21523.57
484.46	21792.73
484.64	22204.66
484.82	21914.44
485.00	21998.70
485.18	22560.42
485.35	22642.34
485.53	22644.68
485.71	22714.90
485.89	23248.54
486.07	23250.88
486.25	23192.37
486.43	23484.94
486.61	23613.66
486.78	23812.61
486.96	23974.11
487.14	24315.83
487.32	24498.39
487.50	24175.39
487.68	24603.71
487.85	25305.87
488.03	25493.12
488.21	25731.85
488.39	25675.68
488.57	25841.85
488.75	25916.75
488.92	26260.81
489.10	26384.86
489.28	26300.60
489.46	27049.57
489.64	26764.03
489.81	27508.32
489.99	27433.42
490.17	27442.78
490.35	28180.05
490.53	27967.06
490.70	28121.54
490.88	28156.64
491.06	28432.83
491.24	28617.73
491.41	28636.45
491.59	28938.38
491.77	28931.36
491.95	29289.46
492.13	29287.12
492.30	29689.70
492.48	29848.85
492.66	29855.87
492.84	30141.42
493.01	30525.27
493.19	30595.48
493.37	30951.24
493.54	30991.03
493.72	30984.01
493.90	31278.92
494.08	31264.88
494.25	31803.20
494.43	31440.42
494.61	32114.49
494.79	31943.63
494.96	32421.10
495.14	32577.92
495.32	33097.52
495.49	32828.35
495.67	33212.20
495.85	32975.81
496.02	33619.46
496.20	33727.12
496.38	33907.34
496.55	33834.78
496.73	34550.99
496.91	34412.90
497.09	34501.84
497.26	34609.50
497.44	34373.11
497.62	34717.17
497.79	35519.97
497.97	35337.41
498.14	35945.95
498.32	35941.27
498.50	35697.85
498.67	36549.81
498.85	36011.48
499.03	36458.52
499.20	36395.33
499.38	36264.26
499.56	36723.01
499.73	36851.73
499.91	37123.24
500.08	37532.83
500.26	37312.82
500.44	37247.29
500.61	37408.78
500.79	37331.54
500.97	38000.94
501.14	38487.77
501.32	37986.89
501.49	37928.38
501.67	38408.19
501.84	38569.69
502.02	38667.99
502.20	38787.36
502.37	39086.95
502.55	39093.97
502.72	39466.11
502.90	39522.29
503.07	39115.03
503.25	39409.94
503.43	39510.58
503.60	39887.41
503.78	39974.01
503.95	40020.82
504.13	40266.58
504.30	40657.45
504.48	40212.74
504.65	40727.66
504.83	40802.56
505.01	41221.52
505.18	40769.79
505.36	41062.36
505.53	40875.12
505.71	41336.20
505.88	41116.19
506.06	41184.07
506.23	41570.25
506.41	41708.35
506.58	41478.97
506.76	41820.69
506.93	41991.55
507.11	41303.43
507.28	42330.93
507.46	42384.76
507.63	42424.55
507.81	43210.97
507.98	42646.90
508.16	43103.31
508.33	42934.79
508.50	43278.85
508.68	43512.90
508.85	43594.82
509.03	43210.97
509.20	43796.10
509.38	43840.57
509.55	44219.74
509.73	44025.48
509.90	44210.38
510.08	44428.05
510.25	44474.86
510.42	44575.50
510.60	45001.48
510.77	45275.32
510.95	44900.84
511.12	44992.12
511.30	44942.97
511.47	45188.72
511.64	45476.61
511.82	45495.33
511.99	45233.19
512.17	45556.19
512.34	45684.92
512.51	45986.85
512.69	46185.79
512.86	45673.21
513.04	46176.43
513.21	45909.61
513.38	46567.30
513.56	46918.38
513.73	46593.04
513.90	46848.16
514.08	46630.49
514.25	47229.67
514.43	47147.75
514.60	47213.29
514.77	47131.37
514.95	47522.24
515.12	47175.84
515.29	47229.67
515.47	47796.08
515.64	47966.94
515.81	47608.84
515.99	48053.54
516.16	47955.24
516.33	47627.56
516.51	48751.02
516.68	48261.85
516.85	48378.87
517.03	48566.12
517.20	48638.67
517.37	48397.60
517.54	48736.98
517.72	48678.46
517.89	48669.10
518.06	48856.34
518.24	49029.54
518.41	49165.29
518.58	49177.00
518.75	48980.39
518.93	49048.27
519.10	49226.15
519.27	49411.05
519.45	49741.06
519.62	49628.72
519.79	50248.96
519.96	49518.71
520.14	49972.78
520.31	50050.02
520.48	50155.34
520.65	49734.04
520.83	50597.70
521.00	50326.20
521.17	50375.35
521.34	50190.45
521.52	50590.68
521.69	50541.53
521.86	50831.75
522.03	50892.61
522.20	50908.99
522.38	51262.41
522.55	51058.79
522.72	51175.81
522.89	51159.43
523.07	51246.03
523.24	51173.47
523.41	51615.83
523.58	51058.79
523.75	51330.29
523.92	51634.56
524.10	51697.75
524.27	51751.59
524.44	51833.50
524.61	51901.38
524.78	52226.71
524.96	51660.30
525.13	51798.40
525.30	52278.21
525.47	52416.30
525.64	52212.67
525.81	52406.94
525.98	52109.69
526.16	52123.73
526.33	52442.04
526.50	52556.73
526.67	52509.92
526.84	52896.11
527.01	52650.35
527.18	52839.93
527.36	52643.33
527.53	52938.24
527.70	53120.80
527.87	52989.73
528.04	52811.85
528.21	53396.98
528.38	53282.30
528.55	53572.52
528.72	53078.67
528.89	53059.94
529.07	53329.11
529.24	53139.52
529.41	53762.11
529.58	53511.67
529.75	53556.14
529.92	53666.14
530.09	53771.47
530.26	53808.92
530.43	53956.37
530.60	53490.60
530.77	53581.88
530.94	54024.25
531.11	53607.63
531.28	53932.96
531.46	54064.03
531.63	53865.09
531.80	54024.25
531.97	53968.07
532.14	54108.50
532.31	54206.81
532.48	54464.27
532.65	54120.21
532.82	54145.95
532.99	54152.97
533.16	54485.33
533.33	54550.87
533.50	54553.21
533.67	54688.96
533.84	54429.16
534.01	54733.43
534.18	54777.90
534.35	54918.33
534.52	54461.93
534.69	54948.76
534.86	55154.72
535.03	54906.63
535.20	55325.58
535.37	55192.17
535.54	55365.37
535.71	54824.71
535.88	55253.03
536.05	55093.87
536.22	55337.29
536.38	55480.06
536.55	55430.91
536.72	55323.24
536.89	55238.98
537.06	55267.07
537.23	55566.66
537.40	55597.09
537.57	55391.12
537.74	55671.98
537.91	55807.73
538.08	55608.79
538.25	55381.76
538.42	55831.14
538.59	56013.70
538.75	55639.22
538.92	56060.51
539.09	56123.71
539.26	56142.43
539.43	55870.93
539.60	56013.70
539.77	55964.55
539.94	55952.85
540.11	56205.62
540.28	56257.12
540.44	56341.38
540.61	56392.87
540.78	56200.94
540.95	56427.98
541.12	56090.94
541.29	56041.79
541.46	56346.06
541.62	56383.51
541.79	56488.83
541.96	56231.37
542.13	56533.30
542.30	56320.31
542.47	56535.64
542.63	56559.05
542.80	56868.00
542.97	56772.03
543.14	56982.68
543.31	57036.51
543.48	56975.66
543.64	57139.50
543.81	57345.47
543.98	57020.13
544.15	57137.16
544.32	57169.93
544.48	57315.04
544.65	57146.52
544.82	57024.81
544.99	57216.74
545.16	57521.01
545.32	57244.82
545.49	57656.76
545.66	57441.43
545.83	57378.23
546.00	57577.18
546.16	57439.09
546.33	57336.10
546.50	57403.98
546.67	57546.75
546.83	57242.48
547.00	57411.00
547.17	57516.32
547.34	57673.14
547.50	57750.38
547.67	58092.10
547.84	58024.22
548.00	57841.66
548.17	57886.13
548.34	57642.71
548.51	58035.92
548.67	58078.05
548.84	58064.01
549.01	57698.89
549.18	58092.10
549.34	58138.91
549.51	58145.93
549.68	58225.51
549.84	57972.73
550.01	58162.31
550.18	58192.74
550.34	58298.06
550.51	58365.94
550.68	58127.20
550.84	57949.32
551.01	58356.58
551.18	58286.36
551.34	58295.72
551.51	58307.43
551.68	58651.48
551.84	58403.39
552.01	58206.78
552.18	58351.90
552.34	58277.00
552.51	58405.73
552.68	58127.20
552.84	58363.60
553.01	58614.04
553.18	58426.79
553.34	58513.39
553.51	58665.53
553.67	58623.40
553.84	58780.21
554.01	58852.77
554.17	58817.66
554.34	58885.54
554.51	58609.35
554.67	58946.39
554.84	58981.50
555.00	58777.87
555.17	58827.02
555.33	58803.62
555.50	58796.60
555.67	58798.94
555.83	58829.37
556.00	58979.16
556.16	59196.83
556.33	59117.25
556.50	59061.08
556.66	59250.66
556.83	58962.78
556.99	59199.17
557.16	59089.16
557.32	59372.37
557.49	59449.61
557.65	59234.28
557.82	59269.39
557.98	59194.49
558.15	59355.99
558.32	59430.88
558.48	58995.54
558.65	59379.39
558.81	59260.02
558.98	59367.69
559.14	59377.05
559.31	59348.96
559.47	59468.33
559.64	59419.18
559.80	59536.21
559.97	59545.57
560.13	59386.41
560.30	59573.66
560.46	59545.57
560.63	59583.02
560.79	59568.97
560.96	59554.93
561.12	59636.85
561.29	59751.54
561.45	59655.57
561.61	59618.13
561.78	59561.95
561.94	59678.98
562.11	59608.76
562.27	59622.81
562.44	59861.54
562.60	59821.75
562.77	59767.92
562.93	59564.29
563.10	59908.35
563.26	59793.67
563.42	60072.19
563.59	59962.18
563.75	59838.14
563.92	59833.46
564.08	59793.67
564.24	60114.32
564.41	60079.21
564.57	60020.70
564.74	59840.48
564.90	60030.06
565.07	59875.58
565.23	59863.88
565.39	60062.83
565.56	60130.70
565.72	59868.56
565.88	59880.27
566.05	59845.16
566.21	60149.43
566.38	59962.18
566.54	60093.25
566.70	60252.41
566.87	60154.11
567.03	59934.10
567.19	60268.79
567.36	60121.34
567.52	60144.75
567.68	60289.86
567.85	59945.80
568.01	60130.70
568.17	60177.51
568.34	60231.35
568.50	60158.79
568.66	60294.54
568.83	60163.47
568.99	59985.59
569.15	60350.71
569.32	60324.97
569.48	60423.27
569.64	60280.50
569.81	60362.42
569.97	60200.92
570.13	60294.54
570.30	60102.62
570.46	60247.73
570.62	60175.17
570.78	60343.69
570.95	60229.01
571.11	60444.33
571.27	60210.28
571.43	60327.31
571.60	60491.15
571.76	60308.58
571.92	60224.32
572.09	60612.85
572.25	60339.01
572.41	60484.12
572.57	60264.11
572.74	60580.09
572.90	60231.35
573.06	60449.02
573.22	60526.25
573.38	60409.23
573.55	60369.44
573.71	60556.68
573.87	60523.91
574.03	60402.21
574.20	60556.68
574.36	60638.60
574.52	60493.49
574.68	60605.83
574.84	60624.56
575.01	60652.64
575.17	60453.70
575.33	60537.96
575.49	60629.24
575.65	60516.89
575.82	60615.19
575.98	60748.60
576.14	60753.29
576.30	60713.50
576.46	60561.36
576.62	60479.44
576.79	60624.56
576.95	60526.25
577.11	60830.52
577.27	60720.52
577.43	60746.26
577.59	60612.85
577.75	60561.36
577.92	60423.27
578.08	60601.15
578.24	60530.93
578.40	60734.56
578.56	60900.74
578.72	60554.34
578.88	60720.52
579.04	60764.99
579.21	60725.20
579.37	60767.33
579.53	60781.37
579.69	60444.33
579.85	60608.17
580.01	60598.81
580.17	60530.93
580.33	60664.35
580.49	60952.23
580.65	60715.84
580.82	60870.31
580.98	60573.06
581.14	60643.28
581.30	60711.16
581.46	60764.99
581.62	60837.54
581.78	60690.09
581.94	60914.78
582.10	60685.41
582.26	60652.64
582.42	60514.55
582.58	60706.47
582.74	60498.17
582.90	60495.83
583.06	60676.05
583.22	60748.60
583.38	60509.87
583.54	60706.47
583.70	61029.47
583.86	60970.96
584.02	60647.96
584.18	60896.06
584.34	60762.65
584.50	60736.90
584.66	60619.88
584.82	60718.18
584.98	60893.72
585.14	60811.80
585.30	60741.58
585.46	60816.48
585.62	60701.79
585.78	60905.42
585.94	60622.22
586.10	60662.00
586.26	60781.37
586.42	60797.76
586.58	60804.78
586.74	60940.53
586.90	60811.80
587.06	60662.00
587.22	61022.45
587.38	60926.49
587.54	60935.85
587.70	60961.59
587.86	60945.21
588.02	61092.66
588.18	60947.55
588.34	60865.63
588.49	60928.83
588.65	60942.87
588.81	60907.76
588.97	61020.11
589.13	60783.71
589.29	61118.41
589.45	61045.85
589.61	61247.14
589.77	61291.61
589.93	61230.75
590.08	61120.75
590.24	61242.46
590.40	61233.10
590.56	61165.22
590.72	61162.88
590.88	61073.94
591.04	61141.81
591.20	61279.91
591.35	60973.30
591.51	61513.96
591.67	61284.59
591.83	61502.26
591.99	61099.68
592.15	61078.62
592.31	61176.92
592.46	61258.84
592.62	61120.75
592.78	61275.22
592.94	61279.91
593.10	61219.05
593.26	61392.25
593.41	61160.54
593.57	61223.73
593.73	61219.05
593.89	61579.49
594.05	61446.08
594.20	61307.99
594.36	61464.81
594.52	61481.19
594.68	61270.54
594.84	61120.75
594.99	61429.70
595.15	61333.74
595.31	61375.87
595.47	61181.60
595.62	61315.01
595.78	61235.44
595.94	61474.17
596.10	61638.01
596.25	61471.83
596.41	61532.68
596.57	61317.35
596.73	61565.45
596.88	61322.04
597.04	61556.09
597.20	61528.00
597.36	61682.48
597.51	61528.00
597.67	61350.12
597.83	61474.17
597.99	61719.93
598.14	61432.04
598.30	61659.07
598.46	61310.33
598.61	61403.95
598.77	61649.71
598.93	61593.54
599.09	61408.64
599.24	61729.29
599.40	61633.33
599.56	61565.45
599.71	61712.91
599.87	61825.25
600.03	61593.54
600.18	61544.39
600.34	61691.84
600.50	61535.02
600.65	61523.32
600.81	61736.31
600.97	61455.45
601.12	61525.66
601.28	61347.78
601.44	61354.80
601.59	61612.26
601.75	61441.40
601.91	61778.44
602.06	61691.84
602.22	61649.71
602.37	61703.54
602.53	61736.31
602.69	61619.28
602.84	61642.69
603.00	61661.41
603.16	61740.99
603.31	61724.61
603.47	61457.79
603.62	61492.89
603.78	61883.76
603.94	61488.21
604.09	61628.65
604.25	61520.98
604.40	61450.77
604.56	61666.09
604.71	61752.69
604.87	61628.65
605.03	61750.35
605.18	61609.92
605.34	61670.78
605.49	61296.29
605.65	61843.98
605.80	61565.45
605.96	61513.96
606.12	61710.56
606.27	61829.93
606.43	61474.17
606.58	61726.95
606.74	61506.94
606.89	61471.83
607.05	61673.12
607.20	61567.79
607.36	61499.92
607.51	61511.62
607.67	61413.32
607.82	61357.14
607.98	61818.23
608.13	61380.55
608.29	61539.71
608.44	61546.73
608.60	61455.45
608.75	61544.39
608.91	61233.10
609.06	61462.47
609.22	61502.26
609.37	61254.16
609.53	61523.32
609.68	61443.74
609.84	61146.50
609.99	61572.47
610.15	61474.17
610.30	61446.08
610.46	61181.60
610.61	61422.68
610.76	61602.90
610.92	61497.58
611.07	61528.00
611.23	61403.95
611.38	61558.43
611.54	61443.74
611.69	61197.99
611.84	61340.76
612.00	61361.82
612.15	61425.02
612.31	61403.95
612.46	61153.52
612.62	61315.01
612.77	61392.25
612.92	61378.21
613.08	61366.51
613.23	61289.27
613.39	61221.39
613.54	61034.15
613.69	61368.85
613.85	61291.61
614.00	61436.72
614.15	61593.54
614.31	61378.21
614.46	61261.18
614.62	61226.07
614.77	61176.92
614.92	61228.41
615.08	61183.94
615.23	61141.81
615.38	61167.56
615.54	61282.25
615.69	61134.79
615.84	61048.19
616.00	61085.64
616.15	61205.01
616.30	61469.49
616.46	61123.09
616.61	61167.56
616.76	61036.49
616.92	60924.14
617.07	61013.08
617.22	61139.47
617.37	61010.74
617.53	61172.24
617.68	61256.50
617.83	60940.53
617.99	61132.45
618.14	61109.05
618.29	61167.56
618.45	60807.12
618.60	60891.38
618.75	60898.40
618.90	60825.84
619.06	61130.11
619.21	60919.46
619.36	61125.43
619.51	60961.59
619.67	60846.91
619.82	60914.78
619.97	61197.99
620.12	60809.46
620.28	60874.99
620.43	60905.42
620.58	60940.53
620.73	60844.57
620.89	61076.28
621.04	60893.72
621.19	60870.31
621.34	60694.77
621.49	60678.39
621.65	60741.58
621.80	60933.51
621.95	60423.27
622.10	60924.14
622.25	60678.39
622.41	60666.69
622.56	60734.56
622.71	60694.77
622.86	60481.78
623.01	60507.53
623.16	60671.37
623.32	60729.88
623.47	60769.67
623.62	60624.56
623.77	60725.20
623.92	60830.52
624.07	60676.05
624.23	60687.75
624.38	60587.11
624.53	60493.49
624.68	60463.06
624.83	60587.11
624.98	60437.31
625.13	60474.76
625.29	60697.11
625.44	60631.58
625.59	60355.39
625.74	60434.97
625.89	60367.10
626.04	60250.07
626.19	60484.12
626.34	60395.18
626.49	60289.86
626.65	60041.76
626.80	60528.59
626.95	60051.12
627.10	59941.12
627.25	60027.72
627.40	60144.75
627.55	60205.60
627.70	60193.90
627.85	60046.44
628.00	59987.93
628.15	60329.65
628.30	60224.32
628.45	60095.60
628.60	60032.40
628.76	60217.30
628.91	59999.63
629.06	60107.30
629.21	59994.95
629.36	60034.74
629.51	59852.18
629.66	60025.38
629.81	59849.84
629.96	59777.28
630.11	60104.96
630.26	59835.80
630.41	60154.11
630.56	59812.39
630.71	59765.58
630.86	59950.48
631.01	59831.11
631.16	59739.83
631.31	59667.28
631.46	59592.38
631.61	59903.67
631.76	59863.88
631.91	59896.65
632.06	59898.99
632.21	59863.88
632.36	59662.60
632.51	59377.05
632.66	59838.14
632.81	59564.29
632.96	59671.96
633.10	59784.30
633.25	59807.71
633.40	59709.41
633.55	59711.75
633.70	59348.96
633.85	59475.35
634.00	59473.01
634.15	59524.50
634.30	59456.63
634.45	59564.29
634.60	59798.35
634.75	59641.53
634.90	59519.82
635.05	59568.97
635.19	59627.49
635.34	59608.76
635.49	59648.55
635.64	59515.14
635.79	59557.27
635.94	59498.76
636.09	59442.59
636.24	59538.55
636.39	59484.72
636.53	59622.81
636.68	59458.97
636.83	59428.54
636.98	59583.02
637.13	59269.39
637.28	59393.43
637.43	59304.49
637.57	59510.46
637.72	59100.87
637.87	59213.21
638.02	59213.21
638.17	59229.60
638.32	59334.92
638.46	59131.29
638.61	59304.49
638.76	59133.63
638.91	59231.94
639.06	59147.68
639.20	58904.26
639.35	58820.00
639.50	59007.25
639.65	59084.48
639.80	59154.70
639.94	59049.38
640.09	58955.75
640.24	59061.08
640.39	58993.20
640.54	58925.33
640.68	58972.14
640.83	59044.69
640.98	58817.66
641.13	58731.06
641.27	59143.00
641.42	58817.66
641.57	58969.80
641.72	58777.87
641.86	58731.06
642.01	58717.02
642.16	58927.67
642.31	58564.88
642.45	59056.40
642.60	58871.49
642.75	58979.16
642.90	58972.14
643.04	58604.67
643.19	58770.85
643.34	58527.44
643.48	58698.30
643.63	58880.86
643.78	58532.12
643.93	58707.66
644.07	58731.06
644.22	58625.74
644.37	58253.59
644.51	58548.50
644.66	58585.95
644.81	58485.31
644.95	58489.99
645.10	58358.92
645.25	58457.22
645.39	58394.03
645.54	58426.79
645.69	58370.62
645.83	58361.26
645.98	58401.05
646.13	58520.41
646.27	58356.58
646.42	58274.66
646.57	58389.34
646.71	58541.48
646.86	58379.98
647.00	58426.79
647.15	58335.51
647.30	58382.32
647.44	58478.28
647.59	58574.25
647.74	58487.65
647.88	58281.68
648.03	58506.37
648.17	58356.58
648.32	58115.50
648.47	58300.40
648.61	58115.50
648.76	58099.12
648.90	58195.08
649.05	58218.49
649.20	58258.27
649.34	58082.73
649.49	58035.92
649.63	58391.68
649.78	58291.04
649.92	58021.88
650.07	58155.29
650.21	58056.99
650.36	58157.63
650.51	57762.08
650.65	58026.56
650.80	57951.66
650.94	57808.89
651.09	57867.40
651.23	57600.58
651.38	57872.09
651.52	57645.05
651.67	57673.14
651.81	57813.57
651.96	57729.31
652.10	57986.77
652.25	57893.15
652.39	57752.72
652.54	57570.16
652.68	57705.91
652.83	57757.40
652.97	57584.20
653.12	57691.86
653.26	57839.32
653.41	57771.44
653.55	57942.30
653.70	57839.32
653.84	57726.97
653.99	57511.64
654.13	57499.94
654.27	57776.12
654.42	57401.64
654.56	57244.82
654.71	57537.39
654.85	57439.09
655.00	57389.94
655.14	57263.55
655.29	57446.11
655.43	57481.22
655.57	57373.55
655.72	57317.38
655.86	57483.56
656.01	57343.12
656.15	57293.97
656.30	57340.78
656.44	57462.49
656.58	57387.60
656.73	57338.44
656.87	57315.04
657.01	57228.44
657.16	57492.92
657.30	57207.37
657.45	57088.01
657.59	57139.50
657.73	56921.83
657.88	56954.60
658.02	57043.54
658.16	57102.05
658.31	57144.18
658.45	57090.35
658.60	56938.21
658.74	56917.15
658.88	57006.09
659.03	56755.65
659.17	56849.27
659.31	56666.71
659.46	56896.08
659.60	56722.88
659.74	56685.43
659.89	56652.67
660.03	56835.23
660.17	56875.02
660.32	56631.60
660.46	56765.01
660.60	56500.53
660.74	56842.25
660.89	56933.53
661.03	56240.73
661.17	56086.26
661.32	56442.02
661.46	56360.10
661.60	56348.40
661.74	56254.78
661.89	55969.23
662.03	56072.21
662.17	56100.30
662.31	56154.13
662.46	56226.69
662.60	56203.28
662.74	55859.23
662.88	55650.92
663.03	55812.41
663.17	55821.78
663.31	55571.34
663.45	55660.28
663.60	55643.90
663.74	55543.25
663.88	55580.70
664.02	55629.85
664.17	55664.96
664.31	55732.84
664.45	55227.28
664.59	55669.64
664.73	55540.91
664.88	55395.80
665.02	55007.27
665.16	55276.43
665.30	55180.47
665.44	55482.40
665.59	55182.81
665.73	55157.06
665.87	54850.45
666.01	55243.66
666.15	55124.30
666.29	55271.75
666.44	54986.21
666.58	54754.49
666.72	54511.08
666.86	54726.41
667.00	54726.41
667.14	54791.94
667.28	54597.68
667.43	54515.76
667.57	54986.21
667.71	54328.52
667.85	54305.11
667.99	54525.12
668.13	54265.32
668.27	54323.83
668.41	54281.70
668.56	54003.18
668.70	54143.61
668.84	53942.33
668.98	54031.27
669.12	54068.72
669.26	54307.45
669.40	54396.39
669.54	54115.53
669.68	53991.48
669.82	53799.55
669.96	53825.30
670.10	53872.11
670.25	54068.72
670.39	53801.89
670.53	53708.27
670.67	53663.80
670.81	53689.55
670.95	53485.92
671.09	53301.02
671.23	52987.39
671.37	53448.47
671.51	53212.08
671.65	53195.70
671.79	53591.25
671.93	53251.87
672.07	53200.38
672.21	52982.71
672.35	52495.88
672.49	52428.00
672.63	52743.97
672.77	52310.97
672.91	52507.58
673.05	52420.98
673.19	52189.27
673.33	52268.84
673.47	52147.14
673.61	52215.01
673.75	52072.24
673.89	52149.48
674.03	51716.48
674.17	51728.18
674.31	51690.73
674.45	51613.49
674.59	51601.79
674.73	51709.46
674.87	51587.75
675.01	51449.66
675.15	51349.01
675.29	51154.75
675.43	51292.84
675.56	51405.19
675.70	50897.29
675.84	50569.61
675.98	49813.62
676.12	50740.47
676.26	50941.76
676.40	50424.50
676.54	50408.12
676.68	50791.97
676.82	49818.30
676.96	50494.72
677.10	49923.63
677.23	49860.43
677.37	50050.02
677.51	49432.11
677.65	49095.08
677.79	48807.19
677.93	49127.84
678.07	49034.22
678.21	48769.74
678.34	49010.82
678.48	48608.25
678.62	48465.47
678.76	48423.34
678.90	48554.41
679.04	48484.20
679.18	48233.76
679.31	47374.78
679.45	47896.72
679.59	48203.33
679.73	48126.10
679.87	47302.23
680.00	47154.77
680.14	47009.66
680.28	47051.79
680.42	46663.26
680.56	46436.23
680.70	46459.63
680.83	46773.27
680.97	46241.96
681.11	46548.57
681.25	45928.33
681.39	46239.62
681.52	46326.22
681.66	45848.75
681.80	45691.94
681.94	45654.49
682.07	45661.51
682.21	44900.84
682.35	45127.87
682.49	44659.76
682.62	44980.42
682.76	44837.64
682.90	45022.54
683.04	44542.74
683.17	44615.29
683.31	43959.94
683.45	43995.05
683.59	44053.56
683.72	43491.83
683.86	43662.69
684.00	43936.54
684.13	43995.05
684.27	43831.21
684.41	43885.04
684.55	43477.79
684.68	43203.95
684.82	43051.81
684.96	42588.39
685.09	42462.00
685.23	42330.93
685.37	42391.78
685.50	42241.99
685.64	42260.71
685.78	42398.80
685.91	41989.21
686.05	41909.63
686.19	40966.40
686.32	41202.79
686.46	41043.63
686.60	41050.66
686.73	40414.03
686.87	40865.75
687.01	40435.10
687.14	40109.76
687.28	40144.87
687.42	39894.43
687.55	39990.39
687.69	40205.72
687.82	39632.29
687.96	39206.31
688.10	39213.34
688.23	39784.43
688.37	39019.07
688.50	39253.12
688.64	39061.20
688.78	38869.28
688.91	38368.40
689.05	38642.24
689.18	38431.60
689.32	37729.44
689.46	37415.80
689.59	37610.07
689.73	37624.11
689.86	37010.89
690.00	36685.56
690.13	37158.34
690.27	37163.03
690.41	37296.44
690.54	37326.86
690.68	36589.59
690.81	36545.12
690.95	35962.33
691.08	36023.19
691.22	35634.66
691.35	36126.17
691.49	35651.04
691.62	35889.77
691.76	35110.38
691.89	35566.78
692.03	35014.41
692.16	35283.58
692.30	34878.66
692.43	35220.38
692.57	34501.84
692.70	34513.54
692.84	34471.41
692.97	34227.99
693.11	34279.49
693.24	33855.85
693.38	33546.90
693.51	33567.96
693.65	33684.99
693.78	33130.28
693.92	33230.93
694.05	33057.73
694.19	32629.41
694.32	33212.20
694.45	33057.73
694.59	32481.95
694.72	32327.48
694.86	32105.13
694.99	32198.75
695.13	31735.32
695.26	31587.87
695.39	31292.96
695.53	31536.38
695.66	31667.45
695.80	31269.56
695.93	30925.50
696.07	30312.28
696.20	30363.77
696.33	30866.98
696.47	30370.79
696.60	30515.90
696.73	30457.39
696.87	30085.25
697.00	30188.23
697.14	29996.31
697.27	29638.20
697.40	29577.35
697.54	29619.48
697.67	29411.17
697.80	29266.06
697.94	29364.36
698.07	28683.27
698.21	28676.24
698.34	28851.78
698.47	28442.19
698.61	28224.52
698.74	28233.88
698.87	28154.30
699.01	27899.19
699.14	28144.94
699.27	28390.70
699.40	28177.71
699.54	27583.21
699.67	27400.65
699.80	27583.21
699.94	26967.65
700.07	27372.57
700.20	26738.28
700.34	26909.14
700.47	26352.09
700.60	26286.56
700.73	26321.66
700.87	25968.24
701.00	25675.68
701.13	25415.88
701.26	25771.64
701.40	25605.46
701.53	25469.71
701.66	25418.22
701.79	25373.75
701.93	25275.45
702.06	25064.80
702.19	24912.66
702.32	25032.03
702.46	24732.44
702.59	24524.13
702.72	24390.72
702.85	24514.77
702.99	24411.79
703.12	24067.73
703.25	23990.49
703.38	23861.76
703.51	23623.03
703.65	23431.10
703.78	23260.24
703.91	23208.75
704.04	23171.30
704.17	23042.57
704.31	22939.59
704.44	22649.36
704.57	22759.37
704.70	22558.08
704.83	22574.47
704.96	22569.79
705.10	22202.32
705.23	21994.01
>>>>>End Processed Spectral Data<<<<<
