SpectraSuite Data File
++++++++++++++++++++++++++++++++++++
Date: Fri Oct 25 10:44:51 EDT 2013
User: price-jones
Dark Spectrum Present: No
Reference Spectrum Present: No
Number of Sampled Component Spectra: 1
Spectrometers: USB2+H05261
Integration Time (usec): 100000 (USB2+H05261)
Spectra Averaged: 1 (USB2+H05261)
Boxcar Smoothing: 0 (USB2+H05261)
Correct for Electrical Dark: No (USB2+H05261)
Strobe/Lamp Enabled: No (USB2+H05261)
Correct for Detector Non-linearity: No (USB2+H05261)
Correct for Stray Light: No (USB2+H05261)
Number of Pixels in Processed Spectrum: 2048
>>>>>Begin Processed Spectral Data<<<<<
365.73	9.36
365.92	9.36
366.12	9.36
366.32	23.41
366.52	42.13
366.72	42.13
366.91	37.45
367.11	14.04
367.31	44.47
367.51	11.70
367.70	56.17
367.90	18.72
368.10	25.75
368.30	11.70
368.49	42.13
368.69	42.13
368.89	56.17
369.09	53.83
369.28	65.54
369.48	77.24
369.68	81.92
369.87	126.39
370.07	117.03
370.27	187.24
370.47	131.07
370.66	322.99
370.86	355.76
371.06	411.93
371.25	416.62
371.45	484.49
371.65	524.28
371.84	379.17
372.04	451.72
372.24	435.34
372.44	430.66
372.63	613.22
372.83	500.87
373.03	449.38
373.22	578.11
373.42	507.90
373.62	517.26
373.81	545.34
374.01	578.11
374.21	559.39
374.40	519.60
374.60	543.00
374.79	564.07
374.99	589.82
375.19	550.03
375.38	540.66
375.58	592.16
375.78	575.77
375.97	533.64
376.17	676.41
376.37	580.45
376.56	610.88
376.76	526.62
376.95	564.07
377.15	568.75
377.35	589.82
377.54	559.39
377.74	653.01
377.93	564.07
378.13	592.16
378.33	627.26
378.52	671.73
378.72	634.29
378.91	648.33
379.11	601.52
379.31	660.03
379.50	641.31
379.70	631.94
379.89	631.94
380.09	582.79
380.28	655.35
380.48	676.41
380.68	610.88
380.87	603.86
381.07	629.60
381.26	770.04
381.46	599.18
381.65	650.67
381.85	636.63
382.04	678.76
382.24	631.94
382.43	690.46
382.63	671.73
382.83	648.33
383.02	711.52
383.22	695.14
383.41	634.29
383.61	753.65
383.80	681.10
384.00	655.35
384.19	758.33
384.39	667.05
384.58	718.54
384.78	786.42
384.97	734.93
385.17	770.04
385.36	758.33
385.56	737.27
385.75	730.25
385.95	716.20
386.14	690.46
386.34	816.85
386.53	837.91
386.72	802.80
386.92	805.14
387.11	819.19
387.31	901.11
387.50	699.82
387.70	912.81
387.89	870.68
388.09	805.14
388.28	835.57
388.48	788.76
388.67	898.77
388.86	835.57
389.06	875.36
389.25	887.06
389.45	908.13
389.64	926.85
389.84	833.23
390.03	889.40
390.22	910.47
390.42	915.15
390.61	926.85
390.81	903.45
391.00	919.83
391.19	1015.79
391.39	1034.52
391.58	877.70
391.78	922.17
391.97	1027.50
392.16	1029.84
392.36	1036.86
392.55	908.13
392.75	1004.09
392.94	898.77
393.13	952.60
393.33	999.41
393.52	929.19
393.71	1055.58
393.91	1015.79
394.10	978.34
394.29	1074.31
394.49	1144.52
394.68	1114.10
394.88	1146.86
395.07	1121.12
395.26	1086.01
395.46	1060.26
395.65	1015.79
395.84	1121.12
396.04	1137.50
396.23	1191.33
396.42	1071.97
396.62	1144.52
396.81	1144.52
397.00	1132.82
397.19	1153.88
397.39	1245.16
397.58	1235.80
397.77	1270.91
397.97	1310.70
398.16	1310.70
398.35	1254.53
398.55	1245.16
398.74	1329.42
398.93	1350.49
399.12	1383.26
399.32	1324.74
399.51	1327.08
399.70	1387.94
399.90	1345.81
400.09	1432.41
400.28	1373.89
400.47	1441.77
400.67	1458.15
400.86	1406.66
401.05	1418.36
401.24	1467.52
401.44	1516.67
401.63	1448.79
401.82	1437.09
402.01	1409.00
402.21	1502.62
402.40	1458.15
402.59	1458.15
402.78	1479.22
402.97	1540.07
403.17	1582.20
403.36	1591.56
403.55	1631.35
403.74	1607.95
403.93	1654.76
404.13	1610.29
404.32	1673.48
404.51	1661.78
404.70	1659.44
404.89	1729.66
405.09	1739.02
405.28	1685.19
405.47	1811.57
405.66	1797.53
405.85	1825.62
406.05	1767.10
406.24	1708.59
406.43	1846.68
406.62	1830.30
406.81	1860.73
407.00	1856.04
407.20	1755.40
407.39	1914.56
407.58	1895.83
407.77	2012.86
407.96	1881.79
408.15	1909.88
408.34	1928.60
408.54	2008.18
408.73	1921.58
408.92	1977.75
409.11	2113.50
409.30	2054.99
409.49	2012.86
409.68	1982.43
409.87	2064.35
410.07	2188.40
410.26	2090.10
410.45	2232.87
410.64	2181.38
410.83	2207.13
411.02	2148.61
411.21	2249.25
411.40	2183.72
411.59	2267.98
411.78	2352.24
411.98	2314.79
412.17	2216.49
412.36	2333.51
412.55	2417.77
412.74	2471.61
412.93	2399.05
413.12	2389.69
413.31	2572.25
413.50	2448.20
413.69	2612.04
413.88	2593.31
414.07	2558.21
414.26	2703.32
414.45	2562.89
414.64	2579.27
414.83	2651.83
415.02	2705.66
415.22	2806.30
415.41	2780.56
415.60	2745.45
415.79	2778.22
415.98	2834.39
416.17	2825.03
416.36	2832.05
416.55	2920.99
416.74	2846.09
416.93	2750.13
417.12	2953.76
417.31	2895.24
417.50	3115.25
417.69	3119.93
417.88	3073.12
418.07	2930.35
418.26	3105.89
418.45	3131.64
418.64	3169.09
418.83	3169.09
419.02	3176.11
419.21	3288.45
419.39	3150.36
419.58	3166.74
419.77	3126.96
419.96	3166.74
420.15	3389.10
420.34	3215.90
420.53	3290.79
420.72	3403.14
420.91	3351.65
421.10	3400.80
421.29	3445.27
421.48	3353.99
421.67	3459.31
421.86	3283.77
422.05	3482.72
422.24	3449.95
422.43	3442.93
422.61	3393.78
422.80	3431.23
422.99	3578.68
423.18	3513.14
423.37	3611.45
423.56	3667.62
423.75	3555.27
423.94	3660.60
424.13	3421.86
424.32	3424.20
424.50	3639.53
424.69	3653.58
424.88	3613.79
425.07	3531.87
425.26	3445.27
425.45	3527.19
425.64	3676.98
425.83	3471.01
426.01	3660.60
426.20	3634.85
426.39	3712.09
426.58	3627.83
426.77	3513.14
426.96	3552.93
427.15	3768.26
427.33	3625.49
427.52	3684.00
427.71	3634.85
427.90	3754.22
428.09	3847.84
428.28	3751.88
428.46	3786.99
428.65	3815.07
428.84	3861.88
429.03	3824.44
429.22	3676.98
429.40	3634.85
429.59	3754.22
429.78	3658.26
429.97	3529.53
430.16	3749.54
430.34	3854.86
430.53	3976.57
430.72	3955.51
430.91	3857.20
431.10	4037.42
431.28	3943.80
431.47	4156.79
431.66	4292.54
431.85	3960.19
432.03	4219.99
432.22	4245.73
432.41	4203.60
432.60	4140.41
432.79	4149.77
432.97	4320.63
433.16	4208.28
433.35	4070.19
433.54	4353.40
433.72	4294.88
433.91	4212.96
434.10	4259.78
434.28	4290.20
434.47	4395.53
434.66	4458.72
434.85	4428.29
435.03	4514.89
435.22	4463.40
435.41	4592.13
435.59	4531.28
435.78	4517.23
435.97	4624.90
436.16	4713.84
436.34	4751.29
436.53	4645.96
436.72	4660.01
436.90	4674.05
437.09	4615.54
437.28	4613.20
437.46	4641.28
437.65	4734.90
437.84	4692.77
438.02	4805.12
438.21	4578.09
438.40	4774.69
438.58	5001.72
438.77	5050.88
438.96	4877.68
439.14	4985.34
439.33	4924.49
439.52	5118.75
439.70	5193.65
439.89	5198.33
440.08	5107.05
440.26	5043.85
440.45	5177.26
440.63	5327.06
440.82	5472.17
441.01	5296.63
441.19	5369.19
441.38	5453.45
441.57	5621.97
441.75	5631.33
441.94	5746.02
442.12	5628.99
442.31	5764.74
442.50	5664.10
442.68	5675.80
442.87	5579.84
443.05	5685.16
443.24	5970.71
443.43	5827.93
443.61	5818.57
443.80	6106.46
443.98	5760.06
444.17	5577.50
444.35	5870.06
444.54	5788.14
444.73	5771.76
444.91	5886.45
445.10	5823.25
445.28	5738.99
445.47	5987.09
445.65	5572.82
445.84	5860.70
446.02	6167.31
446.21	6003.47
446.39	5935.60
446.58	5980.07
446.77	5954.32
446.95	5813.89
447.14	5888.79
447.32	6157.95
447.51	6008.16
447.69	5987.09
447.88	6080.71
448.06	6033.90
448.25	5870.06
448.43	6207.10
448.62	6008.16
448.80	5951.98
448.99	6066.67
449.17	6270.30
449.36	6204.76
449.54	6293.70
449.73	6429.45
449.91	6399.02
450.10	6457.54
450.28	6518.39
450.46	6417.75
450.65	6375.62
450.83	6504.35
451.02	6581.59
451.20	6471.58
451.39	6546.48
451.57	6450.52
451.76	6504.35
451.94	6590.95
452.13	6427.11
452.31	6445.84
452.49	6497.33
452.68	6541.80
452.86	6717.34
453.05	6693.93
453.23	6773.51
453.42	6476.26
453.60	6581.59
453.78	6590.95
453.97	6438.81
454.15	6810.96
454.34	6649.46
454.52	6895.22
454.70	6832.02
454.89	6693.93
455.07	6654.14
455.26	6715.00
455.44	6878.83
455.62	6930.33
455.81	7019.27
455.99	7045.01
456.17	6960.75
456.36	7016.93
456.54	7136.29
456.73	7152.68
456.91	7318.86
457.09	7293.11
457.28	7377.37
457.46	7197.15
457.64	7337.58
457.83	7414.82
458.01	7300.13
458.19	7412.48
458.38	7382.05
458.56	7424.18
458.74	7382.05
458.93	7384.39
459.11	7314.17
459.29	7569.29
459.48	7686.32
459.66	7508.44
459.84	7506.10
460.03	7578.65
460.21	7555.25
460.39	7487.37
460.57	7597.38
460.76	7632.49
460.94	7798.66
461.12	7798.66
461.31	7850.16
461.49	7655.89
461.67	7637.17
461.85	7880.58
462.04	7882.92
462.22	7990.59
462.40	8100.59
462.59	7981.23
462.77	8088.89
462.95	8065.49
463.13	8018.68
463.32	8088.89
463.50	8133.36
463.68	8135.70
463.86	8088.89
464.05	8004.63
464.23	8133.36
464.41	8159.11
464.59	8229.32
464.78	8308.90
464.96	8135.70
465.14	8304.22
465.32	8355.71
465.50	8259.75
465.69	8318.26
465.87	8236.35
466.05	8507.85
466.23	8308.90
466.41	8294.86
466.60	8566.36
466.78	8395.50
466.96	8360.39
467.14	8589.77
467.32	8456.36
467.51	8713.81
467.69	8250.39
467.87	8648.28
468.05	8786.37
468.23	8491.46
468.41	8594.45
468.60	8697.43
468.78	8627.21
468.96	8484.44
469.14	8840.20
469.32	8903.40
469.50	8594.45
469.69	8879.99
469.87	8753.60
470.05	8905.74
470.23	9039.15
470.41	8919.78
470.59	8884.67
470.77	9008.72
470.95	9153.84
471.14	9289.59
471.32	9022.77
471.50	9357.46
471.68	9252.14
471.86	9488.53
472.04	9476.83
472.22	9701.52
472.40	9341.08
472.58	9427.68
472.77	9441.72
472.95	9626.62
473.13	9912.17
473.31	9596.20
473.49	9790.46
473.67	9610.24
473.85	9605.56
474.03	9970.68
474.21	9879.40
474.39	9888.76
474.57	10169.63
474.75	10068.98
474.93	10186.01
475.12	9961.32
475.30	10270.27
475.48	10026.86
475.66	10211.76
475.84	10071.33
476.02	10321.76
476.20	10209.42
476.38	10633.05
476.56	10824.98
476.74	10843.70
476.92	10546.45
477.10	10668.16
477.28	10932.64
477.46	10939.66
477.64	11012.22
477.82	11321.17
478.00	11302.45
478.18	11466.28
478.36	11482.67
478.54	11590.33
478.72	11510.75
478.90	11735.45
479.08	11889.92
479.26	12217.60
479.44	11955.46
479.62	12105.25
479.80	12074.82
479.98	12212.92
480.16	12285.47
480.34	12351.01
480.52	12704.43
480.70	12444.63
480.88	12704.43
481.06	12634.21
481.24	12746.56
481.41	13083.59
481.59	13060.19
481.77	13418.29
481.95	13195.94
482.13	13327.01
482.31	13228.71
482.49	13635.96
482.67	13490.85
482.85	13570.43
483.03	13795.12
483.21	13825.54
483.39	13877.04
483.57	13937.89
483.74	14363.87
483.92	14185.99
484.10	14090.02
484.28	14700.90
484.46	14836.66
484.64	14913.89
484.82	14963.04
485.00	14766.44
485.18	15253.27
485.35	15414.77
485.53	15117.52
485.71	15103.48
485.89	15527.11
486.07	15257.95
486.25	15515.41
486.43	15754.15
486.61	15913.30
486.78	15864.15
486.96	16133.31
487.14	16390.77
487.32	16166.08
487.50	16276.09
487.68	16589.72
487.85	16669.30
488.03	17071.87
488.21	16896.33
488.39	17231.02
488.57	17146.76
488.75	17139.74
488.92	17621.89
489.10	17785.73
489.28	17912.12
489.46	18148.51
489.64	18068.94
489.81	18277.24
489.99	18656.41
490.17	18614.28
490.35	18387.25
490.53	18499.59
490.70	18773.44
490.88	18789.82
491.06	19243.88
491.24	19171.33
491.41	19061.32
491.59	19274.31
491.77	19316.44
491.95	19491.98
492.13	19594.96
492.30	19667.52
492.48	19754.12
492.66	20119.24
492.84	19796.25
493.01	20292.44
493.19	20100.52
493.37	20699.70
493.54	20446.92
493.72	20868.22
493.90	20926.73
494.08	21209.93
494.25	21369.09
494.43	21233.34
494.61	21364.41
494.79	21570.38
494.96	21273.13
495.14	21528.25
495.32	22022.10
495.49	21521.23
495.67	21869.97
495.85	22335.73
496.02	22424.67
496.20	22218.71
496.38	22494.89
496.55	22583.83
496.73	23381.95
496.91	22635.32
497.09	22878.74
497.26	23026.19
497.44	23248.54
497.62	23110.45
497.79	23264.92
497.97	23428.76
498.14	24034.96
498.32	23548.13
498.50	23889.85
498.67	24166.03
498.85	23812.61
499.03	24058.37
499.20	24290.08
499.38	24556.90
499.56	24409.45
499.73	24535.84
499.91	24376.68
500.08	24166.03
500.26	24458.60
500.44	24828.40
500.61	24716.06
500.79	24690.31
500.97	25039.05
501.14	24915.00
501.32	25268.42
501.49	25270.76
501.67	25699.08
501.84	25413.54
502.02	25448.64
502.20	25790.36
502.37	25862.92
502.55	25652.27
502.72	26064.21
502.90	26054.84
503.07	25933.14
503.25	25977.61
503.43	26195.28
503.60	26082.93
503.78	26270.17
503.95	26061.87
504.13	26377.84
504.30	26621.25
504.48	26747.64
504.65	26672.74
504.83	26841.26
505.01	27105.74
505.18	26852.97
505.36	27740.03
505.53	27438.10
505.71	27250.86
505.88	27513.00
506.06	27131.49
506.23	27515.34
506.41	27711.94
506.58	27393.63
506.76	27578.53
506.93	27770.46
507.11	27632.36
507.28	27749.39
507.46	28208.14
507.63	28107.49
507.81	28439.85
507.98	28100.47
508.16	28496.02
508.33	28575.60
508.50	28439.85
508.68	29099.88
508.85	29193.50
509.03	28676.24
509.20	28727.74
509.38	29055.41
509.55	29153.71
509.73	29446.28
509.90	29518.84
510.08	29160.73
510.25	29493.09
510.42	29680.33
510.60	29582.03
510.77	29479.05
510.95	29806.72
511.12	29378.40
511.30	29907.37
511.47	29757.57
511.64	30202.27
511.82	29979.92
511.99	29727.14
512.17	30139.08
512.34	30260.79
512.51	30602.50
512.69	30197.59
512.86	30684.42
513.04	30724.21
513.21	31091.68
513.38	30646.97
513.56	30731.23
513.73	30352.07
513.90	31103.38
514.08	30822.51
514.25	31014.44
514.43	30909.11
514.60	31438.08
514.77	31311.69
514.95	31517.65
515.12	31082.31
515.29	31227.43
515.47	31405.31
515.64	31763.41
515.81	31440.42
515.99	31236.79
516.16	31622.98
516.33	31498.93
516.51	31842.99
516.68	31189.98
516.85	31648.72
517.03	31571.49
517.20	31552.76
517.37	31995.12
517.54	32009.17
517.72	32086.40
517.89	32116.83
518.06	32142.58
518.24	32184.71
518.41	32266.63
518.58	32547.49
518.75	32596.64
518.93	32659.84
519.10	32451.53
519.27	32659.84
519.45	32563.87
519.62	33102.20
519.79	32940.70
519.96	33273.06
520.14	33443.91
520.31	32980.49
520.48	33193.48
520.65	33535.20
520.83	33500.09
521.00	33673.29
521.17	33284.76
521.34	34249.06
521.52	34220.97
521.69	33893.30
521.86	33921.38
522.03	34125.01
522.20	34265.44
522.38	34389.49
522.55	34384.81
522.72	34242.04
522.89	34174.16
523.07	34703.12
523.24	34216.29
523.41	34642.27
523.58	34724.19
523.75	35253.15
523.92	34848.24
524.10	34527.58
524.27	35079.95
524.44	35009.73
524.61	35304.64
524.78	35201.66
524.96	35662.74
525.13	35704.87
525.30	35648.70
525.47	35545.72
525.64	35550.40
525.81	35784.45
525.98	35564.44
526.16	35421.67
526.33	35452.09
526.50	35494.22
526.67	35309.32
526.84	35325.71
527.01	35395.92
527.18	35648.70
527.36	36116.81
527.53	35899.14
527.70	36198.73
527.87	36046.59
528.04	36013.82
528.21	36114.47
528.38	36198.73
528.55	36418.74
528.72	36517.04
528.89	36718.32
529.07	36446.82
529.24	36594.28
529.41	36657.47
529.58	36779.18
529.75	36451.50
529.92	36659.81
530.09	36865.78
530.26	37090.47
530.43	37050.68
530.60	36870.46
530.77	36776.84
530.94	37226.22
531.11	36723.01
531.28	37654.54
531.46	37401.76
531.63	37469.64
531.80	37130.26
531.97	37209.84
532.14	37383.04
532.31	37357.29
532.48	37359.63
532.65	37420.48
532.82	37450.91
532.99	37771.57
533.16	37387.72
533.33	37904.98
533.50	38087.54
533.67	37968.17
533.84	37537.51
534.01	37876.89
534.18	37680.28
534.35	38192.86
534.52	38267.76
534.69	38368.40
534.86	38286.48
535.03	38146.05
535.20	38623.52
535.37	38885.66
535.54	38836.51
535.71	38567.35
535.88	38817.78
536.05	38274.78
536.22	38480.75
536.38	38726.50
536.55	38497.13
536.72	38719.48
536.89	38340.32
537.06	38775.66
537.23	38838.85
537.40	38443.30
537.57	38953.54
537.74	39075.24
537.91	39138.44
538.08	38703.10
538.25	39173.55
538.42	38841.19
538.59	39271.85
538.75	39124.40
538.92	39117.37
539.09	39227.38
539.26	39267.17
539.43	39189.93
539.60	39313.98
539.77	38649.27
539.94	39110.35
540.11	39218.02
540.28	39728.25
540.44	39463.77
540.61	39592.50
540.78	39000.35
540.95	39442.71
541.12	39131.42
541.29	39796.13
541.46	39419.30
541.62	39421.64
541.79	39765.70
541.96	39541.01
542.13	39730.59
542.30	39583.14
542.47	39648.68
542.63	40074.65
542.80	40095.72
542.97	40814.26
543.14	40446.80
543.31	40673.83
543.48	40823.62
543.64	41067.04
543.81	40467.86
543.98	40802.56
544.15	40683.19
544.32	40776.81
544.48	40601.27
544.65	40545.10
544.82	40435.10
544.99	40809.58
545.16	40940.65
545.32	40816.60
545.49	41329.18
545.66	41542.17
545.83	41254.28
546.00	41366.63
546.16	41092.79
546.33	40662.13
546.50	40561.48
546.67	40676.17
546.83	40788.52
547.00	41038.95
547.17	40989.80
547.34	40928.95
547.50	41638.13
547.67	41380.67
547.84	41572.60
548.00	41886.23
548.17	41979.85
548.34	41708.35
548.51	41977.51
548.67	42103.90
548.84	41750.48
549.01	41771.54
549.18	41378.33
549.34	41918.99
549.51	41752.82
549.68	41883.89
549.84	42164.75
550.01	42136.66
550.18	41956.44
550.34	41965.81
550.51	42026.66
550.68	41914.31
550.84	41635.79
551.01	41581.96
551.18	42103.90
551.34	41823.03
551.51	42731.16
551.68	42230.29
551.84	41900.27
552.01	42590.73
552.18	42330.93
552.34	42092.19
552.51	42487.74
552.68	42515.83
552.84	42120.28
553.01	42192.84
553.18	42202.20
553.34	42572.00
553.51	42103.90
553.67	42356.67
553.84	42590.73
554.01	42698.39
554.17	42719.46
554.34	42583.71
554.51	42864.57
554.67	42885.64
554.84	42443.27
555.00	42857.55
555.17	42249.01
555.33	43051.81
555.50	42817.76
555.67	42733.50
555.83	43105.65
556.00	42733.50
556.16	43049.47
556.33	42923.08
556.50	42738.18
556.66	43292.89
556.83	42440.93
556.99	43227.35
557.16	43161.82
557.32	43634.61
557.49	43051.81
557.65	43147.78
557.82	42909.04
557.98	43419.28
558.15	43353.74
558.32	43339.70
558.48	43124.37
558.65	43079.90
558.81	42824.78
558.98	43295.23
559.14	43491.83
559.31	43377.15
559.47	43220.33
559.64	43564.39
559.80	43405.23
559.97	43292.89
560.13	43311.61
560.30	43117.35
560.46	43274.16
560.63	43433.32
560.79	44013.77
560.96	43814.83
561.12	43674.40
561.29	43620.56
561.45	43583.12
561.61	43552.69
561.78	43515.24
561.94	43985.69
562.11	43594.82
562.27	43665.03
562.44	43489.49
562.60	44175.27
562.77	43700.14
562.93	43484.81
563.10	44016.11
563.26	43442.68
563.42	43901.43
563.59	43885.04
563.75	43737.59
563.92	44128.46
564.08	43798.44
564.24	44060.58
564.41	43894.41
564.57	43622.90
564.74	43608.86
564.90	43695.46
565.07	44130.80
565.23	43508.22
565.39	43777.38
565.56	43969.30
565.72	43732.91
565.88	44135.48
566.05	44053.56
566.21	43658.01
566.38	43723.55
566.54	44336.77
566.70	43775.04
566.87	44250.17
567.03	44224.42
567.19	44205.70
567.36	43833.55
567.52	44065.27
567.68	44009.09
567.85	44367.20
568.01	43871.00
568.17	43999.73
568.34	43913.13
568.50	44081.65
568.66	43849.94
568.83	44116.76
568.99	44205.70
569.15	43798.44
569.32	43723.55
569.48	43873.34
569.64	43885.04
569.81	44032.50
569.97	44055.90
570.13	44219.74
570.30	43782.06
570.46	44231.44
570.62	43821.85
570.78	43735.25
570.95	44437.41
571.11	44252.51
571.27	43840.57
571.43	43992.71
571.60	43997.39
571.76	43934.20
571.92	44374.22
572.09	44435.07
572.25	44273.57
572.41	43796.10
572.57	44549.76
572.74	44524.01
572.90	44774.45
573.06	44343.79
573.22	43936.54
573.38	44395.28
573.55	44236.12
573.71	43962.28
573.87	44598.91
574.03	43995.05
574.20	44608.27
574.36	43959.94
574.52	44229.10
574.68	44701.89
574.84	44390.60
575.01	44048.88
575.17	44327.41
575.33	44130.80
575.49	44119.10
575.65	44989.78
575.82	44821.26
575.98	44383.58
576.14	44732.32
576.30	44463.16
576.46	44102.71
576.62	44142.50
576.79	44516.99
576.95	44041.86
577.11	44245.49
577.27	44446.77
577.43	44652.74
577.59	44444.43
577.75	44296.98
577.92	43981.01
578.08	44128.46
578.24	43983.35
578.40	44509.97
578.56	44374.22
578.72	44624.65
578.88	44488.90
579.04	44687.85
579.21	44409.32
579.37	44292.30
579.53	44690.19
579.69	44360.17
579.85	44598.91
580.01	44589.55
580.17	44514.65
580.33	44507.63
580.49	44718.28
580.65	44802.53
580.82	44657.42
580.98	44715.93
581.14	44289.96
581.30	44636.36
581.46	44692.53
581.62	44561.46
581.78	44814.24
581.94	44687.85
582.10	44465.50
582.26	44676.15
582.42	44804.88
582.58	44598.91
582.74	44568.48
582.90	45123.19
583.06	44737.00
583.22	44617.63
583.38	44641.04
583.54	44418.69
583.70	44842.32
583.86	45109.14
584.02	44112.08
584.18	45067.02
584.34	44568.48
584.50	44634.02
584.66	44142.50
584.82	44619.97
584.98	44786.15
585.14	44390.60
585.30	44673.81
585.46	44685.51
585.62	44205.70
585.78	44502.95
585.94	44561.46
586.10	44760.40
586.26	44399.96
586.42	44814.24
586.58	44706.57
586.74	44676.15
586.90	44795.51
587.06	44116.76
587.22	44849.35
587.38	44825.94
587.54	44502.95
587.70	44877.43
587.86	44507.63
588.02	44800.19
588.18	44779.13
588.34	44479.54
588.49	44353.15
588.65	44296.98
588.81	44320.38
588.97	44116.76
589.13	44409.32
589.29	44343.79
589.45	44456.14
589.61	44626.99
589.77	44854.03
589.93	44758.06
590.08	44797.85
590.24	44964.03
590.40	45287.03
590.56	44854.03
590.72	45043.61
590.88	44603.59
591.04	45228.51
591.20	45411.07
591.35	45188.72
591.51	45118.51
591.67	45155.96
591.83	45247.24
591.99	44968.71
592.15	44924.24
592.31	44774.45
592.46	44964.03
592.62	44673.81
592.78	45034.25
592.94	45291.71
593.10	45013.18
593.26	45553.85
593.41	44631.68
593.57	44912.54
593.73	44608.27
593.89	45151.27
594.05	45078.72
594.20	45081.06
594.36	45167.66
594.52	44577.84
594.68	44795.51
594.84	44619.97
594.99	45247.24
595.15	45034.25
595.31	45123.19
595.47	45188.72
595.62	45001.48
595.78	45207.45
595.94	44971.05
596.10	45294.05
596.25	45083.40
596.41	45268.30
596.57	44842.32
596.73	45310.43
596.88	44617.63
597.04	44994.46
597.20	44589.55
597.36	45052.97
597.51	45282.34
597.67	45258.94
597.83	45359.58
597.99	45324.47
598.14	45106.80
598.30	44961.69
598.46	45045.95
598.61	44933.60
598.77	44549.76
598.93	44659.76
599.09	44797.85
599.24	45139.57
599.40	45652.15
599.56	44861.05
599.71	44985.10
599.87	45322.13
600.03	45106.80
600.18	45027.23
600.34	44622.31
600.50	44980.42
600.65	44856.37
600.81	44722.96
600.97	45359.58
601.12	45378.31
601.28	45235.53
601.44	44985.10
601.59	45001.48
601.75	44591.89
601.91	44744.02
602.06	44556.78
602.22	45226.17
602.37	44971.05
602.53	45483.63
602.69	45460.23
602.84	44992.12
603.00	44900.84
603.16	44999.14
603.31	44568.48
603.47	44921.90
603.62	44844.66
603.78	44921.90
603.94	45177.02
604.09	45038.93
604.25	44868.07
604.40	44704.23
604.56	45071.70
604.71	45148.93
604.87	44577.84
605.03	44779.13
605.18	44472.52
605.34	44849.35
605.49	44397.62
605.65	44542.74
605.80	45125.53
605.96	44814.24
606.12	44797.85
606.27	45188.72
606.43	44816.58
606.58	44657.42
606.74	44540.39
606.89	45099.78
607.05	45071.70
607.20	44966.37
607.36	44360.17
607.51	45052.97
607.67	45062.33
607.82	44556.78
607.98	44748.70
608.13	44697.21
608.29	44713.59
608.44	44144.84
608.60	44362.51
608.75	44453.79
608.91	44847.00
609.06	44531.03
609.22	44753.38
609.37	43978.67
609.53	44430.39
609.68	44320.38
609.84	44673.81
609.99	44605.93
610.15	44020.80
610.30	44229.10
610.46	44238.47
610.61	44208.04
610.76	44388.26
610.92	44634.02
611.07	44371.88
611.23	44444.43
611.38	44479.54
611.54	43976.33
611.69	44055.90
611.84	44264.21
612.00	44201.02
612.15	44020.80
612.31	44500.61
612.46	43943.56
612.62	44374.22
612.77	44023.14
612.92	44355.49
613.08	43557.37
613.23	44285.28
613.39	44126.12
613.54	43950.58
613.69	44313.36
613.85	44098.03
614.00	43976.33
614.15	44526.35
614.31	44343.79
614.46	44308.68
614.62	44091.01
614.77	44069.95
614.92	44210.38
615.08	43683.76
615.23	43746.95
615.38	43622.90
615.54	43959.94
615.69	43503.54
615.84	43428.64
616.00	44210.38
616.15	43491.83
616.30	43840.57
616.46	43555.03
616.61	43618.22
616.76	43449.70
616.92	43147.78
617.07	43477.79
617.22	43407.58
617.37	43590.14
617.53	43316.29
617.68	43931.86
617.83	43737.59
617.99	43793.76
618.14	43667.37
618.29	43428.64
618.45	43313.95
618.60	43693.12
618.75	43016.71
618.90	43271.82
619.06	43683.76
619.21	43552.69
619.36	43805.47
619.51	42827.12
619.67	43248.42
619.82	43475.45
619.97	43800.79
620.12	43398.21
620.28	42817.76
620.43	43442.68
620.58	42995.64
620.73	43325.66
620.89	42955.85
621.04	42934.79
621.19	42937.13
621.34	43157.14
621.49	42864.57
621.65	42572.00
621.80	43068.20
621.95	43026.07
622.10	43037.77
622.25	42574.34
622.41	42557.96
622.56	42604.77
622.71	43058.84
622.86	42522.85
623.01	42843.51
623.16	42199.86
623.32	42309.86
623.47	42780.31
623.62	42408.17
623.77	42412.85
623.92	42464.34
624.07	42492.43
624.23	42869.25
624.38	42274.76
624.53	42300.50
624.68	42298.16
624.83	42670.31
624.98	42216.24
625.13	42387.10
625.29	42501.79
625.44	42361.36
625.59	41869.84
625.74	41752.82
625.89	41897.93
626.04	41495.36
626.19	41949.42
626.34	42134.32
626.49	42171.77
626.65	42239.65
626.80	42384.76
626.95	41741.11
627.10	41729.41
627.25	42092.19
627.40	41633.45
627.55	41397.06
627.70	41116.19
627.85	41312.80
628.00	41455.57
628.15	41249.60
628.30	41170.02
628.45	41804.31
628.60	41741.11
628.76	41549.19
628.91	41647.49
629.06	41551.53
629.21	41778.56
629.36	41518.76
629.51	41497.70
629.66	41233.22
629.81	41219.17
629.96	41436.84
630.11	41303.43
630.26	41635.79
630.41	41504.72
630.56	41230.88
630.71	41670.90
630.86	41069.38
631.01	40884.48
631.16	41146.62
631.31	40952.35
631.46	40776.81
631.61	41317.48
631.76	41294.07
631.91	41067.04
632.06	41214.49
632.21	40821.28
632.36	41385.35
632.51	41027.25
632.66	40940.65
632.81	40711.28
632.96	41380.67
633.10	40589.57
633.25	40706.60
633.40	40975.76
633.55	40877.46
633.70	40821.28
633.85	40407.01
634.00	40758.09
634.15	40849.37
634.30	40935.97
634.45	40837.67
634.60	40921.93
634.75	40517.01
634.90	40439.78
635.05	40472.54
635.19	40306.37
635.34	40336.79
635.49	40191.68
635.64	40308.71
635.79	40411.69
635.94	40383.60
636.09	40598.93
636.24	39995.07
636.39	40460.84
636.53	39889.75
636.68	40240.83
636.83	40591.91
636.98	40409.35
637.13	39695.49
637.28	39899.11
637.43	39992.73
637.57	40149.55
637.72	40069.97
637.87	39847.62
638.02	40212.74
638.17	40109.76
638.32	39962.31
638.46	39964.65
638.61	39903.79
638.76	39859.32
638.91	39725.91
639.06	39594.84
639.20	39915.50
639.35	40240.83
639.50	39503.56
639.65	39833.58
639.80	40133.17
639.94	39922.52
640.09	39533.99
640.24	39552.71
640.39	39075.24
640.54	39299.94
640.68	39824.22
640.83	40196.36
640.98	39501.22
641.13	39292.91
641.27	39665.06
641.42	39538.67
641.57	39557.39
641.72	39311.64
641.86	38944.17
642.01	39056.52
642.16	39089.29
642.31	38792.04
642.45	39482.50
642.60	39159.50
642.75	39309.30
642.90	39388.88
643.04	39267.17
643.19	39487.18
643.34	38841.19
643.48	39189.93
643.63	38649.27
643.78	38827.15
643.93	38920.77
644.07	38670.33
644.22	38574.37
644.37	38855.23
644.51	38773.31
644.66	38939.49
644.81	39402.92
644.95	39033.11
645.10	38878.64
645.25	38763.95
645.39	39082.27
645.54	38761.61
645.69	38773.31
645.83	39028.43
645.98	38724.16
646.13	38417.55
646.27	39236.74
646.42	38499.47
646.57	38625.86
646.71	38686.71
646.86	38455.00
647.00	38700.76
647.15	38785.02
647.30	38766.29
647.44	38677.35
647.59	38354.36
647.74	38239.67
647.88	38447.98
648.03	38667.99
648.17	38691.40
648.32	38176.48
648.47	38637.56
648.61	38398.83
648.76	38469.04
648.90	38389.47
649.05	38141.37
649.20	38073.49
649.34	38511.17
649.49	37935.40
649.63	38162.43
649.78	38391.81
649.92	37827.74
650.07	38256.06
650.21	38206.90
650.36	37867.53
650.51	37893.27
650.65	38270.10
650.80	38373.08
650.94	37858.17
651.09	38363.72
651.23	37249.63
651.38	37982.21
651.52	38019.66
651.67	37876.89
651.81	37439.21
651.96	37841.78
652.10	37359.63
652.25	37748.16
652.39	37801.99
652.54	37904.98
652.68	37684.97
652.83	38036.05
652.97	37736.46
653.12	37099.83
653.26	37347.93
653.41	37354.95
653.55	37317.50
653.70	37207.50
653.84	37488.36
653.99	37280.05
654.13	37551.56
654.27	37507.08
654.42	37050.68
654.56	37301.12
654.71	37041.32
654.85	37366.65
655.00	37336.23
655.14	37219.20
655.29	36849.39
655.43	36989.83
655.57	36652.79
655.72	36521.72
655.86	36512.36
656.01	36423.42
656.15	36765.14
656.30	36910.25
656.44	37003.87
656.58	36678.54
656.73	36552.15
656.87	36790.88
657.01	36683.22
657.16	36910.25
657.30	36690.24
657.45	36297.03
657.59	36610.66
657.73	36018.50
657.88	36821.31
658.02	37343.25
658.16	36978.12
658.31	36844.71
658.45	36355.54
658.60	36460.87
658.74	36495.97
658.88	36353.20
659.03	36650.45
659.17	36416.40
659.31	35934.24
659.46	35885.09
659.60	36290.01
659.74	36313.41
659.89	35983.40
660.03	36282.98
660.17	36414.05
660.32	36065.31
660.46	36163.62
660.60	35969.35
660.74	36257.24
660.89	35833.60
661.03	35545.72
661.17	36032.55
661.32	35468.48
661.46	35213.36
661.60	35346.77
661.74	35522.31
661.89	35644.02
662.03	35409.96
662.17	35435.71
662.31	35281.24
662.46	35475.50
662.60	35587.85
662.74	35285.92
662.88	34981.65
663.03	35035.48
663.17	34855.26
663.31	34768.66
663.45	34436.30
663.60	34855.26
663.74	35199.32
663.88	35119.74
664.02	34492.47
664.17	34864.62
664.31	34277.15
664.45	34745.25
664.59	34448.00
664.73	34932.50
664.88	34576.73
665.02	34686.74
665.16	34333.32
665.30	34195.23
665.44	34377.79
665.59	34003.30
665.73	34045.43
665.87	34029.05
666.01	34326.30
666.15	34092.24
666.29	34195.23
666.44	34169.48
666.58	33888.62
666.72	33979.90
666.86	34085.22
667.00	33933.09
667.14	33914.36
667.28	33780.95
667.43	33392.42
667.57	33553.92
667.71	33209.86
667.85	33207.52
667.99	33116.24
668.13	33383.06
668.27	33645.20
668.41	33481.36
668.56	32910.27
668.70	33523.49
668.84	32889.21
668.98	33013.26
669.12	33048.36
669.26	32933.68
669.40	32755.80
669.54	32465.57
669.68	32641.11
669.82	32737.07
669.96	32561.53
670.10	32507.70
670.25	32685.58
670.39	32568.55
670.53	32456.21
670.67	31997.46
670.81	32423.44
670.95	32423.44
671.09	32364.93
671.23	32275.99
671.37	32252.58
671.51	31969.38
671.65	31878.10
671.79	31845.33
671.93	31679.15
672.07	31962.36
672.21	31777.45
672.35	32002.14
672.49	31742.35
672.63	31580.85
672.77	31463.82
672.91	31913.20
673.05	31475.52
673.19	31674.47
673.33	31182.96
673.47	30946.56
673.61	30911.46
673.75	30897.41
673.89	31332.75
674.03	30520.59
674.17	30782.73
674.31	30553.35
674.45	31101.04
674.59	30766.34
674.73	30738.26
674.87	30719.53
675.01	30345.05
675.15	30185.89
675.29	30352.07
675.43	30389.52
675.56	30363.77
675.70	30359.09
675.84	29879.28
675.98	29170.10
676.12	30232.70
676.26	30127.38
676.40	29820.77
676.54	29780.98
676.68	29699.06
676.82	29310.53
676.96	29465.00
677.10	29500.11
677.23	29413.51
677.37	28884.55
677.51	29226.27
677.65	28968.81
677.79	28823.70
677.93	28659.86
678.07	28629.43
678.21	28627.09
678.34	28336.87
678.48	28252.61
678.62	27838.33
678.76	27821.95
678.90	28025.57
679.04	27686.20
679.18	27943.66
679.31	27573.85
679.45	27522.36
679.59	27084.68
679.73	27627.68
679.87	27428.74
680.00	27433.42
680.14	27337.46
680.28	27175.96
680.42	27108.08
680.56	27761.09
680.70	27309.37
680.83	27009.78
680.97	26941.91
681.11	26759.34
681.25	26735.94
681.39	27007.44
681.52	26773.39
681.66	26649.34
681.80	26581.46
681.94	26529.97
682.07	26349.75
682.21	26314.64
682.35	26043.14
682.49	26321.66
682.62	26347.41
682.76	25731.85
682.90	26129.74
683.04	25846.54
683.17	25427.58
683.31	25621.84
683.45	25036.71
683.59	25273.10
683.72	24966.49
683.86	24924.36
684.00	25053.09
684.13	24973.52
684.27	25179.48
684.41	24596.69
684.55	25046.07
684.68	24582.65
684.82	24697.33
684.96	24781.59
685.09	24662.22
685.23	24505.41
685.37	24334.55
685.50	24446.90
685.64	24411.79
685.78	23929.64
685.91	23903.89
686.05	24041.98
686.19	23410.04
686.32	23393.65
686.46	23541.11
686.60	23349.18
686.73	23213.43
686.87	22930.23
687.01	22909.16
687.14	23154.92
687.28	22862.35
687.42	22881.08
687.55	22864.69
687.69	22618.94
687.82	22843.63
687.96	22696.17
688.10	22906.82
688.23	22544.04
688.37	22031.46
688.50	22106.36
688.64	21963.59
688.78	22169.55
688.91	22010.40
689.05	22508.93
689.18	22059.55
689.32	21422.92
689.46	21790.39
689.59	21891.03
689.73	22113.38
689.86	21631.23
690.00	21432.29
690.13	21404.20
690.27	21575.06
690.41	21343.35
690.54	21062.48
690.68	20938.43
690.81	20807.36
690.95	20655.23
691.08	21008.65
691.22	20767.57
691.35	20718.42
691.49	20994.61
691.62	20936.09
691.76	20720.76
691.89	20484.37
692.03	20074.77
692.16	20350.96
692.30	20329.89
692.43	20116.90
692.57	19805.61
692.70	19971.79
692.84	19948.39
692.97	19590.28
693.11	19599.65
693.24	19513.05
693.38	19477.94
693.51	19477.94
693.65	19616.03
693.78	19316.44
693.92	19276.65
694.05	19161.97
694.19	19386.66
694.32	19084.73
694.45	19009.83
694.59	18904.51
694.72	18735.99
694.86	18534.70
694.99	18487.89
695.13	18740.67
695.26	18663.43
695.39	18153.20
695.53	18424.70
695.66	18480.87
695.80	18291.29
695.93	18185.96
696.07	18097.02
696.20	18111.07
696.33	17745.94
696.47	18047.87
696.60	18026.81
696.73	17837.22
696.87	17565.72
697.00	17762.33
697.14	17706.15
697.27	17373.80
697.40	17547.00
697.54	17448.69
697.67	17184.21
697.80	17053.14
697.94	16774.62
698.07	17022.72
698.21	16877.60
698.34	16959.52
698.47	16622.48
698.61	16477.37
698.74	16362.69
698.87	16320.56
699.01	16343.96
699.14	16095.86
699.27	16037.35
699.40	16205.87
699.54	15908.62
699.67	15885.22
699.80	15714.36
699.94	15644.14
700.07	16027.99
700.20	15564.56
700.34	15700.31
700.47	15506.05
700.60	15695.63
700.73	15740.10
700.87	15707.34
701.00	15389.02
701.13	15398.38
701.26	15248.59
701.40	15136.24
701.53	15030.92
701.66	15098.80
701.79	15035.60
701.93	14630.69
702.06	14595.58
702.19	14569.83
702.32	14724.31
702.46	14544.09
702.59	14679.84
702.72	14780.48
702.85	14595.58
702.99	14583.88
703.12	14640.05
703.25	14171.94
703.38	14239.82
703.51	14129.81
703.65	14024.49
703.78	14148.54
703.91	14080.66
704.04	14022.15
704.17	14136.84
704.31	14047.90
704.44	13657.03
704.57	13633.62
704.70	13561.06
704.83	13659.37
704.96	13614.90
705.10	13668.73
705.23	13671.07
>>>>>End Processed Spectral Data<<<<<
