SpectraSuite Data File
++++++++++++++++++++++++++++++++++++
Date: Fri Oct 25 11:26:33 EDT 2013
User: price-jones
Dark Spectrum Present: No
Reference Spectrum Present: No
Number of Sampled Component Spectra: 1
Spectrometers: USB2+H05261
Integration Time (usec): 100000 (USB2+H05261)
Spectra Averaged: 1 (USB2+H05261)
Boxcar Smoothing: 0 (USB2+H05261)
Correct for Electrical Dark: No (USB2+H05261)
Strobe/Lamp Enabled: No (USB2+H05261)
Correct for Detector Non-linearity: No (USB2+H05261)
Correct for Stray Light: No (USB2+H05261)
Number of Pixels in Processed Spectrum: 2048
>>>>>Begin Processed Spectral Data<<<<<
365.73	229.37
365.92	229.37
366.12	229.37
366.32	184.90
366.52	231.71
366.72	161.50
366.91	98.30
367.11	147.45
367.31	182.56
367.51	117.03
367.70	149.79
367.90	133.41
368.10	189.58
368.30	86.60
368.49	105.32
368.69	126.39
368.89	147.45
369.09	95.96
369.28	224.69
369.48	217.67
369.68	131.07
369.87	208.31
370.07	236.39
370.27	208.31
370.47	351.08
370.66	552.37
370.86	585.13
371.06	725.57
371.25	716.20
371.45	629.60
371.65	662.37
371.84	678.76
372.04	636.63
372.24	685.78
372.44	720.88
372.63	763.01
372.83	800.46
373.03	812.17
373.22	739.61
373.42	779.40
373.62	748.97
373.81	821.53
374.01	926.85
374.21	861.32
374.40	819.19
374.60	854.30
374.79	791.10
374.99	870.68
375.19	798.12
375.38	870.68
375.58	884.72
375.78	889.40
375.97	830.89
376.17	919.83
376.37	997.07
376.56	971.32
376.76	917.49
376.95	936.21
377.15	835.57
377.35	943.24
377.54	936.21
377.74	884.72
377.93	873.02
378.13	856.64
378.33	990.05
378.52	936.21
378.72	976.00
378.91	894.08
379.11	947.92
379.31	980.68
379.50	957.28
379.70	954.94
379.89	945.58
380.09	959.62
380.28	1020.47
380.48	997.07
380.68	952.60
380.87	976.00
381.07	999.41
381.26	1048.56
381.46	1011.11
381.65	1036.86
381.85	1060.26
382.04	1043.88
382.24	1062.60
382.43	1156.22
382.63	1097.71
382.83	1137.50
383.02	1109.41
383.22	1118.78
383.41	1114.10
383.61	1165.59
383.80	1095.37
384.00	1165.59
384.19	1174.95
384.39	1156.22
384.58	1114.10
384.78	1102.39
384.97	1149.20
385.17	1090.69
385.36	1102.39
385.56	1109.41
385.75	1078.99
385.95	1203.04
386.14	1188.99
386.34	1146.86
386.53	1238.14
386.72	1128.14
386.92	1247.51
387.11	1273.25
387.31	1364.53
387.50	1228.78
387.70	1261.55
387.89	1282.61
388.09	1259.21
388.28	1320.06
388.48	1280.27
388.67	1270.91
388.86	1334.11
389.06	1259.21
389.25	1399.64
389.45	1315.38
389.64	1329.42
389.84	1455.81
390.03	1413.68
390.22	1394.96
390.42	1394.96
390.61	1420.71
390.81	1387.94
391.00	1441.77
391.19	1462.83
391.39	1383.26
391.58	1624.33
391.78	1577.52
391.97	1479.22
392.16	1497.94
392.36	1528.37
392.55	1411.34
392.75	1448.79
392.94	1572.84
393.13	1521.35
393.33	1636.03
393.52	1629.01
393.71	1577.52
393.91	1610.29
394.10	1603.27
394.29	1626.67
394.49	1582.20
394.68	1778.81
394.88	1675.82
395.07	1675.82
395.26	1661.78
395.46	1652.42
395.65	1699.23
395.84	1694.55
396.04	1832.64
396.23	1818.60
396.42	1839.66
396.62	1717.95
396.81	1743.70
397.00	1790.51
397.19	1856.04
397.39	1858.39
397.58	1783.49
397.77	1867.75
397.97	1877.11
398.16	1858.39
398.35	1816.26
398.55	2001.16
398.74	1933.28
398.93	2003.50
399.12	1921.58
399.32	1820.94
399.51	1973.07
399.70	1952.01
399.90	2031.58
400.09	2050.31
400.28	1963.71
400.47	2090.10
400.67	2040.95
400.86	2036.27
401.05	2080.74
401.24	2183.72
401.44	2064.35
401.63	2223.51
401.82	2155.63
402.01	2120.53
402.21	2120.53
402.40	2235.21
402.59	2319.47
402.78	2286.70
402.97	2354.58
403.17	2263.30
403.36	2375.64
403.55	2312.45
403.74	2319.47
403.93	2345.22
404.13	2445.86
404.32	2345.22
404.51	2415.43
404.70	2438.84
404.89	2415.43
405.09	2464.58
405.28	2476.29
405.47	2487.99
405.66	2602.68
405.85	2579.27
406.05	2459.90
406.24	2499.69
406.43	2490.33
406.62	2504.37
406.81	2810.98
407.00	2574.59
407.20	2499.69
407.39	2712.68
407.58	2661.19
407.77	2668.21
407.96	2715.02
408.15	2799.28
408.34	2668.21
408.54	2850.77
408.73	2794.60
408.92	2787.58
409.11	3000.57
409.30	2918.65
409.49	2829.71
409.68	2897.58
409.87	3000.57
410.07	3042.70
410.26	3035.67
410.45	3087.17
410.64	3150.36
410.83	3054.40
411.02	3002.91
411.21	3119.93
411.40	3269.73
411.59	3248.66
411.78	3183.13
411.98	3222.92
412.17	3288.45
412.36	3265.05
412.55	3300.16
412.74	3258.03
412.93	3365.69
413.12	3412.50
413.31	3644.21
413.50	3440.59
413.69	3503.78
413.88	3660.60
414.07	3454.63
414.26	3644.21
414.45	3686.34
414.64	3555.27
414.83	3709.75
415.02	3749.54
415.22	3927.42
415.41	3885.29
415.60	3873.59
415.79	3950.82
415.98	3960.19
416.17	4023.38
416.36	3990.61
416.55	3943.80
416.74	4128.70
416.93	3990.61
417.12	4093.60
417.31	4135.73
417.50	4044.45
417.69	4222.33
417.88	4332.33
418.07	4252.75
418.26	4327.65
418.45	4329.99
418.64	4592.13
418.83	4461.06
419.02	4489.15
419.21	4402.55
419.39	4624.90
419.58	4484.47
419.77	4491.49
419.96	4435.32
420.15	4507.87
420.34	4650.64
420.53	4533.62
420.72	4695.11
420.91	4774.69
421.10	4781.71
421.29	4795.76
421.48	4685.75
421.67	4748.95
421.86	4767.67
422.05	4730.22
422.24	4788.74
422.43	4884.70
422.61	4924.49
422.80	4863.63
422.99	4854.27
423.18	4868.31
423.37	5093.01
423.56	4938.53
423.75	4957.25
423.94	4898.74
424.13	4713.84
424.32	4760.65
424.50	4983.00
424.69	5130.45
424.88	5160.88
425.07	4952.57
425.26	4915.12
425.45	4798.10
425.64	5151.52
425.83	4968.96
426.01	5081.30
426.20	5076.62
426.39	5125.77
426.58	5060.24
426.77	5135.14
426.96	5114.07
427.15	4947.89
427.33	5270.89
427.52	5158.54
427.71	5277.91
427.90	5205.35
428.09	5406.64
428.28	5341.10
428.46	5420.68
428.65	5418.34
428.84	5509.62
429.03	5451.11
429.22	5228.76
429.40	5479.19
429.59	5430.04
429.78	5282.59
429.97	5254.50
430.16	5437.06
430.34	5497.92
430.53	5678.14
430.72	5666.44
430.91	5659.42
431.10	5640.69
431.28	5699.20
431.47	5708.57
431.66	5881.77
431.85	5778.78
432.03	6005.81
432.22	6001.13
432.41	5951.98
432.60	5966.03
432.79	6026.88
432.97	6148.59
433.16	6029.22
433.35	5951.98
433.54	6073.69
433.72	6104.12
433.91	6087.73
434.10	6160.29
434.28	6017.52
434.47	6230.51
434.66	6202.42
434.85	6298.38
435.03	6401.37
435.22	6324.13
435.41	6392.00
435.59	6345.19
435.78	6485.62
435.97	6483.28
436.16	6408.39
436.34	6560.52
436.53	6612.01
436.72	6661.16
436.90	6452.86
437.09	6576.91
437.28	6497.33
437.46	6504.35
437.65	6684.57
437.84	6595.63
438.02	6656.48
438.21	6860.11
438.40	6661.16
438.58	6775.85
438.77	7201.83
438.96	6946.71
439.14	7176.08
439.33	7250.98
439.52	7157.36
439.70	7232.26
439.89	7461.63
440.08	7489.71
440.26	7360.98
440.45	7442.90
440.63	7435.88
440.82	7723.77
441.01	7646.53
441.19	7641.85
441.38	7815.05
441.57	7660.57
441.75	7737.81
441.94	7850.16
442.12	7871.22
442.31	8168.47
442.50	7999.95
442.68	8109.96
442.87	7988.25
443.05	8032.72
443.24	8248.05
443.43	8217.62
443.61	8182.51
443.80	8390.82
443.98	8201.24
444.17	7819.73
444.35	8177.83
444.54	8407.20
444.73	8421.25
444.91	8297.20
445.10	8421.25
445.28	8369.76
445.47	8180.17
445.65	8241.03
445.84	8461.04
446.02	8395.50
446.21	8449.33
446.39	8432.95
446.58	8299.54
446.77	8344.01
446.95	8322.94
447.14	8360.39
447.32	8659.98
447.51	8561.68
447.69	8514.87
447.88	8561.68
448.06	8535.93
448.25	8414.23
448.43	8512.53
448.62	8566.36
448.80	8449.33
448.99	8727.86
449.17	8793.39
449.36	8667.00
449.54	8781.69
449.73	8868.29
449.91	8985.32
450.10	8961.91
450.28	9085.96
450.46	9025.11
450.65	8987.66
450.83	8945.53
451.02	9090.64
451.20	9369.16
451.39	9294.27
451.57	9254.48
451.76	9109.36
451.94	9277.88
452.13	9179.58
452.31	9415.98
452.49	9111.71
452.68	9350.44
452.86	9336.40
453.05	9717.90
453.23	9497.89
453.42	9268.52
453.60	9327.03
453.78	9504.92
453.97	9432.36
454.15	9509.60
454.34	9451.08
454.52	9736.63
454.70	9638.33
454.89	9533.00
455.07	9675.77
455.26	9909.83
455.44	10008.13
455.62	9989.41
455.81	9710.88
455.99	9778.76
456.17	9963.66
456.36	10321.76
456.54	10251.55
456.73	10221.12
456.91	10497.30
457.09	10363.89
457.28	10382.62
457.46	10391.98
457.64	10490.28
457.83	10424.75
458.01	10583.90
458.19	10679.86
458.38	10864.77
458.56	10836.68
458.74	10696.25
458.93	10548.79
459.11	10857.75
459.29	10658.80
459.48	10876.47
459.66	10813.28
459.84	10782.85
460.03	11014.56
460.21	10998.18
460.39	10864.77
460.57	11033.29
460.76	11344.58
460.94	11229.89
461.12	11000.52
461.31	11246.27
461.49	10986.47
461.67	11159.67
461.85	11435.86
462.04	11227.55
462.22	11611.40
462.40	11653.53
462.59	11545.86
462.77	11508.41
462.95	11637.14
463.13	11339.90
463.32	11880.56
463.50	11754.17
463.68	11922.69
463.86	11822.05
464.05	11529.48
464.23	11939.07
464.41	11847.79
464.59	11786.94
464.78	11812.68
464.96	12121.63
465.14	11789.28
465.32	12259.73
465.50	12145.04
465.69	12231.64
465.87	11967.16
466.05	12154.40
466.23	12318.24
466.41	12208.23
466.60	12411.86
466.78	12196.53
466.96	12308.88
467.14	12166.10
467.32	12589.74
467.51	12528.89
467.69	12219.94
467.87	12659.96
468.05	12718.47
468.23	12325.26
468.41	12769.96
468.60	12695.07
468.78	12793.37
468.96	12535.91
469.14	12774.64
469.32	13064.87
469.50	12861.24
469.69	13071.89
469.87	13275.52
470.05	13064.87
470.23	13301.26
470.41	13116.36
470.59	13362.12
470.77	13135.09
470.95	13198.28
471.14	13378.50
471.32	13256.79
471.50	13806.82
471.68	13631.28
471.86	13729.58
472.04	13640.64
472.22	13965.98
472.40	13935.55
472.58	14218.75
472.77	14146.20
472.95	14181.31
473.13	14441.11
473.31	14118.11
473.49	14277.27
473.67	14129.81
473.85	14291.31
474.03	14911.55
474.21	14693.88
474.39	14878.79
474.57	14452.81
474.75	14576.86
474.93	14846.02
475.12	15279.02
475.30	15262.63
475.48	14944.32
475.66	15201.78
475.84	15335.19
476.02	15487.32
476.20	15337.53
476.38	15510.73
476.56	16245.66
476.74	15950.75
476.92	15932.03
477.10	15815.00
477.28	16042.03
477.46	16325.24
477.64	16470.35
477.82	16468.01
478.00	17123.36
478.18	16854.20
478.36	17198.26
478.54	17144.42
478.72	17034.42
478.90	17439.33
479.08	17750.62
479.26	17750.62
479.44	17881.69
479.62	17970.63
479.80	18066.60
479.98	18230.43
480.16	18576.83
480.34	18473.85
480.52	18607.26
480.70	18513.64
480.88	18270.22
481.06	18668.11
481.24	18836.63
481.41	19103.45
481.59	19655.82
481.77	19236.86
481.95	19662.84
482.13	19728.38
482.31	19777.53
482.49	20243.29
482.67	20458.62
482.85	20119.24
483.03	20596.71
483.21	20957.16
483.39	20664.59
483.57	20753.53
483.74	21289.51
483.92	21221.64
484.10	21252.06
484.28	21380.79
484.46	22228.07
484.64	22415.31
484.82	22052.53
485.00	22419.99
485.18	22497.23
485.35	22792.14
485.53	22668.09
485.71	22883.42
485.89	23669.84
486.07	23190.03
486.25	23501.32
486.43	23257.90
486.61	23592.60
486.78	24147.31
486.96	24196.46
487.14	24652.86
487.32	24762.87
487.50	24982.88
487.68	25179.48
487.85	25418.22
488.03	25404.17
488.21	25731.85
488.39	26029.10
488.57	26136.76
488.75	26419.97
488.92	26134.42
489.10	26892.76
489.28	26712.53
489.46	27058.93
489.64	26974.67
489.81	27770.46
489.99	27482.57
490.17	27845.35
490.35	28107.49
490.53	27983.44
490.70	28442.19
490.88	28568.58
491.06	29064.77
491.24	28849.44
491.41	29109.24
491.59	29366.70
491.77	29457.98
491.95	29448.62
492.13	29610.12
492.30	29961.20
492.48	29965.88
492.66	30246.74
492.84	30464.41
493.01	30719.53
493.19	30756.98
493.37	31543.40
493.54	31276.58
493.72	31524.68
493.90	31655.75
494.08	31644.04
494.25	31934.27
494.43	32053.64
494.61	32243.22
494.79	32283.01
494.96	32437.48
495.14	32919.63
495.32	32786.22
495.49	33163.05
495.67	33476.68
495.85	33692.01
496.02	33748.18
496.20	33858.19
496.38	34356.72
496.55	34466.73
496.73	34895.05
496.91	34335.66
497.09	34646.95
497.26	34726.53
497.44	34944.20
497.62	35168.89
497.79	36009.14
497.97	35725.94
498.14	35910.84
498.32	36158.94
498.50	36341.50
498.67	36708.96
498.85	36545.12
499.03	36390.65
499.20	36582.57
499.38	37104.51
499.56	37017.91
499.73	37097.49
499.91	37542.19
500.08	37675.60
500.26	37738.80
500.44	37385.38
500.61	37860.51
500.79	37902.64
500.97	38199.88
501.14	38717.14
501.32	38717.14
501.49	38658.63
501.67	38880.98
501.84	38885.66
502.02	39145.46
502.20	39054.18
502.37	39735.27
502.55	39386.54
502.72	39524.63
502.90	39494.20
503.07	39246.10
503.25	39938.90
503.43	39922.52
503.60	39929.54
503.78	40418.71
503.95	40332.11
504.13	40072.31
504.30	40966.40
504.48	40758.09
504.65	40320.41
504.83	41223.86
505.01	41181.73
505.18	41057.68
505.36	41605.36
505.53	41448.55
505.71	41469.61
505.88	41757.50
506.06	41677.92
506.23	42047.72
506.41	42033.68
506.58	42433.91
506.76	42108.58
506.93	42569.66
507.11	42176.45
507.28	42534.56
507.46	42693.71
507.63	42948.83
507.81	42920.74
507.98	42745.20
508.16	43152.46
508.33	43430.98
508.50	43463.75
508.68	43702.48
508.85	44189.31
509.03	43981.01
509.20	44374.22
509.38	44547.42
509.55	44528.69
509.73	44524.01
509.90	44411.67
510.08	44753.38
510.25	44802.53
510.42	44727.64
510.60	45123.19
510.77	45081.06
510.95	45696.62
511.12	45155.96
511.30	45067.02
511.47	45598.32
511.64	45521.08
511.82	45961.10
511.99	45652.15
512.17	46190.47
512.34	46143.66
512.51	46288.77
512.69	46302.82
512.86	46611.77
513.04	46604.75
513.21	46667.94
513.38	46642.20
513.56	47044.77
513.73	46855.18
513.90	47288.18
514.08	46831.78
514.25	47168.82
514.43	47449.68
514.60	47613.52
514.77	47239.03
514.95	47765.65
515.12	47540.96
515.29	47648.63
515.47	47842.89
515.64	47885.02
515.81	47704.80
515.99	48165.88
516.16	48362.49
516.33	48320.36
516.51	49109.12
516.68	48573.14
516.85	48795.49
517.03	48870.39
517.20	48896.13
517.37	48619.95
517.54	49015.50
517.72	48978.05
517.89	49027.20
518.06	49134.87
518.24	49193.38
518.41	49205.08
518.58	49656.81
518.75	49495.31
518.93	49324.45
519.10	49436.80
519.27	49755.11
519.45	49595.95
519.62	49911.92
519.79	49801.92
519.96	50204.49
520.14	50265.34
520.31	50298.11
520.48	50330.88
520.65	50539.19
520.83	50593.02
521.00	50658.56
521.17	50536.85
521.34	50794.31
521.52	50726.43
521.69	50859.84
521.86	51014.32
522.03	51040.06
522.20	51161.77
522.38	51208.58
522.55	51327.95
522.72	51608.81
522.89	51517.53
523.07	51557.32
523.24	51627.54
523.41	51367.74
523.58	51634.56
523.75	52039.47
523.92	51786.69
524.10	52116.71
524.27	52074.58
524.44	52102.67
524.61	52411.62
524.78	52210.33
524.96	52332.04
525.13	52341.40
525.30	52535.66
525.47	52367.15
525.64	52315.65
525.81	52858.66
525.98	52694.82
526.16	52680.78
526.33	53076.33
526.50	52863.34
526.67	53027.18
526.84	53066.97
527.01	52879.72
527.18	52947.60
527.36	53003.77
527.53	53284.64
527.70	53345.49
527.87	53539.75
528.04	53312.72
528.21	53495.28
528.38	53588.91
528.55	53813.60
528.72	53446.13
528.89	53492.94
529.07	53162.93
529.24	53570.18
529.41	53778.49
529.58	53829.98
529.75	53755.08
529.92	53776.15
530.09	53965.73
530.26	54138.93
530.43	53860.41
530.60	53963.39
530.77	54253.62
530.94	54155.32
531.11	53942.33
531.28	54024.25
531.46	54092.12
531.63	54223.19
531.80	54152.97
531.97	54265.32
532.14	54475.97
532.31	54447.88
532.48	54700.66
532.65	54628.10
532.82	54501.71
532.99	54878.54
533.16	54857.48
533.33	55152.38
533.50	55325.58
533.67	54754.49
533.84	54714.70
534.01	54813.01
534.18	54986.21
534.35	55002.59
534.52	55133.66
534.69	55388.78
534.86	55393.46
535.03	55063.44
535.20	55208.56
535.37	55477.72
535.54	55440.27
535.71	55203.88
535.88	55559.64
536.05	55496.44
536.22	55796.03
536.38	55395.80
536.55	55435.59
536.72	55842.84
536.89	55597.09
537.06	55660.28
537.23	55906.04
537.40	55566.66
537.57	55327.92
537.74	56013.70
537.91	56119.02
538.08	56156.47
538.25	55791.35
538.42	55945.83
538.59	56006.68
538.75	55985.61
538.92	56156.47
539.09	56460.74
539.26	56095.62
539.43	56334.35
539.60	56112.00
539.77	56362.44
539.94	56662.03
540.11	56200.94
540.28	56383.51
540.44	56673.73
540.61	56601.18
540.78	56376.48
540.95	56364.78
541.12	56741.61
541.29	56463.08
541.46	56566.07
541.62	56640.96
541.79	56638.62
541.96	56268.82
542.13	56530.96
542.30	56704.16
542.47	56849.27
542.63	56863.32
542.80	56825.87
542.97	57310.36
543.14	57193.33
543.31	57205.03
543.48	57361.85
543.64	57492.92
543.81	57326.74
543.98	57190.99
544.15	57422.70
544.32	57528.03
544.48	57532.71
544.65	57305.68
544.82	57153.54
544.99	57471.85
545.16	57572.50
545.32	57333.76
545.49	57726.97
545.66	57673.14
545.83	57626.33
546.00	57785.49
546.16	57916.56
546.33	57558.45
546.50	57506.96
546.67	57825.28
546.83	57429.72
547.00	57820.59
547.17	57698.89
547.34	57806.55
547.50	57989.11
547.67	57939.96
547.84	57977.41
548.00	58019.54
548.17	58305.09
548.34	58014.86
548.51	58206.78
548.67	58216.14
548.84	58075.71
549.01	58124.86
549.18	58251.25
549.34	58307.43
549.51	58202.10
549.68	58522.76
549.84	58309.77
550.01	58468.92
550.18	58379.98
550.34	58272.32
550.51	58508.71
550.68	58504.03
550.84	58223.17
551.01	58665.53
551.18	58480.63
551.34	58274.66
551.51	58735.74
551.68	58473.60
551.84	58623.40
552.01	58389.34
552.18	58688.93
552.34	58543.82
552.51	58965.12
552.68	58583.61
552.84	58894.90
553.01	58918.31
553.18	58805.96
553.34	58981.50
553.51	58670.21
553.67	59021.29
553.84	58972.14
554.01	59028.31
554.17	59077.46
554.34	59061.08
554.51	58930.01
554.67	59213.21
554.84	59000.22
555.00	59171.08
555.17	59044.69
555.33	58974.48
555.50	59000.22
555.67	59051.72
555.83	59007.25
556.00	59187.47
556.16	59435.56
556.33	59428.54
556.50	59166.40
556.66	59512.80
556.83	59065.76
556.99	59421.52
557.16	59606.42
557.32	59606.42
557.49	59653.23
557.65	59264.70
557.82	59372.37
557.98	59276.41
558.15	59465.99
558.32	59407.48
558.48	59545.57
558.65	59480.03
558.81	59533.87
558.98	59573.66
559.14	59587.70
559.31	59695.36
559.47	59568.97
559.64	59791.33
559.80	59824.09
559.97	59814.73
560.13	59613.44
560.30	59683.66
560.46	60074.53
560.63	60030.06
560.79	59901.33
560.96	59952.82
561.12	59854.52
561.29	59700.04
561.45	59985.59
561.61	59906.01
561.78	59774.94
561.94	59805.37
562.11	59800.69
562.27	59798.35
562.44	59999.63
562.60	60004.31
562.77	60032.40
562.93	59756.22
563.10	60165.81
563.26	59999.63
563.42	60161.13
563.59	60011.34
563.75	60034.74
563.92	59920.05
564.08	60154.11
564.24	60247.73
564.41	60219.64
564.57	60257.09
564.74	60313.26
564.90	60020.70
565.07	60144.75
565.23	60296.88
565.39	60065.17
565.56	60219.64
565.72	60252.41
565.88	60163.47
566.05	60072.19
566.21	60315.61
566.38	60280.50
566.54	60327.31
566.70	60259.43
566.87	60521.57
567.03	60193.90
567.19	60331.99
567.36	60189.22
567.52	60247.73
567.68	60509.87
567.85	60355.39
568.01	60465.40
568.17	60198.58
568.34	60458.38
568.50	60449.02
568.66	60369.44
568.83	60383.48
568.99	60364.76
569.15	60509.87
569.32	60317.95
569.48	60441.99
569.64	60275.82
569.81	60516.89
569.97	60439.65
570.13	60317.95
570.30	60477.10
570.46	60491.15
570.62	60519.23
570.78	60425.61
570.95	60404.55
571.11	60645.62
571.27	60568.38
571.43	60605.83
571.60	60544.98
571.76	60587.11
571.92	60699.45
572.09	60568.38
572.25	60711.16
572.41	60608.17
572.57	60587.11
572.74	60757.97
572.90	60650.30
573.06	60645.62
573.22	60481.78
573.38	60708.82
573.55	60612.85
573.71	60713.50
573.87	60982.66
574.03	60781.37
574.20	60830.52
574.36	60708.82
574.52	60828.18
574.68	60893.72
574.84	60914.78
575.01	60612.85
575.17	60905.42
575.33	60472.42
575.49	60755.63
575.65	60753.29
575.82	60853.93
575.98	60849.25
576.14	61092.66
576.30	60867.97
576.46	60704.13
576.62	60891.38
576.79	60968.61
576.95	60802.44
577.11	60781.37
577.27	60954.57
577.43	60921.80
577.59	60800.10
577.75	60884.36
577.92	60711.16
578.08	60711.16
578.24	60797.76
578.40	60839.89
578.56	60935.85
578.72	60811.80
578.88	60968.61
579.04	60961.59
579.21	60980.32
579.37	61146.50
579.53	60942.87
579.69	60596.47
579.85	60795.42
580.01	60811.80
580.17	60654.98
580.33	60903.08
580.49	61010.74
580.65	61083.30
580.82	60823.50
580.98	60989.68
581.14	61043.51
581.30	61190.97
581.46	60872.65
581.62	61090.32
581.78	60760.31
581.94	61125.43
582.10	60959.25
582.26	60933.51
582.42	60839.89
582.58	60956.91
582.74	60968.61
582.90	60776.69
583.06	60872.65
583.22	60992.02
583.38	61017.77
583.54	61062.24
583.70	61020.11
583.86	61052.87
584.02	60842.23
584.18	61132.45
584.34	60968.61
584.50	61113.73
584.66	61085.64
584.82	60952.23
584.98	61226.07
585.14	61378.21
585.30	61017.77
585.46	60935.85
585.62	61064.58
585.78	61066.92
585.94	60669.03
586.10	61015.43
586.26	61137.13
586.42	61022.45
586.58	61045.85
586.74	61144.16
586.90	61118.41
587.06	60949.89
587.22	61197.99
587.38	61160.54
587.54	61197.99
587.70	61254.16
587.86	61109.05
588.02	61073.94
588.18	61256.50
588.34	61153.52
588.49	61106.71
588.65	61031.81
588.81	61183.94
588.97	61275.22
589.13	61352.46
589.29	61130.11
589.45	61312.67
589.61	61160.54
589.77	61443.74
589.93	61329.06
590.08	61478.85
590.24	61307.99
590.40	61525.66
590.56	61509.28
590.72	61413.32
590.88	61197.99
591.04	61183.94
591.20	61558.43
591.35	61382.89
591.51	61609.92
591.67	61474.17
591.83	61422.68
591.99	61415.66
592.15	61317.35
592.31	61436.72
592.46	61418.00
592.62	61532.68
592.78	61513.96
592.94	61385.23
593.10	61326.72
593.26	61476.51
593.41	61485.87
593.57	61607.58
593.73	61581.84
593.89	61677.80
594.05	61584.18
594.20	61588.86
594.36	61630.99
594.52	61539.71
594.68	61584.18
594.84	61399.27
594.99	61532.68
595.15	61471.83
595.31	61668.44
595.47	61261.18
595.62	61516.30
595.78	61434.38
595.94	61546.73
596.10	61640.35
596.25	61577.15
596.41	61481.19
596.57	61441.40
596.73	61553.75
596.88	61633.33
597.04	61909.51
597.20	61717.59
597.36	61799.50
597.51	61698.86
597.67	61406.30
597.83	61539.71
597.99	61694.18
598.14	61689.50
598.30	61535.02
598.46	61759.72
598.61	61827.59
598.77	61666.09
598.93	61656.73
599.09	61766.74
599.24	61932.92
599.40	62000.79
599.56	62047.60
599.71	61855.68
599.87	61778.44
600.03	61731.63
600.18	61719.93
600.34	61738.65
600.50	61710.56
600.65	61834.61
600.81	61958.66
600.97	61848.66
601.12	61843.98
601.28	61787.80
601.44	61640.35
601.59	61914.19
601.75	61694.18
601.91	61977.39
602.06	61684.82
602.22	61970.36
602.37	61834.61
602.53	61836.95
602.69	61579.49
602.84	61778.44
603.00	61715.25
603.16	61797.16
603.31	61841.63
603.47	61848.66
603.62	61771.42
603.78	61834.61
603.94	61499.92
604.09	61736.31
604.25	61670.78
604.40	61563.11
604.56	61858.02
604.71	62010.15
604.87	61841.63
605.03	61766.74
605.18	61785.46
605.34	61935.26
605.49	61577.15
605.65	61822.91
605.80	61659.07
605.96	61825.25
606.12	61890.79
606.27	62005.47
606.43	61673.12
606.58	62033.56
606.74	61668.44
606.89	61602.90
607.05	62031.22
607.20	61923.55
607.36	61614.60
607.51	61511.62
607.67	61659.07
607.82	61689.50
607.98	61577.15
608.13	61848.66
608.29	61757.38
608.44	61602.90
608.60	61609.92
608.75	61481.19
608.91	61698.86
609.06	61455.45
609.22	61759.72
609.37	61572.47
609.53	61801.85
609.68	61448.42
609.84	61387.57
609.99	61755.03
610.15	61553.75
610.30	61525.66
610.46	61666.09
610.61	61553.75
610.76	61368.85
610.92	61488.21
611.07	61607.58
611.23	61598.22
611.38	61675.46
611.54	61359.48
611.69	61680.14
611.84	61647.37
612.00	61558.43
612.15	61509.28
612.31	61539.71
612.46	61518.64
612.62	61621.62
612.77	61464.81
612.92	61630.99
613.08	61389.91
613.23	61483.53
613.39	61357.14
613.54	61488.21
613.69	61415.66
613.85	61567.79
614.00	61572.47
614.15	61689.50
614.31	61509.28
614.46	61701.20
614.62	61375.87
614.77	61586.52
614.92	61352.46
615.08	61352.46
615.23	61410.98
615.38	61588.86
615.54	61439.06
615.69	61254.16
615.84	61574.81
616.00	61485.87
616.15	61420.34
616.30	61413.32
616.46	61371.19
616.61	61188.63
616.76	61415.66
616.92	61066.92
617.07	61347.78
617.22	61221.39
617.37	61090.32
617.53	61307.99
617.68	61504.60
617.83	61251.82
617.99	61256.50
618.14	61193.31
618.29	61097.34
618.45	61059.90
618.60	61188.63
618.75	61029.47
618.90	61151.18
619.06	61373.53
619.21	61181.60
619.36	61303.31
619.51	61223.73
619.67	61003.72
619.82	61153.52
619.97	61310.33
620.12	61160.54
620.28	61038.83
620.43	61303.31
620.58	60956.91
620.73	60860.95
620.89	61010.74
621.04	61165.22
621.19	61174.58
621.34	60903.08
621.49	60802.44
621.65	60956.91
621.80	61031.81
621.95	60807.12
622.10	61050.53
622.25	60879.67
622.41	60867.97
622.56	60914.78
622.71	60949.89
622.86	60793.07
623.01	60617.53
623.16	60811.80
623.32	60755.63
623.47	61006.06
623.62	60779.03
623.77	60622.22
623.92	60814.14
624.07	60882.02
624.23	60753.29
624.38	60781.37
624.53	60720.52
624.68	60748.60
624.83	60800.10
624.98	60619.88
625.13	60748.60
625.29	60970.96
625.44	60718.18
625.59	60673.71
625.74	60434.97
625.89	60320.29
626.04	60561.36
626.19	60385.82
626.34	60694.77
626.49	60465.40
626.65	60322.63
626.80	60446.68
626.95	60149.43
627.10	60315.61
627.25	60458.38
627.40	60383.48
627.55	60568.38
627.70	60420.93
627.85	60360.08
628.00	60205.60
628.15	60456.04
628.30	60280.50
628.45	60458.38
628.60	60315.61
628.76	60252.41
628.91	60317.95
629.06	60236.03
629.21	60275.82
629.36	60219.64
629.51	60378.80
629.66	60126.02
629.81	60041.76
629.96	60158.79
630.11	60149.43
630.26	60259.43
630.41	60018.36
630.56	59962.18
630.71	60296.88
630.86	60074.53
631.01	60027.72
631.16	60128.36
631.31	59693.02
631.46	59683.66
631.61	60097.94
631.76	60111.98
631.91	60062.83
632.06	59994.95
632.21	59934.10
632.36	59856.86
632.51	59721.11
632.66	59880.27
632.81	59540.89
632.96	59887.29
633.10	60011.34
633.25	59938.78
633.40	59910.69
633.55	59976.23
633.70	59821.75
633.85	59817.07
634.00	59583.02
634.15	59723.45
634.30	59674.30
634.45	59840.48
634.60	59861.54
634.75	59758.56
634.90	59547.91
635.05	59765.58
635.19	59629.83
635.34	59812.39
635.49	59622.81
635.64	59571.32
635.79	59686.00
635.94	59772.60
636.09	59517.48
636.24	59515.14
636.39	59564.29
636.53	59552.59
636.68	59449.61
636.83	59920.05
636.98	59590.04
637.13	59442.59
637.28	59693.02
637.43	59597.06
637.57	59561.95
637.72	59374.71
637.87	59253.00
638.02	59351.30
638.17	59316.20
638.32	59447.27
638.46	59332.58
638.61	59594.72
638.76	59245.98
638.91	59451.95
639.06	59325.56
639.20	59224.92
639.35	59164.06
639.50	59042.35
639.65	59194.49
639.80	59344.28
639.94	59435.56
640.09	59320.88
640.24	59145.34
640.39	59096.19
640.54	59121.93
640.68	59229.60
640.83	59166.40
640.98	58946.39
641.13	59054.06
641.27	59325.56
641.42	59070.44
641.57	58918.31
641.72	58990.86
641.86	59150.02
642.01	58862.13
642.16	58990.86
642.31	58899.58
642.45	59157.04
642.60	59098.53
642.75	59231.94
642.90	59042.35
643.04	58827.02
643.19	58798.94
643.34	58801.28
643.48	58756.81
643.63	58794.26
643.78	58794.26
643.93	58934.69
644.07	58695.95
644.22	58747.45
644.37	58401.05
644.51	58618.72
644.66	58859.79
644.81	58635.10
644.95	58590.63
645.10	58780.21
645.25	58560.20
645.39	58576.59
645.54	58602.33
645.69	58557.86
645.83	58585.95
645.98	58649.14
646.13	58695.95
646.27	58312.11
646.42	58511.05
646.57	58508.71
646.71	58686.59
646.86	58829.37
647.00	58454.88
647.15	58422.11
647.30	58394.03
647.44	58574.25
647.59	58656.17
647.74	58539.14
647.88	58415.09
648.03	58602.33
648.17	58520.41
648.32	58323.81
648.47	58459.56
648.61	58391.68
648.76	58628.08
648.90	58412.75
649.05	58316.79
649.20	58351.90
649.34	58438.50
649.49	58300.40
649.63	58447.86
649.78	58396.37
649.92	58106.14
650.07	58326.15
650.21	58136.57
650.36	58309.77
650.51	58218.49
650.65	58225.51
650.80	58017.20
650.94	58328.49
651.09	58021.88
651.23	57879.11
651.38	58028.90
651.52	57848.68
651.67	57998.48
651.81	57797.19
651.96	57930.60
652.10	58005.50
652.25	57865.06
652.39	57883.79
652.54	57937.62
652.68	57799.53
652.83	57710.59
652.97	57851.02
653.12	58019.54
653.26	57715.27
653.41	58010.18
653.55	57993.79
653.70	57893.15
653.84	57769.10
653.99	57759.74
654.13	57792.51
654.27	57659.10
654.42	57450.79
654.56	57668.46
654.71	57645.05
654.85	57705.91
655.00	57822.93
655.14	57745.70
655.29	57464.83
655.43	57841.66
655.57	57439.09
655.72	57654.42
655.86	57565.48
656.01	57766.76
656.15	57455.47
656.30	57605.26
656.44	57633.35
656.58	57563.14
656.73	57492.92
656.87	57382.91
657.01	57485.90
657.16	57434.41
657.30	57062.26
657.45	57174.61
657.59	57331.42
657.73	57116.09
657.88	57340.78
658.02	57312.70
658.16	57261.21
658.31	57275.25
658.45	57511.64
658.60	57237.80
658.74	57212.06
658.88	57286.95
659.03	56849.27
659.17	56727.56
659.31	57181.63
659.46	56966.30
659.60	57064.60
659.74	56821.19
659.89	56680.75
660.03	56821.19
660.17	57006.09
660.32	56750.97
660.46	56860.97
660.60	56692.46
660.74	56987.36
660.89	56858.63
661.03	56687.78
661.17	56437.34
661.32	56367.12
661.46	56502.87
661.60	56795.44
661.74	56259.46
661.89	56381.16
662.03	56374.14
662.17	56107.32
662.31	56072.21
662.46	56341.38
662.60	56292.22
662.74	56285.20
662.88	56252.44
663.03	56156.47
663.17	56044.13
663.31	55945.83
663.45	56048.81
663.60	56006.68
663.74	55510.49
663.88	55629.85
664.02	55840.50
664.17	55903.70
664.31	55728.16
664.45	55578.36
664.59	55819.44
664.73	55810.07
664.88	55796.03
665.02	55430.91
665.16	55524.53
665.30	55571.34
665.44	55571.34
665.59	55440.27
665.73	55442.61
665.87	55192.17
666.01	55264.73
666.15	55522.19
666.29	55077.49
666.44	55208.56
666.58	55344.31
666.72	54763.85
666.86	54976.84
667.00	55140.68
667.14	54820.03
667.28	54838.75
667.43	54906.63
667.57	54740.45
667.71	54557.89
667.85	54726.41
667.99	54717.04
668.13	54464.27
668.27	54365.96
668.41	54412.77
668.56	54059.35
668.70	53855.73
668.84	54237.23
668.98	54057.01
669.12	54391.71
669.26	54398.73
669.40	54054.67
669.54	54279.36
669.68	54312.13
669.82	54234.89
669.96	54145.95
670.10	54113.19
670.25	54155.32
670.39	53890.83
670.53	53848.71
670.67	53764.45
670.81	54197.44
670.95	53698.91
671.09	53895.52
671.23	53525.71
671.37	53521.03
671.51	53521.03
671.65	53340.81
671.79	53240.17
671.93	53258.89
672.07	53183.99
672.21	53221.44
672.35	52748.65
672.49	52835.25
672.63	52940.58
672.77	52781.42
672.91	52884.40
673.05	52622.26
673.19	52748.65
673.33	52416.30
673.47	52303.95
673.61	52336.72
673.75	52147.14
673.89	51938.83
674.03	52280.55
674.17	52142.45
674.31	51672.01
674.45	51892.02
674.59	51669.67
674.73	51793.71
674.87	52002.02
675.01	51576.04
675.15	51777.33
675.29	51798.40
675.43	51604.13
675.56	51147.73
675.70	51215.60
675.84	50789.62
675.98	49993.84
676.12	51070.49
676.26	51173.47
676.40	50653.87
676.54	50920.70
676.68	50859.84
676.82	50122.57
676.96	50897.29
677.10	50389.39
677.23	49668.51
677.37	50199.81
677.51	49485.95
677.65	49822.98
677.79	48999.12
677.93	49153.59
678.07	49432.11
678.21	48854.00
678.34	49081.03
678.48	49059.97
678.62	48996.77
678.76	48938.26
678.90	48882.09
679.04	48367.17
679.18	48474.84
679.31	47964.60
679.45	47899.06
679.59	47922.47
679.73	48128.44
679.87	48135.46
680.00	47477.77
680.14	47241.37
680.28	47271.80
680.42	47353.72
680.56	46848.16
680.70	46864.55
680.83	46951.15
680.97	46892.63
681.11	47161.79
681.25	46230.26
681.39	46770.93
681.52	46314.52
681.66	46223.24
681.80	45947.06
681.94	45839.39
682.07	45677.90
682.21	45668.53
682.35	45113.83
682.49	45368.94
682.62	45336.18
682.76	45148.93
682.90	45038.93
683.04	45092.76
683.17	44788.49
683.31	44680.83
683.45	44376.56
683.59	44025.48
683.72	43943.56
683.86	43927.17
684.00	44048.88
684.13	44175.27
684.27	43756.32
684.41	44470.18
684.55	43758.66
684.68	43908.45
684.82	43110.33
684.96	42913.72
685.09	42890.32
685.23	42600.09
685.37	42569.66
685.50	42689.03
685.64	43091.60
685.78	42480.72
685.91	42263.05
686.05	41291.73
686.19	41958.78
686.32	41366.63
686.46	41216.83
686.60	41249.60
686.73	40931.29
686.87	40821.28
687.01	41251.94
687.14	40903.20
687.28	40608.29
687.42	40240.83
687.55	40126.14
687.69	40112.10
687.82	39814.85
687.96	39847.62
688.10	39756.34
688.23	39962.31
688.37	39669.74
688.50	39201.63
688.64	38841.19
688.78	38562.67
688.91	38382.45
689.05	38749.91
689.18	38628.20
689.32	37706.03
689.46	37724.75
689.59	37823.06
689.73	37565.60
689.86	37610.07
690.00	37427.51
690.13	37532.83
690.27	37766.88
690.41	37741.14
690.54	37481.34
690.68	36552.15
690.81	36617.68
690.95	36528.74
691.08	36481.93
691.22	36304.05
691.35	36350.86
691.49	36205.75
691.62	36020.84
691.76	35372.52
691.89	35365.49
692.03	35908.50
692.16	35431.03
692.30	35299.96
692.43	35225.06
692.57	34377.79
692.70	34501.84
692.84	34513.54
692.97	34520.56
693.11	34689.08
693.24	34258.42
693.38	33968.19
693.51	33851.17
693.65	33923.72
693.78	33626.48
693.92	33322.21
694.05	33228.59
694.19	33116.24
694.32	33179.43
694.45	33008.58
694.59	32889.21
694.72	32460.89
694.86	32456.21
694.99	32112.15
695.13	32044.27
695.26	31866.39
695.39	31407.65
695.53	32158.96
695.66	31601.91
695.80	31349.14
695.93	31377.22
696.07	30768.68
696.20	31150.19
696.33	30778.04
696.47	30848.26
696.60	30785.07
696.73	30466.75
696.87	30476.12
697.00	30497.18
697.14	30448.03
697.27	29984.60
697.40	29675.65
697.54	29654.59
697.67	29371.38
697.80	29214.57
697.94	29439.26
698.07	29282.44
698.21	28690.29
698.34	28938.38
698.47	29050.73
698.61	28343.89
698.74	28404.74
698.87	28243.24
699.01	28009.19
699.14	27873.44
699.27	27953.02
699.40	28039.62
699.54	28252.61
699.67	27658.11
699.80	27424.06
699.94	27461.51
700.07	27459.16
700.20	27161.92
700.34	26565.08
700.47	26448.05
700.60	26752.32
700.73	26724.24
700.87	25919.09
701.00	25951.86
701.13	25589.08
701.26	25909.73
701.40	26012.71
701.53	25621.84
701.66	25624.18
701.79	25343.32
701.93	25085.86
702.06	24758.19
702.19	24709.04
702.32	25345.66
702.46	25139.69
702.59	24535.84
702.72	24341.57
702.85	24608.39
702.99	24472.64
703.12	24011.56
703.25	24156.67
703.38	23962.40
703.51	23742.39
703.65	23639.41
703.78	23211.09
703.91	23506.00
704.04	23075.34
704.17	23180.67
704.31	23026.19
704.44	22993.42
704.57	22761.71
704.70	22768.73
704.83	22621.28
704.96	22345.09
705.10	22218.71
705.23	22537.02
>>>>>End Processed Spectral Data<<<<<
