SpectraSuite Data File
++++++++++++++++++++++++++++++++++++
Date: Fri Oct 25 11:23:15 EDT 2013
User: price-jones
Dark Spectrum Present: No
Reference Spectrum Present: No
Number of Sampled Component Spectra: 1
Spectrometers: USB2+H05261
Integration Time (usec): 100000 (USB2+H05261)
Spectra Averaged: 1 (USB2+H05261)
Boxcar Smoothing: 0 (USB2+H05261)
Correct for Electrical Dark: No (USB2+H05261)
Strobe/Lamp Enabled: No (USB2+H05261)
Correct for Detector Non-linearity: No (USB2+H05261)
Correct for Stray Light: No (USB2+H05261)
Number of Pixels in Processed Spectrum: 2048
>>>>>Begin Processed Spectral Data<<<<<
365.73	234.05
365.92	234.05
366.12	234.05
366.32	145.11
366.52	203.63
366.72	152.13
366.91	126.39
367.11	140.43
367.31	102.98
367.51	140.43
367.70	110.01
367.90	175.54
368.10	117.03
368.30	72.56
368.49	191.92
368.69	203.63
368.89	145.11
369.09	159.16
369.28	182.56
369.48	154.48
369.68	159.16
369.87	173.20
370.07	224.69
370.27	238.73
370.47	381.51
370.66	592.16
370.86	648.33
371.06	641.31
371.25	643.65
371.45	641.31
371.65	716.20
371.84	720.88
372.04	692.80
372.24	755.99
372.44	692.80
372.63	676.41
372.83	706.84
373.03	718.54
373.22	755.99
373.42	814.51
373.62	788.76
373.81	765.36
374.01	814.51
374.21	858.98
374.40	809.83
374.60	814.51
374.79	744.29
374.99	767.70
375.19	826.21
375.38	875.36
375.58	828.55
375.78	884.72
375.97	851.96
376.17	819.19
376.37	805.14
376.56	866.00
376.76	919.83
376.95	847.27
377.15	943.24
377.35	866.00
377.54	880.04
377.74	854.30
377.93	929.19
378.13	952.60
378.33	901.11
378.52	997.07
378.72	910.47
378.91	945.58
379.11	866.00
379.31	1036.86
379.50	912.81
379.70	959.62
379.89	971.32
380.09	924.51
380.28	987.71
380.48	1008.77
380.68	896.43
380.87	1001.75
381.07	1013.45
381.26	1111.75
381.46	999.41
381.65	1027.50
381.85	1097.71
382.04	1078.99
382.24	1032.18
382.43	985.37
382.63	997.07
382.83	1027.50
383.02	1104.73
383.22	1184.31
383.41	1090.69
383.61	1053.24
383.80	1193.67
384.00	1118.78
384.19	1163.25
384.39	1130.48
384.58	1102.39
384.78	1158.57
384.97	1109.41
385.17	1090.69
385.36	1142.18
385.56	1104.73
385.75	1102.39
385.95	1123.46
386.14	1188.99
386.34	1256.87
386.53	1226.44
386.72	1207.72
386.92	1149.20
387.11	1231.12
387.31	1235.80
387.50	1240.48
387.70	1249.85
387.89	1254.53
388.09	1224.10
388.28	1299.00
388.48	1301.34
388.67	1336.45
388.86	1322.40
389.06	1322.40
389.25	1331.76
389.45	1385.60
389.64	1441.77
389.84	1373.89
390.03	1324.74
390.22	1404.32
390.42	1401.98
390.61	1394.96
390.81	1434.75
391.00	1406.66
391.19	1373.89
391.39	1441.77
391.58	1460.49
391.78	1462.83
391.97	1497.94
392.16	1507.30
392.36	1533.05
392.55	1507.30
392.75	1540.07
392.94	1519.01
393.13	1572.84
393.33	1523.69
393.52	1521.35
393.71	1701.57
393.91	1617.31
394.10	1563.48
394.29	1511.99
394.49	1568.16
394.68	1540.07
394.88	1657.10
395.07	1563.48
395.26	1624.33
395.46	1666.46
395.65	1643.06
395.84	1762.42
396.04	1755.40
396.23	1774.13
396.42	1785.83
396.62	1771.79
396.81	1877.11
397.00	1710.93
397.19	1736.68
397.39	1879.45
397.58	1879.45
397.77	1811.57
397.97	1872.43
398.16	1839.66
398.35	1937.96
398.55	1860.73
398.74	1827.96
398.93	1895.83
399.12	1937.96
399.32	2019.88
399.51	2010.52
399.70	2066.69
399.90	1989.46
400.09	2069.03
400.28	2104.14
400.47	2064.35
400.67	1989.46
400.86	1949.67
401.05	2183.72
401.24	2148.61
401.44	2204.78
401.63	2150.95
401.82	2172.02
402.01	2176.70
402.21	2157.97
402.40	2190.74
402.59	2129.89
402.78	2214.15
402.97	2246.91
403.17	2275.00
403.36	2263.30
403.55	2342.88
403.74	2401.39
403.93	2366.28
404.13	2340.54
404.32	2403.73
404.51	2490.33
404.70	2431.82
404.89	2450.54
405.09	2518.42
405.28	2399.05
405.47	2436.50
405.66	2516.08
405.85	2516.08
406.05	2478.63
406.24	2525.44
406.43	2679.91
406.62	2658.85
406.81	2693.96
407.00	2581.61
407.20	2626.08
407.39	2705.66
407.58	2803.96
407.77	2773.53
407.96	2764.17
408.15	2827.37
408.34	2705.66
408.54	2785.24
408.73	2785.24
408.92	2792.26
409.11	2918.65
409.30	2813.32
409.49	3047.38
409.68	3033.33
409.87	2986.52
410.07	2937.37
410.26	3023.97
410.45	2864.82
410.64	3115.25
410.83	3173.77
411.02	3073.12
411.21	3080.14
411.40	3152.70
411.59	3145.68
411.78	3258.03
411.98	3267.39
412.17	3297.81
412.36	3403.14
412.55	3382.07
412.74	3478.04
412.93	3414.84
413.12	3358.67
413.31	3592.72
413.50	3602.08
413.69	3487.40
413.88	3686.34
414.07	3538.89
414.26	3665.28
414.45	3735.50
414.64	3691.02
414.83	3728.47
415.02	3911.04
415.22	3920.40
415.41	3997.64
415.60	3941.46
415.79	3922.74
415.98	4053.81
416.17	3964.87
416.36	4070.19
416.55	4079.55
416.74	4198.92
416.93	4119.34
417.12	4189.56
417.31	4262.12
417.50	4180.20
417.69	4353.40
417.88	4334.67
418.07	4187.22
418.26	4248.07
418.45	4297.22
418.64	4599.15
418.83	4374.46
419.02	4479.79
419.21	4557.02
419.39	4652.98
419.58	4575.75
419.77	4472.76
419.96	4674.05
420.15	4456.38
420.34	4627.24
420.53	4751.29
420.72	4660.01
420.91	4725.54
421.10	4849.59
421.29	4751.29
421.48	4793.42
421.67	4800.44
421.86	4660.01
422.05	4732.56
422.24	4830.87
422.43	5018.11
422.61	4964.28
422.80	5090.67
422.99	4868.31
423.18	4917.47
423.37	5076.62
423.56	4943.21
423.75	4983.00
423.94	4887.04
424.13	4793.42
424.32	4655.33
424.50	4950.23
424.69	5048.54
424.88	5062.58
425.07	5071.94
425.26	4772.35
425.45	5109.39
425.64	5083.64
425.83	5013.43
426.01	5029.81
426.20	5034.49
426.39	5179.61
426.58	5104.71
426.77	5088.32
426.96	5261.52
427.15	5331.74
427.33	5252.16
427.52	5029.81
427.71	5329.40
427.90	5280.25
428.09	5296.63
428.28	5441.75
428.46	5430.04
428.65	5289.61
428.84	5430.04
429.03	5535.37
429.22	5430.04
429.40	5504.94
429.59	5570.48
429.78	5301.31
429.97	5238.12
430.16	5518.98
430.34	5760.06
430.53	5710.91
430.72	5731.97
430.91	5404.30
431.10	5626.65
431.28	5872.40
431.47	5633.67
431.66	6029.22
431.85	5912.19
432.03	5947.30
432.22	5951.98
432.41	6015.18
432.60	5872.40
432.79	6024.54
432.97	6066.67
433.16	6052.63
433.35	6043.26
433.54	6017.52
433.72	6101.78
433.91	6136.88
434.10	6157.95
434.28	6031.56
434.47	6277.32
434.66	6438.81
434.85	6303.06
435.03	6399.02
435.22	6190.72
435.41	6532.44
435.59	6441.15
435.78	6504.35
435.97	6490.31
436.16	6312.42
436.34	6352.21
436.53	6623.72
436.72	6677.55
436.90	6497.33
437.09	6761.81
437.28	6616.69
437.46	6612.01
437.65	6707.98
437.84	6731.38
438.02	6684.57
438.21	6729.04
438.40	6740.74
438.58	6918.62
438.77	7152.68
438.96	7117.57
439.14	7208.85
439.33	7126.93
439.52	7119.91
439.70	7201.83
439.89	7454.61
440.08	7454.61
440.26	7412.48
440.45	7281.41
440.63	7625.47
440.82	7625.47
441.01	7639.51
441.19	7700.36
441.38	7714.41
441.57	7815.05
441.75	7985.91
441.94	7985.91
442.12	7999.95
442.31	8156.77
442.50	8124.00
442.68	8184.85
442.87	8201.24
443.05	8149.75
443.24	8449.33
443.43	8084.21
443.61	8301.88
443.80	8505.51
443.98	8320.60
444.17	7960.16
444.35	8411.89
444.54	8498.49
444.73	8327.63
444.91	8463.38
445.10	8285.50
445.28	8613.17
445.47	8547.64
445.65	8184.85
445.84	8533.59
446.02	8416.57
446.21	8627.21
446.39	8531.25
446.58	8507.85
446.77	8531.25
446.95	8484.44
447.14	8402.52
447.32	8741.90
447.51	8383.80
447.69	8526.57
447.88	8702.11
448.06	8596.79
448.25	8477.42
448.43	8755.94
448.62	8657.64
448.80	8610.83
448.99	8884.67
449.17	8823.82
449.36	8603.81
449.54	8887.01
449.73	8959.57
449.91	9303.63
450.10	9116.39
450.28	8943.19
450.46	9006.38
450.65	9247.46
450.83	9015.74
451.02	9205.33
451.20	9142.13
451.39	8950.21
451.57	9334.06
451.76	9219.37
451.94	9373.85
452.13	9437.04
452.31	9327.03
452.49	9273.20
452.68	9547.05
452.86	9451.08
453.05	9584.49
453.23	9495.55
453.42	9317.67
453.60	9490.87
453.78	9521.30
453.97	9544.70
454.15	9643.01
454.34	9467.47
454.52	9825.57
454.70	9650.03
454.89	9797.48
455.07	9832.59
455.26	9923.87
455.44	10083.03
455.62	9820.89
455.81	9898.13
455.99	10010.47
456.17	10045.58
456.36	10265.59
456.54	10228.14
456.73	10569.86
456.91	10602.63
457.09	10443.47
457.28	10436.45
457.46	10408.36
457.64	10487.94
457.83	10817.96
458.01	10621.35
458.19	10942.00
458.38	10710.29
458.56	10876.47
458.74	10867.11
458.93	10623.69
459.11	10977.11
459.29	10759.44
459.48	10937.32
459.66	10773.49
459.84	10864.77
460.03	11218.19
460.21	11229.89
460.39	11283.72
460.57	10979.45
460.76	11138.61
460.94	11176.06
461.12	11115.20
461.31	11143.29
461.49	11236.91
461.67	11178.40
461.85	11587.99
462.04	11396.07
462.22	11690.98
462.40	11772.89
462.59	11449.90
462.77	11595.01
462.95	11571.61
463.13	11705.02
463.32	11763.53
463.50	11852.47
463.68	12016.31
463.86	11889.92
464.05	11822.05
464.23	11943.75
464.41	11983.54
464.59	11690.98
464.78	12201.21
464.96	11953.12
465.14	12035.03
465.32	12280.79
465.50	12233.98
465.69	12547.61
465.87	12336.96
466.05	12212.92
466.23	12318.24
466.41	12365.05
466.60	12390.80
466.78	12093.55
466.96	12201.21
467.14	12334.62
467.32	12643.57
467.51	12784.01
467.69	12294.83
467.87	12608.47
468.05	12819.11
468.23	12449.31
468.41	12486.76
468.60	12517.18
468.78	12861.24
468.96	12622.51
469.14	12994.65
469.32	12910.40
469.50	12938.48
469.69	13144.45
469.87	13371.48
470.05	13341.05
470.23	13188.92
470.41	13153.81
470.59	13483.83
470.77	13408.93
470.95	13338.71
471.14	13799.80
471.32	13369.14
471.50	13947.25
471.68	13820.86
471.86	13680.43
472.04	13767.03
472.22	14155.56
472.40	13806.82
472.58	13736.60
472.77	14209.39
472.95	14155.56
473.13	14651.75
473.31	14345.14
473.49	14338.12
473.67	14513.66
473.85	14436.42
474.03	14918.57
474.21	14698.56
474.39	14899.85
474.57	14995.81
474.75	14970.07
474.93	15098.80
475.12	15044.96
475.30	15466.26
475.48	15236.89
475.66	15115.18
475.84	15159.65
476.02	15578.61
476.20	15618.39
476.38	15971.82
476.56	16570.99
476.74	16411.84
476.92	16074.80
477.10	15857.13
477.28	16215.23
477.46	16365.03
477.64	16692.70
477.82	16816.75
478.00	16893.99
478.18	16973.56
478.36	16931.44
478.54	17195.92
478.72	17371.46
478.90	17415.93
479.08	17617.21
479.26	17853.61
479.44	17699.13
479.62	18228.09
479.80	18031.49
479.98	18583.85
480.16	18972.38
480.34	18731.31
480.52	18539.38
480.70	18625.98
480.88	18546.40
481.06	19042.60
481.24	19222.82
481.41	19115.16
481.59	19426.45
481.77	19765.82
481.95	19697.95
482.13	19623.05
482.31	19730.72
482.49	20388.41
482.67	20350.96
482.85	20542.88
483.03	20875.24
483.21	20751.19
483.39	21088.23
483.57	21039.08
483.74	21385.47
483.92	21820.81
484.10	21553.99
484.28	21862.94
484.46	22169.55
484.64	22616.60
484.82	22284.24
485.00	22534.68
485.18	23201.73
485.35	23084.70
485.53	23063.64
485.71	23117.47
485.89	23470.89
486.07	23651.11
486.25	23697.92
486.43	23999.85
486.61	24074.75
486.78	24425.83
486.96	24196.46
487.14	25097.56
487.32	24905.64
487.50	25317.57
487.68	25097.56
487.85	25713.13
488.03	25748.23
488.21	25968.24
488.39	25977.61
488.57	26071.23
488.75	26305.28
488.92	26932.54
489.10	27101.06
489.28	26993.40
489.46	27679.18
489.64	27520.02
489.81	27847.69
489.99	28032.60
490.17	27824.29
490.35	28379.00
490.53	28460.91
490.70	28655.18
490.88	28519.43
491.06	29486.07
491.24	29214.57
491.41	29450.96
491.59	29818.42
491.77	29685.01
491.95	29893.32
492.13	30127.38
492.30	30253.76
492.48	30361.43
492.66	30302.92
492.84	30838.90
493.01	30827.20
493.19	31157.21
493.37	31297.64
493.54	31639.36
493.72	31419.35
493.90	31892.14
494.08	32423.44
494.25	32044.27
494.43	32456.21
494.61	32804.95
494.79	32662.18
494.96	32863.46
495.14	33022.62
495.32	33823.08
495.49	33053.05
495.67	33448.60
495.85	33979.90
496.02	34302.89
496.20	34326.30
496.38	33977.56
496.55	34136.71
496.73	35131.44
496.91	34909.09
497.09	35536.35
497.26	35564.44
497.44	34714.83
497.62	35115.06
497.79	36266.60
497.97	36027.87
498.14	36142.55
498.32	36758.11
498.50	36154.26
498.67	37015.57
498.85	36996.85
499.03	36648.11
499.20	37418.14
499.38	36985.15
499.56	37376.01
499.73	37715.39
499.91	37928.38
500.08	37790.29
500.26	37565.60
500.44	37923.70
500.61	38101.58
500.79	37902.64
500.97	38433.94
501.14	38628.20
501.32	39133.76
501.49	38799.06
501.67	38972.26
501.84	39255.46
502.02	39641.65
502.20	39922.52
502.37	39646.33
502.55	39311.64
502.72	40250.19
502.90	40135.51
503.07	39833.58
503.25	40046.57
503.43	40201.04
503.60	40828.30
503.78	40605.95
503.95	40369.56
504.13	41062.36
504.30	41233.22
504.48	41092.79
504.65	41324.50
504.83	41247.26
505.01	42012.62
505.18	41507.06
505.36	42071.13
505.53	41352.58
505.71	42064.11
505.88	42148.37
506.06	41591.32
506.23	42256.03
506.41	41895.59
506.58	42557.96
506.76	42534.56
506.93	42831.80
507.11	43058.84
507.28	42974.58
507.46	43105.65
507.63	42937.13
507.81	43545.67
507.98	43590.14
508.16	43295.23
508.33	44060.58
508.50	43945.90
508.68	44149.53
508.85	44240.81
509.03	44142.50
509.20	44460.82
509.38	45191.06
509.55	44800.19
509.73	45146.59
509.90	45188.72
510.08	44872.75
510.25	45031.91
510.42	45015.52
510.60	45371.28
510.77	45567.89
510.95	45914.29
511.12	45666.19
511.30	45661.51
511.47	45940.04
511.64	46026.63
511.82	46305.16
511.99	46183.45
512.17	46171.75
512.34	46026.63
512.51	46686.67
512.69	46698.37
512.86	46635.17
513.04	47290.52
513.21	46841.14
513.38	47505.85
513.56	47019.02
513.73	46878.59
513.90	47449.68
514.08	47129.03
514.25	47522.24
514.43	47819.49
514.60	47721.18
514.77	47655.65
514.95	48020.77
515.12	48149.50
515.29	48154.18
515.47	48587.18
515.64	48423.34
515.81	48163.54
515.99	48608.25
516.16	48987.41
516.33	48685.48
516.51	48734.63
516.68	49221.47
516.85	48818.89
517.03	49038.90
517.20	49165.29
517.37	48968.69
517.54	49237.85
517.72	49481.27
517.89	49752.77
518.06	49619.36
518.24	49780.85
518.41	49333.81
518.58	50096.83
518.75	49633.40
518.93	50066.40
519.10	49925.97
519.27	49996.18
519.45	50033.63
519.62	50504.08
519.79	50475.99
519.96	49925.97
520.14	50639.83
520.31	50569.61
520.48	50806.01
520.65	50976.87
520.83	50880.91
521.00	50974.53
521.17	51164.11
521.34	51168.79
521.52	51040.06
521.69	51203.90
521.86	51161.77
522.03	51856.91
522.20	51515.19
522.38	51908.40
522.55	51519.87
522.72	51250.71
522.89	51608.81
523.07	51835.84
523.24	51686.05
523.41	52149.48
523.58	51833.50
523.75	52313.31
523.92	52210.33
524.10	52409.28
524.27	52128.41
524.44	52310.97
524.61	52273.52
524.78	52451.41
524.96	52540.35
525.13	52666.73
525.30	52640.99
525.47	52980.37
525.64	52875.04
525.81	52973.34
525.98	52769.72
526.16	52825.89
526.33	53038.88
526.50	53095.05
526.67	53165.27
526.84	53052.92
527.01	52818.87
527.18	52949.94
527.36	53301.02
527.53	53439.11
527.70	53862.75
527.87	53783.17
528.04	53516.35
528.21	53387.62
528.38	53682.53
528.55	53727.00
528.72	53544.44
528.89	53876.79
529.07	53680.19
529.24	53883.81
529.41	54024.25
529.58	54040.63
529.75	54052.33
529.92	54246.60
530.09	54270.00
530.26	54335.54
530.43	54307.45
530.60	54103.82
530.77	54181.06
530.94	54625.76
531.11	54284.04
531.28	54485.33
531.46	54405.75
531.63	54679.60
531.80	54370.64
531.97	54513.42
532.14	54712.36
532.31	54679.60
532.48	54972.16
532.65	55079.83
532.82	54920.67
532.99	55030.68
533.16	54848.11
533.33	55145.36
533.50	55196.85
533.67	55096.21
533.84	54955.78
534.01	55171.11
534.18	55227.28
534.35	55517.51
534.52	55381.76
534.69	55545.59
534.86	55753.90
535.03	55327.92
535.20	55512.83
535.37	55386.44
535.54	55599.43
535.71	55295.16
535.88	55662.62
536.05	55587.72
536.22	55791.35
536.38	55604.11
536.55	55817.10
536.72	55821.78
536.89	55854.54
537.06	55824.12
537.23	55971.57
537.40	55796.03
537.57	56016.04
537.74	56072.21
537.91	56315.63
538.08	56294.56
538.25	56126.05
538.42	55957.53
538.59	56500.53
538.75	56133.07
538.92	56278.18
539.09	56500.53
539.26	56479.47
539.43	56420.95
539.60	56540.32
539.77	56385.85
539.94	56605.86
540.11	56809.48
540.28	56615.22
540.44	56409.25
540.61	56647.99
540.78	56605.86
540.95	56760.33
541.12	56584.79
541.29	56811.82
541.46	56619.90
541.62	56765.01
541.79	56872.68
541.96	56821.19
542.13	56631.60
542.30	56914.81
542.47	57146.52
542.63	57158.22
542.80	57293.97
542.97	57265.89
543.14	57399.30
543.31	57317.38
543.48	57549.09
543.64	57616.97
543.81	57666.12
543.98	57579.52
544.15	57478.88
544.32	57991.45
544.48	57815.91
544.65	57712.93
544.82	57764.42
544.99	57773.78
545.16	57792.51
545.32	57633.35
545.49	57748.04
545.66	57851.02
545.83	57865.06
546.00	58164.65
546.16	57806.55
546.33	57790.17
546.50	57757.40
546.67	57989.11
546.83	57808.89
547.00	58035.92
547.17	57937.62
547.34	57914.22
547.50	58181.04
547.67	58246.57
547.84	58398.71
548.00	58464.24
548.17	58424.45
548.34	58272.32
548.51	58445.52
548.67	58246.57
548.84	58220.83
549.01	58361.26
549.18	58316.79
549.34	58646.80
549.51	58567.23
549.68	58637.44
549.84	58583.61
550.01	58609.35
550.18	58787.24
550.34	58756.81
550.51	58726.38
550.68	58639.78
550.84	58679.57
551.01	58899.58
551.18	58787.24
551.34	58721.70
551.51	58831.71
551.68	58822.34
551.84	58906.60
552.01	58794.26
552.18	58918.31
552.34	58735.74
552.51	59121.93
552.68	58789.58
552.84	58937.03
553.01	59470.67
553.18	59135.98
553.34	59117.25
553.51	58843.41
553.67	59133.63
553.84	59138.32
554.01	59269.39
554.17	59189.81
554.34	59330.24
554.51	59304.49
554.67	59164.06
554.84	59157.04
555.00	59231.94
555.17	59096.19
555.33	59353.65
555.50	59238.96
555.67	59288.11
555.83	59409.82
556.00	59304.49
556.16	59508.12
556.33	59594.72
556.50	59379.39
556.66	59524.50
556.83	59337.26
556.99	59798.35
557.16	59648.55
557.32	59887.29
557.49	59877.93
557.65	59482.37
557.82	59728.13
557.98	59531.53
558.15	59688.34
558.32	59657.91
558.48	59681.32
558.65	59683.66
558.81	59737.49
558.98	59847.50
559.14	60009.00
559.31	59882.61
559.47	59992.61
559.64	59922.40
559.80	59952.82
559.97	59868.56
560.13	59870.90
560.30	59978.57
560.46	59784.30
560.63	59835.80
560.79	59999.63
560.96	59831.11
561.12	60151.77
561.29	60018.36
561.45	60076.87
561.61	60088.57
561.78	60123.68
561.94	60144.75
562.11	59854.52
562.27	60177.51
562.44	60292.20
562.60	60198.58
562.77	60065.17
562.93	60016.02
563.10	60406.89
563.26	60126.02
563.42	60378.80
563.59	60240.71
563.75	60252.41
563.92	60130.70
564.08	60095.60
564.24	60257.09
564.41	60367.10
564.57	60460.72
564.74	60369.44
564.90	60528.59
565.07	60278.16
565.23	60509.87
565.39	60507.53
565.56	60207.94
565.72	60540.30
565.88	60378.80
566.05	60219.64
566.21	60268.79
566.38	60320.29
566.54	60484.12
566.70	60629.24
566.87	60535.62
567.03	60355.39
567.19	60584.77
567.36	60587.11
567.52	60449.02
567.68	60743.92
567.85	60523.91
568.01	60832.86
568.17	60694.77
568.34	60631.58
568.50	60690.09
568.66	60432.63
568.83	60650.30
568.99	60654.98
569.15	60484.12
569.32	60640.94
569.48	60650.30
569.64	60701.79
569.81	60629.24
569.97	60563.70
570.13	60580.09
570.30	60640.94
570.46	60636.26
570.62	60867.97
570.78	60832.86
570.95	60830.52
571.11	60811.80
571.27	60664.35
571.43	60917.12
571.60	60708.82
571.76	60708.82
571.92	60793.07
572.09	60898.40
572.25	60701.79
572.41	60757.97
572.57	60987.34
572.74	61069.26
572.90	60889.04
573.06	60673.71
573.22	60790.73
573.38	60870.31
573.55	60851.59
573.71	61080.96
573.87	60697.11
574.03	60851.59
574.20	61029.47
574.36	60884.36
574.52	60889.04
574.68	61153.52
574.84	61106.71
575.01	60788.39
575.17	61022.45
575.33	60989.68
575.49	60928.83
575.65	60849.25
575.82	60992.02
575.98	61172.24
576.14	61228.41
576.30	60856.27
576.46	61080.96
576.62	60935.85
576.79	60933.51
576.95	60872.65
577.11	60846.91
577.27	61078.62
577.43	60959.25
577.59	60863.29
577.75	61132.45
577.92	60830.52
578.08	60917.12
578.24	60975.64
578.40	61179.26
578.56	61062.24
578.72	60940.53
578.88	61118.41
579.04	61413.32
579.21	61240.12
579.37	61256.50
579.53	61254.16
579.69	60893.72
579.85	60999.04
580.01	60919.46
580.17	60842.23
580.33	61010.74
580.49	61144.16
580.65	61125.43
580.82	61116.07
580.98	61069.26
581.14	60842.23
581.30	61176.92
581.46	61052.87
581.62	61324.38
581.78	61130.11
581.94	61235.44
582.10	61134.79
582.26	61261.18
582.42	61102.03
582.58	61394.59
582.74	61132.45
582.90	61062.24
583.06	61167.56
583.22	60872.65
583.38	61181.60
583.54	61261.18
583.70	61261.18
583.86	61219.05
584.02	60917.12
584.18	61300.97
584.34	61415.66
584.50	61345.44
584.66	61087.98
584.82	61118.41
584.98	61324.38
585.14	61275.22
585.30	61176.92
585.46	61256.50
585.62	61268.20
585.78	61375.87
585.94	61048.19
586.10	61256.50
586.26	61200.33
586.42	61144.16
586.58	61256.50
586.74	61394.59
586.90	61087.98
587.06	61059.90
587.22	61312.67
587.38	61298.63
587.54	61485.87
587.70	61422.68
587.86	61298.63
588.02	61350.12
588.18	61464.81
588.34	61085.64
588.49	61319.70
588.65	61244.80
588.81	61546.73
588.97	61371.19
589.13	61256.50
589.29	61432.04
589.45	61520.98
589.61	61347.78
589.77	61581.84
589.93	61722.27
590.08	61399.27
590.24	61441.40
590.40	61602.90
590.56	61654.39
590.72	61584.18
590.88	61434.38
591.04	61518.64
591.20	61762.06
591.35	61577.15
591.51	61843.98
591.67	61872.06
591.83	61771.42
591.99	61645.03
592.15	61666.09
592.31	61633.33
592.46	61647.37
592.62	61565.45
592.78	61659.07
592.94	61588.86
593.10	61748.01
593.26	61785.46
593.41	61612.26
593.57	61703.54
593.73	61630.99
593.89	61785.46
594.05	61832.27
594.20	61811.21
594.36	61755.03
594.52	61780.78
594.68	61577.15
594.84	61640.35
594.99	61780.78
595.15	61574.81
595.31	61740.99
595.47	61722.27
595.62	61591.20
595.78	61635.67
595.94	61719.93
596.10	61867.38
596.25	61743.33
596.41	61836.95
596.57	61804.19
596.73	61659.07
596.88	61806.53
597.04	62007.81
597.20	61991.43
597.36	62010.15
597.51	61895.47
597.67	61836.95
597.83	61731.63
597.99	61745.67
598.14	61984.41
598.30	61841.63
598.46	61633.33
598.61	62089.73
598.77	61822.91
598.93	61719.93
599.09	61893.13
599.24	62260.59
599.40	61982.07
599.56	61663.75
599.71	61876.74
599.87	62223.14
600.03	61991.43
600.18	61790.14
600.34	61804.19
600.50	61839.29
600.65	61848.66
600.81	61928.23
600.97	61996.11
601.12	61930.58
601.28	61848.66
601.44	61766.74
601.59	62024.20
601.75	61982.07
601.91	62047.60
602.06	62113.14
602.22	61975.05
602.37	62106.12
602.53	62066.33
602.69	61963.34
602.84	61818.23
603.00	61895.47
603.16	61829.93
603.31	61886.10
603.47	61991.43
603.62	62157.61
603.78	62054.62
603.94	61860.36
604.09	61975.05
604.25	61893.13
604.40	61939.94
604.56	61986.75
604.71	62169.31
604.87	61888.45
605.03	61953.98
605.18	61986.75
605.34	61942.28
605.49	61588.86
605.65	62056.96
605.80	62181.01
605.96	62089.73
606.12	62003.13
606.27	62298.04
606.43	61897.81
606.58	62056.96
606.74	61907.17
606.89	61843.98
607.05	61965.68
607.20	62059.30
607.36	61834.61
607.51	61677.80
607.67	61785.46
607.82	61944.62
607.98	61832.27
608.13	61865.04
608.29	61769.08
608.44	61829.93
608.60	61673.12
608.75	61698.86
608.91	61977.39
609.06	61698.86
609.22	61890.79
609.37	61689.50
609.53	61801.85
609.68	61841.63
609.84	61825.25
609.99	61935.26
610.15	61883.76
610.30	61904.83
610.46	61895.47
610.61	61869.72
610.76	61879.08
610.92	61965.68
611.07	61673.12
611.23	61759.72
611.38	61740.99
611.54	61888.45
611.69	61577.15
611.84	61748.01
612.00	61677.80
612.15	61694.18
612.31	61799.50
612.46	61546.73
612.62	61616.94
612.77	61616.94
612.92	61869.72
613.08	61551.41
613.23	61752.69
613.39	61598.22
613.54	61572.47
613.69	61675.46
613.85	61628.65
614.00	61815.89
614.15	61822.91
614.31	61661.41
614.46	61705.88
614.62	61513.96
614.77	61544.39
614.92	61663.75
615.08	61492.89
615.23	61450.77
615.38	61586.52
615.54	61396.93
615.69	61773.76
615.84	61558.43
616.00	61535.02
616.15	61532.68
616.30	61619.28
616.46	61506.94
616.61	61584.18
616.76	61448.42
616.92	61506.94
617.07	61471.83
617.22	61183.94
617.37	61443.74
617.53	61724.61
617.68	61535.02
617.83	61506.94
617.99	61450.77
618.14	61401.61
618.29	61544.39
618.45	61242.46
618.60	61226.07
618.75	61279.91
618.90	61270.54
619.06	61464.81
619.21	61293.95
619.36	61506.94
619.51	61408.64
619.67	61474.17
619.82	61268.20
619.97	61387.57
620.12	61158.20
620.28	61272.88
620.43	61228.41
620.58	61422.68
620.73	60947.55
620.89	61132.45
621.04	61272.88
621.19	61087.98
621.34	61197.99
621.49	61169.90
621.65	61319.70
621.80	61504.60
621.95	61017.77
622.10	61174.58
622.25	61059.90
622.41	61071.60
622.56	61024.79
622.71	61160.54
622.86	61197.99
623.01	60966.27
623.16	61090.32
623.32	60938.19
623.47	61031.81
623.62	61055.21
623.77	60886.70
623.92	60975.64
624.07	61057.56
624.23	61139.47
624.38	60956.91
624.53	60942.87
624.68	60970.96
624.83	60912.44
624.98	60977.98
625.13	60722.86
625.29	60992.02
625.44	60793.07
625.59	61010.74
625.74	60715.84
625.89	60722.86
626.04	60449.02
626.19	60704.13
626.34	60807.12
626.49	60549.66
626.65	60645.62
626.80	60774.35
626.95	60563.70
627.10	60444.33
627.25	60547.32
627.40	60439.65
627.55	60523.91
627.70	60533.28
627.85	60643.28
628.00	60406.89
628.15	60411.57
628.30	60378.80
628.45	60542.64
628.60	60353.05
628.76	60404.55
628.91	60451.36
629.06	60790.73
629.21	60692.43
629.36	60488.80
629.51	60446.68
629.66	60214.96
629.81	60254.75
629.96	60299.22
630.11	60313.26
630.26	60430.29
630.41	60580.09
630.56	60310.92
630.71	60339.01
630.86	60341.35
631.01	60357.74
631.16	60278.16
631.31	60254.75
631.46	60142.41
631.61	60055.81
631.76	60339.01
631.91	60404.55
632.06	60329.65
632.21	60357.74
632.36	60186.88
632.51	59859.20
632.66	60189.22
632.81	59990.27
632.96	60259.43
633.10	60055.81
633.25	60233.69
633.40	60322.63
633.55	60006.65
633.70	60119.00
633.85	59929.42
634.00	59992.61
634.15	59854.52
634.30	59852.18
634.45	59992.61
634.60	60137.72
634.75	60079.21
634.90	59723.45
635.05	59770.26
635.19	59901.33
635.34	59847.50
635.49	59683.66
635.64	59943.46
635.79	59957.50
635.94	59831.11
636.09	59791.33
636.24	59590.04
636.39	59718.77
636.53	59943.46
636.68	59849.84
636.83	59646.21
636.98	60025.38
637.13	59552.59
637.28	59615.79
637.43	59522.16
637.57	59742.17
637.72	59393.43
637.87	59793.67
638.02	59440.24
638.17	59674.30
638.32	59625.15
638.46	59568.97
638.61	59374.71
638.76	59451.95
638.91	59454.29
639.06	59430.88
639.20	59365.35
639.35	59370.03
639.50	59447.27
639.65	59456.63
639.80	59526.84
639.94	59384.07
640.09	59264.70
640.24	59332.58
640.39	59381.73
640.54	59264.70
640.68	59416.84
640.83	59238.96
640.98	59295.13
641.13	59222.58
641.27	59606.42
641.42	59248.32
641.57	59023.63
641.72	59161.72
641.86	59082.14
642.01	59070.44
642.16	59185.13
642.31	58983.84
642.45	59309.18
642.60	59180.45
642.75	59267.05
642.90	59159.38
643.04	59147.68
643.19	59182.79
643.34	59178.10
643.48	59245.98
643.63	58817.66
643.78	58953.41
643.93	59061.08
644.07	58997.88
644.22	58934.69
644.37	58836.39
644.51	58810.64
644.66	58990.86
644.81	58946.39
644.95	58822.34
645.10	58993.20
645.25	58958.09
645.39	58801.28
645.54	58738.08
645.69	58684.25
645.83	58695.95
645.98	58705.32
646.13	58869.15
646.27	58848.09
646.42	58766.17
646.57	58841.07
646.71	58756.81
646.86	58721.70
647.00	59009.59
647.15	58719.36
647.30	58731.06
647.44	58581.27
647.59	58866.81
647.74	58539.14
647.88	58595.31
648.03	58717.02
648.17	58710.00
648.32	58363.60
648.47	58941.71
648.61	58590.63
648.76	58691.27
648.90	58674.89
649.05	58473.60
649.20	58782.55
649.34	58314.45
649.49	58733.40
649.63	58447.86
649.78	58595.31
649.92	58550.84
650.07	58445.52
650.21	58412.75
650.36	58412.75
650.51	58237.21
650.65	58555.52
650.80	58389.34
650.94	58281.68
651.09	58089.76
651.23	58075.71
651.38	58279.34
651.52	58108.48
651.67	58106.14
651.81	58012.52
651.96	58166.99
652.10	58319.13
652.25	58164.65
652.39	58342.53
652.54	57965.71
652.68	57757.40
652.83	57914.22
652.97	57867.40
653.12	58124.86
653.26	58035.92
653.41	58092.10
653.55	58094.44
653.70	58185.72
653.84	58080.39
653.99	58026.56
654.13	57806.55
654.27	57684.84
654.42	57851.02
654.56	57872.09
654.71	57986.77
654.85	58007.84
655.00	58087.42
655.14	57794.85
655.29	57495.26
655.43	57946.98
655.57	57668.46
655.72	57879.11
655.86	57942.30
656.01	57724.63
656.15	57467.17
656.30	57743.36
656.44	57881.45
656.58	57902.51
656.73	57776.12
656.87	57780.81
657.01	57787.83
657.16	57614.63
657.30	57535.05
657.45	57609.95
657.59	57413.34
657.73	57387.60
657.88	57322.06
658.02	57584.20
658.16	57385.25
658.31	57308.02
658.45	57389.94
658.60	57223.76
658.74	57556.11
658.88	57286.95
659.03	57254.18
659.17	57301.00
659.31	57113.75
659.46	57153.54
659.60	57256.53
659.74	57174.61
659.89	57057.58
660.03	57088.01
660.17	57130.14
660.32	57003.75
660.46	57223.76
660.60	56875.02
660.74	57195.67
660.89	57029.49
661.03	56725.22
661.17	56701.82
661.32	56582.45
661.46	56774.37
661.60	56856.29
661.74	56530.96
661.89	56456.06
662.03	56708.84
662.17	56554.36
662.31	56320.31
662.46	56858.63
662.60	56704.16
662.74	56252.44
662.88	56266.48
663.03	56135.41
663.17	56439.68
663.31	56250.09
663.45	56257.12
663.60	55931.78
663.74	56002.00
663.88	55901.36
664.02	56058.17
664.17	56037.11
664.31	55742.20
664.45	56037.11
664.59	55957.53
664.73	55632.19
664.88	55945.83
665.02	55278.77
665.16	55730.50
665.30	55529.21
665.44	55470.70
665.59	55618.15
665.73	55721.13
665.87	55210.90
666.01	55407.50
666.15	55466.02
666.29	55671.98
666.44	55671.98
666.58	55430.91
666.72	54951.10
666.86	55124.30
667.00	55107.91
667.14	54810.67
667.28	54852.80
667.43	55044.72
667.57	55147.70
667.71	54831.73
667.85	54974.50
667.99	54829.39
668.13	54829.39
668.27	54419.80
668.41	54747.47
668.56	54557.89
668.70	54415.11
668.84	54583.63
668.98	54752.15
669.12	54724.07
669.26	54571.93
669.40	54382.35
669.54	54436.18
669.68	54286.39
669.82	54075.74
669.96	54452.56
670.10	54391.71
670.25	54426.82
670.39	54232.55
670.53	54021.90
670.67	53965.73
670.81	54157.66
670.95	53989.14
671.09	53829.98
671.23	53731.68
671.37	53607.63
671.51	53460.18
671.65	53755.08
671.79	53485.92
671.93	53577.20
672.07	53373.58
672.21	53331.45
672.35	53020.16
672.49	52914.83
672.63	53048.24
672.77	53240.17
672.91	53120.80
673.05	53052.92
673.19	52938.24
673.33	52687.80
673.47	52790.78
673.61	52575.45
673.75	52753.33
673.89	52484.17
674.03	52575.45
674.17	52222.03
674.31	52254.80
674.45	52025.43
674.59	52053.51
674.73	52128.41
674.87	52090.96
675.01	51938.83
675.15	52053.51
675.29	51828.82
675.43	51826.48
675.56	51288.16
675.70	51334.97
675.84	51625.20
675.98	50454.93
676.12	51327.95
676.26	51416.89
676.40	51386.46
676.54	51381.78
676.68	50983.89
676.82	50230.24
676.96	50635.15
677.10	50232.58
677.23	50045.33
677.37	50258.32
677.51	50000.86
677.65	49741.06
677.79	49214.44
677.93	49663.83
678.07	49476.58
678.21	49158.27
678.34	49670.85
678.48	49132.53
678.62	49333.81
678.76	48694.85
678.90	48825.92
679.04	48839.96
679.18	48839.96
679.31	48540.37
679.45	48137.80
679.59	48605.91
679.73	48734.63
679.87	48083.97
680.00	47529.26
680.14	47622.88
680.28	47758.63
680.42	47559.69
680.56	47559.69
680.70	47260.10
680.83	47058.81
680.97	46920.72
681.11	46976.89
681.25	47264.78
681.39	46883.27
681.52	47178.18
681.66	46265.37
681.80	46410.48
681.94	46185.79
682.07	46036.00
682.21	45720.02
682.35	45574.91
682.49	45851.09
682.62	45642.79
682.76	45986.85
682.90	45399.37
683.04	45280.00
683.17	44802.53
683.31	45216.81
683.45	44608.27
683.59	44657.42
683.72	44683.17
683.86	44748.70
684.00	44769.77
684.13	44533.37
684.27	43962.28
684.41	44243.15
684.55	44252.51
684.68	43779.72
684.82	43548.01
684.96	43311.61
685.09	43430.98
685.23	43470.77
685.37	42747.54
685.50	42822.44
685.64	42817.76
685.78	42471.36
685.91	42576.69
686.05	42122.62
686.19	41907.29
686.32	41706.01
686.46	41483.66
686.60	41092.79
686.73	40762.77
686.87	41127.89
687.01	41631.11
687.14	41139.60
687.28	41071.72
687.42	40488.93
687.55	40816.60
687.69	40807.24
687.82	40863.41
687.96	39978.69
688.10	40203.38
688.23	40032.52
688.37	40147.21
688.50	39819.53
688.64	39192.27
688.78	39164.18
688.91	38930.13
689.05	38618.84
689.18	39089.29
689.32	38073.49
689.46	38085.20
689.59	38045.41
689.73	37720.07
689.86	37521.13
690.00	37600.71
690.13	37921.36
690.27	37914.34
690.41	37773.91
690.54	37289.42
690.68	36823.65
690.81	37003.87
690.95	36495.97
691.08	37001.53
691.22	36725.35
691.35	36180.00
691.49	36980.46
691.62	36620.02
691.76	36217.45
691.89	35840.62
692.03	35796.15
692.16	35922.54
692.30	35421.67
692.43	35739.98
692.57	35185.27
692.70	34885.68
692.84	35117.40
692.97	34698.44
693.11	35124.42
693.24	34693.76
693.38	33993.94
693.51	34263.10
693.65	34029.05
693.78	33785.63
693.92	33813.72
694.05	33464.98
694.19	33443.91
694.32	33521.15
694.45	33392.42
694.59	33053.05
694.72	32816.65
694.86	32519.40
694.99	32587.28
695.13	32484.30
695.26	32109.81
695.39	31730.64
695.53	31896.82
695.66	31976.40
695.80	31880.44
695.93	31440.42
696.07	31033.16
696.20	30941.88
696.33	30522.93
696.47	31187.64
696.60	30913.80
696.73	30686.76
696.87	30422.28
697.00	29989.28
697.14	30295.89
697.27	30071.20
697.40	30176.53
697.54	29902.68
697.67	29720.12
697.80	30036.09
697.94	29490.75
698.07	29315.21
698.21	28910.30
698.34	29481.39
698.47	28840.08
698.61	28762.84
698.74	28439.85
698.87	28903.28
699.01	28292.40
699.14	28470.28
699.27	28247.93
699.40	28254.95
699.54	28320.48
699.67	27927.27
699.80	27674.49
699.94	27674.49
700.07	27618.32
700.20	27330.44
700.34	27014.46
700.47	26852.97
700.60	26632.96
700.73	26644.66
700.87	26183.57
701.00	26078.25
701.13	25942.50
701.26	25991.65
701.40	26277.19
701.53	26529.97
701.66	25865.26
701.79	25504.82
701.93	25010.96
702.06	24856.49
702.19	24828.40
702.32	25020.33
702.46	24797.98
702.59	24687.97
702.72	24437.53
702.85	24556.90
702.99	24943.09
703.12	24559.24
703.25	24189.44
703.38	23768.14
703.51	24058.37
703.65	23665.16
703.78	23508.34
703.91	23323.44
704.04	23356.21
704.17	23370.25
704.31	23381.95
704.44	23314.08
704.57	23215.77
704.70	23068.32
704.83	22412.97
704.96	22352.12
705.10	22478.50
705.23	22504.25
>>>>>End Processed Spectral Data<<<<<
