SpectraSuite Data File
++++++++++++++++++++++++++++++++++++
Date: Fri Oct 25 10:44:02 EDT 2013
User: price-jones
Dark Spectrum Present: No
Reference Spectrum Present: No
Number of Sampled Component Spectra: 1
Spectrometers: USB2+H05261
Integration Time (usec): 100000 (USB2+H05261)
Spectra Averaged: 1 (USB2+H05261)
Boxcar Smoothing: 0 (USB2+H05261)
Correct for Electrical Dark: No (USB2+H05261)
Strobe/Lamp Enabled: No (USB2+H05261)
Correct for Detector Non-linearity: No (USB2+H05261)
Correct for Stray Light: No (USB2+H05261)
Number of Pixels in Processed Spectrum: 2048
>>>>>Begin Processed Spectral Data<<<<<
365.73	79.58
365.92	79.58
366.12	79.58
366.32	0.00
366.52	32.77
366.72	14.04
366.91	0.00
367.11	46.81
367.31	53.83
367.51	2.34
367.70	88.94
367.90	51.49
368.10	35.11
368.30	0.00
368.49	9.36
368.69	35.11
368.89	35.11
369.09	65.54
369.28	119.37
369.48	44.47
369.68	72.56
369.87	72.56
370.07	121.71
370.27	121.71
370.47	194.26
370.66	470.45
370.86	433.00
371.06	465.77
371.25	486.83
371.45	430.66
371.65	491.51
371.84	425.98
372.04	479.81
372.24	557.05
372.44	486.83
372.63	528.96
372.83	547.69
373.03	512.58
373.22	500.87
373.42	540.66
373.62	547.69
373.81	594.50
374.01	582.79
374.21	489.17
374.40	566.41
374.60	690.46
374.79	636.63
374.99	561.73
375.19	589.82
375.38	601.52
375.58	657.69
375.78	613.22
375.97	629.60
376.17	578.11
376.37	613.22
376.56	624.92
376.76	599.18
376.95	655.35
377.15	629.60
377.35	660.03
377.54	711.52
377.74	720.88
377.93	601.52
378.13	751.31
378.33	718.54
378.52	671.73
378.72	730.25
378.91	660.03
379.11	561.73
379.31	620.24
379.50	667.05
379.70	662.37
379.89	758.33
380.09	678.76
380.28	779.40
380.48	690.46
380.68	716.20
380.87	725.57
381.07	706.84
381.26	739.61
381.46	667.05
381.65	734.93
381.85	699.82
382.04	706.84
382.24	767.70
382.43	725.57
382.63	732.59
382.83	716.20
383.02	727.91
383.22	877.70
383.41	770.04
383.61	725.57
383.80	739.61
384.00	826.21
384.19	791.10
384.39	807.48
384.58	755.99
384.78	856.64
384.97	798.12
385.17	828.55
385.36	795.78
385.56	877.70
385.75	767.70
385.95	788.76
386.14	870.68
386.34	870.68
386.53	835.57
386.72	826.21
386.92	821.53
387.11	917.49
387.31	891.74
387.50	873.02
387.70	945.58
387.89	866.00
388.09	938.55
388.28	898.77
388.48	908.13
388.67	929.19
388.86	985.37
389.06	903.45
389.25	983.02
389.45	1039.20
389.64	994.73
389.84	1020.47
390.03	1055.58
390.22	1083.67
390.42	1050.90
390.61	987.71
390.81	1039.20
391.00	1130.48
391.19	1121.12
391.39	1046.22
391.58	1046.22
391.78	1135.16
391.97	1118.78
392.16	1081.33
392.36	1167.93
392.55	1153.88
392.75	1081.33
392.94	905.79
393.13	1036.86
393.33	999.41
393.52	1086.01
393.71	1142.18
393.91	1142.18
394.10	1181.97
394.29	1233.46
394.49	1277.93
394.68	1228.78
394.88	1163.25
395.07	1364.53
395.26	1306.02
395.46	1226.44
395.65	1306.02
395.84	1277.93
396.04	1277.93
396.23	1142.18
396.42	1200.69
396.62	1214.74
396.81	1207.72
397.00	1240.48
397.19	1252.19
397.39	1336.45
397.58	1399.64
397.77	1315.38
397.97	1453.47
398.16	1483.90
398.35	1472.20
398.55	1430.07
398.74	1614.97
398.93	1600.93
399.12	1551.78
399.32	1486.24
399.51	1544.75
399.70	1558.80
399.90	1558.80
400.09	1694.55
400.28	1645.40
400.47	1675.82
400.67	1706.25
400.86	1689.87
401.05	1764.76
401.24	1720.29
401.44	1792.85
401.63	1661.78
401.82	1792.85
402.01	1657.10
402.21	1839.66
402.40	1886.47
402.59	1888.81
402.78	1799.87
402.97	1860.73
403.17	1795.19
403.36	1891.15
403.55	1923.92
403.74	1980.09
403.93	2012.86
404.13	1888.81
404.32	1928.60
404.51	1942.64
404.70	2083.08
404.89	1956.69
405.09	2080.74
405.28	1984.77
405.47	1989.46
405.66	1966.05
405.85	2022.22
406.05	2073.71
406.24	2026.90
406.43	2153.29
406.62	2202.44
406.81	2176.70
407.00	2143.93
407.20	2106.48
407.39	2155.63
407.58	2239.89
407.77	2237.55
407.96	2392.03
408.15	2216.49
408.34	2324.15
408.54	2286.70
408.73	2389.69
408.92	2438.84
409.11	2422.45
409.30	2499.69
409.49	2275.00
409.68	2385.01
409.87	2368.62
410.07	2455.22
410.26	2492.67
410.45	2457.56
410.64	2558.21
410.83	2633.10
411.02	2495.01
411.21	2590.97
411.40	2698.64
411.59	2649.49
411.78	2813.32
411.98	2843.75
412.17	2764.17
412.36	2782.90
412.55	2818.00
412.74	2848.43
412.93	2825.03
413.12	2768.85
413.31	3056.74
413.50	3073.12
413.69	2895.24
413.88	2949.08
414.07	2981.84
414.26	3122.27
414.45	3035.67
414.64	3098.87
414.83	3110.57
415.02	3166.74
415.22	3061.42
415.41	3325.90
415.60	3246.32
415.79	3206.53
415.98	3475.70
416.17	3295.47
416.36	3328.24
416.55	3447.61
416.74	3403.14
416.93	3358.67
417.12	3449.95
417.31	3449.95
417.50	3478.04
417.69	3726.13
417.88	3555.27
418.07	3534.21
418.26	3569.32
418.45	3700.39
418.64	3786.99
418.83	3625.49
419.02	3662.94
419.21	3796.35
419.39	3665.28
419.58	3749.54
419.77	3705.07
419.96	3705.07
420.15	3782.31
420.34	3768.26
420.53	3854.86
420.72	3920.40
420.91	3908.69
421.10	3915.72
421.29	3999.98
421.48	3946.14
421.67	3974.23
421.86	4053.81
422.05	4009.34
422.24	3997.64
422.43	4014.02
422.61	3990.61
422.80	4032.74
422.99	4002.32
423.18	4212.96
423.37	4023.38
423.56	4086.58
423.75	4032.74
423.94	3962.53
424.13	3754.22
424.32	3943.80
424.50	4037.42
424.69	4121.68
424.88	4140.41
425.07	4140.41
425.26	3960.19
425.45	4072.53
425.64	3950.82
425.83	4007.00
426.01	4229.35
426.20	4212.96
426.39	4180.20
426.58	4086.58
426.77	4124.02
426.96	4189.56
427.15	4243.39
427.33	4198.92
427.52	4170.83
427.71	4227.01
427.90	4271.48
428.09	4306.59
428.28	4231.69
428.46	4271.48
428.65	4355.74
428.84	4400.21
429.03	4517.23
429.22	4269.14
429.40	4278.50
429.59	4269.14
429.78	4072.53
429.97	4028.06
430.16	4072.53
430.34	4091.26
430.53	4390.84
430.72	4344.03
430.91	4311.27
431.10	4430.63
431.28	4552.34
431.47	4681.07
431.66	4915.12
431.85	4655.33
432.03	4880.02
432.22	4795.76
432.41	4908.10
432.60	4926.83
432.79	4978.32
432.97	4980.66
433.16	4961.94
433.35	5039.17
433.54	4905.76
433.72	4877.68
433.91	4809.80
434.10	4929.17
434.28	4954.91
434.47	5067.26
434.66	5097.69
434.85	5172.58
435.03	5090.67
435.22	5137.48
435.41	5266.21
435.59	5418.34
435.78	5280.25
435.97	5397.28
436.16	5390.25
436.34	5277.91
436.53	5387.91
436.72	5509.62
436.90	5273.23
437.09	5284.93
437.28	5217.05
437.46	5270.89
437.65	5416.00
437.84	5305.99
438.02	5231.10
438.21	5451.11
438.40	5334.08
438.58	5591.54
438.77	5511.96
438.96	5561.11
439.14	5774.10
439.33	5860.70
439.52	5973.05
439.70	5863.04
439.89	5947.30
440.08	5982.41
440.26	5881.77
440.45	5998.79
440.63	6104.12
440.82	6155.61
441.01	6148.59
441.19	6274.98
441.38	6303.06
441.57	6223.48
441.75	6333.49
441.94	6466.90
442.12	6448.18
442.31	6614.35
442.50	6670.53
442.68	6548.82
442.87	6600.31
443.05	6455.20
443.24	6839.05
443.43	6691.59
443.61	6614.35
443.80	6834.36
443.98	6569.88
444.17	6553.50
444.35	6761.81
444.54	6785.21
444.73	6789.89
444.91	6792.23
445.10	6775.85
445.28	6752.45
445.47	6527.75
445.65	6607.33
445.84	6670.53
446.02	6862.45
446.21	6722.02
446.39	6885.86
446.58	6897.56
446.77	6909.26
446.95	6670.53
447.14	6925.65
447.32	6902.24
447.51	7016.93
447.69	6927.99
447.88	6867.13
448.06	7030.97
448.25	6822.66
448.43	7014.59
448.62	7019.27
448.80	7108.21
448.99	7070.76
449.17	7176.08
449.36	6897.56
449.54	7246.30
449.73	7372.69
449.91	7241.62
450.10	7370.35
450.28	7564.61
450.46	7468.65
450.65	7431.20
450.83	7445.24
451.02	7421.84
451.20	7426.52
451.39	7637.17
451.57	7522.48
451.76	7520.14
451.94	7524.82
452.13	7564.61
452.31	7396.09
452.49	7351.62
452.68	7449.93
452.86	7309.49
453.05	7440.56
453.23	7756.54
453.42	7337.58
453.60	7667.60
453.78	7808.03
453.97	7691.00
454.15	7662.91
454.34	7517.80
454.52	7772.92
454.70	7779.94
454.89	7786.96
455.07	7786.96
455.26	7786.96
455.44	7997.61
455.62	8084.21
455.81	8124.00
455.99	8072.51
456.17	8065.49
456.36	8004.63
456.54	8327.63
456.73	8236.35
456.91	8294.86
457.09	8297.20
457.28	8585.08
457.46	8313.58
457.64	8603.81
457.83	8301.88
458.01	8463.38
458.19	8528.91
458.38	8613.17
458.56	8344.01
458.74	8430.61
458.93	8458.70
459.11	8535.93
459.29	8613.17
459.48	8624.87
459.66	8587.43
459.84	8833.18
460.03	8807.44
460.21	8952.55
460.39	8812.12
460.57	8720.84
460.76	8950.21
460.94	8952.55
461.12	8947.87
461.31	8828.50
461.49	8741.90
461.67	9062.55
461.85	9116.39
462.04	8884.67
462.22	9500.23
462.40	9387.89
462.59	9256.82
462.77	9174.90
462.95	9338.74
463.13	9200.65
463.32	9097.66
463.50	9348.10
463.68	9415.98
463.86	9413.63
464.05	9165.54
464.23	9249.80
464.41	9479.17
464.59	9294.27
464.78	9502.58
464.96	9397.25
465.14	9322.35
465.32	9528.32
465.50	9582.15
465.69	9467.47
465.87	9497.89
466.05	9579.81
466.23	9289.59
466.41	9411.29
466.60	9722.59
466.78	9474.49
466.96	9591.52
467.14	9371.50
467.32	9511.94
467.51	9914.51
467.69	9514.28
467.87	9504.92
468.05	9841.95
468.23	9907.49
468.41	9900.47
468.60	10022.17
468.78	9769.40
468.96	9799.82
469.14	9984.73
469.32	10085.37
469.50	9820.89
469.69	10125.16
469.87	10129.84
470.05	10080.69
470.23	10071.33
470.41	10122.82
470.59	10319.42
470.77	10136.86
470.95	10335.81
471.14	10525.39
471.32	10228.14
471.50	10623.69
471.68	10574.54
471.86	10665.82
472.04	10583.90
472.22	10782.85
472.40	10609.65
472.58	10740.72
472.77	10654.12
472.95	10925.62
473.13	11262.66
473.31	11007.54
473.49	11007.54
473.67	11218.19
473.85	11021.58
474.03	11330.53
474.21	11403.09
474.39	11290.74
474.57	11349.26
474.75	11428.84
474.93	11655.87
475.12	11541.18
475.30	11683.95
475.48	11789.28
475.66	11665.23
475.84	11740.13
476.02	11709.70
476.20	11672.25
476.38	12049.08
476.56	12100.57
476.74	12215.26
476.92	12154.40
477.10	12140.36
477.28	12512.50
477.46	12243.34
477.64	12549.95
477.82	12802.73
478.00	13275.52
478.18	12767.62
478.36	12971.25
478.54	12919.76
478.72	13188.92
478.90	13305.95
479.08	13453.40
479.26	13668.73
479.44	13537.66
479.62	13650.00
479.80	13748.31
479.98	13855.97
480.16	14071.30
480.34	14253.86
480.52	13980.02
480.70	14394.29
480.88	13935.55
481.06	14455.15
481.24	14572.18
481.41	14902.19
481.59	14930.28
481.77	14951.34
481.95	14927.94
482.13	15033.26
482.31	14864.74
482.49	15428.81
482.67	15508.39
482.85	15335.19
483.03	15515.41
483.21	15854.79
483.39	15978.84
483.57	15775.21
483.74	16226.93
483.92	15985.86
484.10	15833.72
484.28	16168.42
484.46	16858.88
484.64	16835.47
484.82	16739.51
485.00	16781.64
485.18	16793.34
485.35	17195.92
485.53	16468.01
485.71	16521.84
485.89	16875.26
486.07	17046.12
486.25	17111.66
486.43	17411.25
486.61	17329.33
486.78	17568.06
486.96	17724.88
487.14	18008.08
487.32	18099.36
487.50	18541.72
487.68	18864.72
487.85	18623.64
488.03	19253.25
488.21	19351.55
488.39	19161.97
488.57	18991.11
488.75	19449.85
488.92	19475.60
489.10	19927.32
489.28	20095.84
489.46	20180.10
489.64	20292.44
489.81	20863.54
489.99	20926.73
490.17	21081.21
490.35	20978.22
490.53	20774.60
490.70	21252.06
490.88	21205.25
491.06	21376.11
491.24	21097.59
491.41	21397.18
491.59	21518.89
491.77	21561.02
491.95	21853.58
492.13	22150.83
492.30	22265.52
492.48	22525.32
492.66	22335.73
492.84	22431.69
493.01	22904.48
493.19	22721.92
493.37	22948.95
493.54	22930.23
493.72	23098.75
493.90	23431.10
494.08	23517.70
494.25	23803.25
494.43	23658.14
494.61	24128.58
494.79	24325.19
494.96	23850.06
495.14	24088.79
495.32	24500.73
495.49	24456.26
495.67	24650.52
495.85	24723.08
496.02	24819.04
496.20	25518.86
496.38	25111.61
496.55	25263.74
496.73	25832.49
496.91	25876.96
497.09	26040.80
497.26	25638.23
497.44	25642.91
497.62	26073.57
497.79	26153.15
497.97	25673.34
498.14	26188.25
498.32	26216.34
498.50	26670.40
498.67	26855.31
498.85	26834.24
499.03	27068.30
499.20	27171.28
499.38	27285.97
499.56	27342.14
499.73	27452.14
499.91	27482.57
500.08	27428.74
500.26	27545.76
500.44	27309.37
500.61	27564.49
500.79	27606.62
500.97	27679.18
501.14	27967.06
501.32	27728.33
501.49	27960.04
501.67	27873.44
501.84	28147.28
502.02	28362.61
502.20	28886.89
502.37	28842.42
502.55	28685.61
502.72	29172.44
502.90	28617.73
503.07	28889.23
503.25	28868.17
503.43	28809.65
503.60	29027.32
503.78	28940.72
503.95	28966.47
504.13	29167.76
504.30	29441.60
504.48	29551.60
504.65	29748.21
504.83	29909.71
505.01	29888.64
505.18	30071.20
505.36	30134.40
505.53	30422.28
505.71	30665.70
505.88	30462.07
506.06	30232.70
506.23	30279.51
506.41	30597.82
506.58	30827.20
506.76	30845.92
506.93	30785.07
507.11	31000.40
507.28	30532.29
507.46	30888.05
507.63	30565.06
507.81	30871.67
507.98	30815.49
508.16	31318.71
508.33	31421.69
508.50	31445.10
508.68	31796.18
508.85	32116.83
509.03	31693.19
509.20	31964.70
509.38	31920.23
509.55	32177.68
509.73	32233.86
509.90	32266.63
510.08	32177.68
510.25	32151.94
510.42	32620.05
510.60	32453.87
510.77	32987.51
510.95	33120.92
511.12	32664.52
511.30	33081.13
511.47	33362.00
511.64	33284.76
511.82	33450.94
511.99	32844.74
512.17	33497.75
512.34	32978.15
512.51	33219.22
512.69	33851.17
512.86	33666.27
513.04	33420.51
513.21	33977.56
513.38	33647.54
513.56	33968.19
513.73	33741.16
513.90	33900.32
514.08	33652.22
514.25	33769.25
514.43	34148.42
514.60	33935.43
514.77	34204.59
514.95	34766.32
515.12	34408.22
515.29	34457.37
515.47	35178.25
515.64	34822.49
515.81	34768.66
515.99	34412.90
516.16	34139.05
516.33	34232.68
516.51	34684.40
516.68	34305.23
516.85	33933.09
517.03	34253.74
517.20	34871.64
517.37	35306.98
517.54	35276.55
517.72	35192.30
517.89	34878.66
518.06	34913.77
518.24	34759.30
518.41	35072.93
518.58	35433.37
518.75	35655.72
518.93	35945.95
519.10	35761.05
519.27	35634.66
519.45	35810.20
519.62	36060.63
519.79	36479.59
519.96	36060.63
520.14	36357.88
520.31	36147.23
520.48	36374.27
520.65	36341.50
520.83	36884.50
521.00	36811.95
521.17	36795.56
521.34	36779.18
521.52	36875.14
521.69	36968.76
521.86	37181.75
522.03	37191.11
522.20	37083.45
522.38	37242.60
522.55	37469.64
522.72	37280.05
522.89	37418.14
523.07	37549.21
523.24	37158.34
523.41	37764.54
523.58	37715.39
523.75	38342.66
523.92	38391.81
524.10	38244.35
524.27	38106.26
524.44	38597.77
524.61	38174.14
524.78	38082.86
524.96	38707.78
525.13	38251.38
525.30	38651.61
525.47	38988.64
525.64	38539.26
525.81	38375.42
525.98	38288.82
526.16	38291.16
526.33	37827.74
526.50	38515.86
526.67	38192.86
526.84	38082.86
527.01	38169.46
527.18	38576.71
527.36	38810.76
527.53	39505.90
527.70	39763.36
527.87	39058.86
528.04	38995.67
528.21	39725.91
528.38	39824.22
528.55	39962.31
528.72	39606.55
528.89	39859.32
529.07	39826.56
529.24	39864.00
529.41	39562.08
529.58	39702.51
529.75	39473.13
529.92	39587.82
530.09	40046.57
530.26	40112.10
530.43	40451.48
530.60	39924.86
530.77	40226.79
530.94	40704.26
531.11	39856.98
531.28	40304.02
531.46	40109.76
531.63	40657.45
531.80	40100.40
531.97	40282.96
532.14	40364.88
532.31	39779.74
532.48	40479.57
532.65	39700.17
532.82	40844.69
532.99	40921.93
533.16	40568.51
533.33	40952.35
533.50	40746.39
533.67	40903.20
533.84	40690.21
534.01	40931.29
534.18	41027.25
534.35	41155.98
534.52	41558.55
534.69	41516.42
534.86	41516.42
535.03	41296.41
535.20	41972.83
535.37	42188.16
535.54	41846.44
535.71	41151.30
535.88	41734.09
536.05	41511.74
536.22	42085.17
536.38	41708.35
536.55	41490.68
536.72	41701.32
536.89	41549.19
537.06	41881.55
537.23	41937.72
537.40	42206.88
537.57	42197.52
537.74	42052.41
537.91	42462.00
538.08	42017.30
538.25	41942.40
538.42	42230.29
538.59	42361.36
538.75	41755.16
538.92	41958.78
539.09	42398.80
539.26	42562.64
539.43	42447.96
539.60	41942.40
539.77	42131.98
539.94	42197.52
540.11	41914.31
540.28	42038.36
540.44	42323.91
540.61	41984.53
540.78	42361.36
540.95	41986.87
541.12	42749.88
541.29	42462.00
541.46	42464.34
541.62	42742.86
541.79	42808.40
541.96	42174.11
542.13	42309.86
542.30	43068.20
542.47	43330.34
542.63	43159.48
542.80	43058.84
542.97	43311.61
543.14	43445.02
543.31	43285.87
543.48	43676.74
543.64	43854.62
543.81	43753.97
543.98	43515.24
544.15	43686.10
544.32	43849.94
544.48	44079.31
544.65	43519.92
544.82	43777.38
544.99	43650.99
545.16	43370.13
545.32	43379.49
545.49	44423.37
545.66	44158.89
545.83	44023.14
546.00	44170.59
546.16	44123.78
546.33	44093.35
546.50	44114.42
546.67	44327.41
546.83	43800.79
547.00	43903.77
547.17	44109.74
547.34	43957.60
547.50	43798.44
547.67	44430.39
547.84	44280.60
548.00	44837.64
548.17	44535.71
548.34	44556.78
548.51	44861.05
548.67	44942.97
548.84	44556.78
549.01	44701.89
549.18	44224.42
549.34	44643.38
549.51	45134.89
549.68	45399.37
549.84	44566.14
550.01	45270.64
550.18	45064.67
550.34	44795.51
550.51	44982.76
550.68	44772.11
550.84	44673.81
551.01	45214.47
551.18	44680.83
551.34	45371.28
551.51	45151.27
551.68	45067.02
551.84	45162.98
552.01	45294.05
552.18	45127.87
552.34	44968.71
552.51	45364.26
552.68	45034.25
552.84	45450.86
553.01	45474.27
553.18	45240.21
553.34	45500.01
553.51	45305.75
553.67	45095.10
553.84	45478.95
554.01	45457.88
554.17	45441.50
554.34	45708.32
554.51	45717.68
554.67	45488.31
554.84	45694.28
555.00	45404.05
555.17	45200.43
555.33	45481.29
555.50	45654.49
555.67	45698.96
555.83	45783.22
556.00	45804.28
556.16	45904.93
556.33	45535.12
556.50	45584.27
556.66	46183.45
556.83	45200.43
556.99	45588.95
557.16	46089.83
557.32	45804.28
557.49	46155.36
557.65	45738.75
557.82	45727.05
557.98	46124.94
558.15	45951.74
558.32	46246.65
558.48	45830.03
558.65	45432.14
558.81	45734.07
558.98	45832.37
559.14	45689.60
559.31	45762.15
559.47	46349.63
559.64	45769.18
559.80	46099.19
559.97	45933.01
560.13	45874.50
560.30	46286.43
560.46	45914.29
560.63	46181.11
560.79	46171.75
560.96	46461.97
561.12	45916.63
561.29	46148.34
561.45	46038.34
561.61	46099.19
561.78	46248.99
561.94	45904.93
562.11	46190.47
562.27	45818.33
562.44	46007.91
562.60	46436.23
562.77	46609.43
562.93	46148.34
563.10	46604.75
563.26	46483.04
563.42	46513.47
563.59	46120.26
563.75	46454.95
563.92	46422.19
564.08	46499.42
564.24	46803.69
564.41	46375.37
564.57	46588.36
564.74	46157.70
564.90	46267.71
565.07	46447.93
565.23	46553.26
565.39	46527.51
565.56	46532.19
565.72	46073.45
565.88	46511.13
566.05	46328.56
566.21	46302.82
566.38	46190.47
566.54	46106.21
566.70	46997.96
566.87	47049.45
567.03	46859.87
567.19	46733.48
567.36	46965.19
567.52	46810.71
567.68	46979.23
567.85	46529.85
568.01	47171.16
568.17	46799.01
568.34	46295.80
568.50	46550.91
568.66	46824.76
568.83	46593.04
568.99	46396.44
569.15	46426.87
569.32	45965.78
569.48	46101.53
569.64	46850.50
569.81	46597.73
569.97	46466.66
570.13	46401.12
570.30	46450.27
570.46	46445.59
570.62	46040.68
570.78	46600.07
570.95	46581.34
571.11	46391.76
571.27	46504.10
571.43	46490.06
571.60	46635.17
571.76	46731.14
571.92	46677.30
572.09	46389.42
572.25	46887.95
572.41	46586.02
572.57	47129.03
572.74	47224.99
572.90	46916.04
573.06	46941.78
573.22	46656.24
573.38	46600.07
573.55	46478.36
573.71	47014.34
573.87	47154.77
574.03	46728.80
574.20	46885.61
574.36	46550.91
574.52	46761.56
574.68	46775.61
574.84	46789.65
575.01	46614.11
575.17	46609.43
575.33	46614.11
575.49	46525.17
575.65	46974.55
575.82	46803.69
575.98	46485.38
576.14	47119.66
576.30	47054.13
576.46	46639.86
576.62	46476.02
576.79	46932.42
576.95	46216.22
577.11	47110.30
577.27	47030.72
577.43	46712.41
577.59	46550.91
577.75	46651.56
577.92	46195.15
578.08	46433.89
578.24	46387.08
578.40	46485.38
578.56	46822.42
578.72	46681.98
578.88	47016.68
579.04	46974.55
579.21	46667.94
579.37	47063.49
579.53	46890.29
579.69	46696.03
579.85	46824.76
580.01	46822.42
580.17	46630.49
580.33	46955.83
580.49	47009.66
580.65	46883.27
580.82	47140.73
580.98	46628.15
581.14	46829.44
581.30	46820.08
581.46	46930.08
581.62	46808.37
581.78	46780.29
581.94	47508.19
582.10	46632.83
582.26	47512.88
582.42	46791.99
582.58	46705.39
582.74	46609.43
582.90	47002.64
583.06	47327.97
583.22	46986.25
583.38	46983.91
583.54	47428.62
583.70	47014.34
583.86	46988.60
584.02	47147.75
584.18	47154.77
584.34	46873.91
584.50	46918.38
584.66	46967.53
584.82	47047.11
584.98	46941.78
585.14	46990.94
585.30	46600.07
585.46	46876.25
585.62	46932.42
585.78	46934.76
585.94	46358.99
586.10	46567.30
586.26	46616.45
586.42	47325.63
586.58	47302.23
586.74	47047.11
586.90	46920.72
587.06	46834.12
587.22	46920.72
587.38	46759.22
587.54	47196.90
587.70	47217.97
587.86	46988.60
588.02	46869.23
588.18	47124.35
588.34	46541.55
588.49	46527.51
588.65	46213.88
588.81	46361.33
588.97	46684.33
589.13	46733.48
589.29	46602.41
589.45	46906.68
589.61	46787.31
589.77	46841.14
589.93	46747.52
590.08	47002.64
590.24	47051.79
590.40	47416.91
590.56	47264.78
590.72	46859.87
590.88	46595.38
591.04	47194.56
591.20	47501.17
591.35	47468.40
591.51	47683.73
591.67	46932.42
591.83	47189.88
591.99	47112.64
592.15	47079.88
592.31	47007.32
592.46	47049.45
592.62	47145.41
592.78	47171.16
592.94	47180.52
593.10	47077.54
593.26	46845.82
593.41	46955.83
593.57	47196.90
593.73	46817.74
593.89	47199.24
594.05	47145.41
594.20	46981.57
594.36	47196.90
594.52	47075.19
594.68	46663.26
594.84	46728.80
594.99	46930.08
595.15	47178.18
595.31	47030.72
595.47	47014.34
595.62	47178.18
595.78	47107.96
595.94	47372.44
596.10	47494.15
596.25	47028.38
596.41	47508.19
596.57	47021.36
596.73	47435.64
596.88	46681.98
597.04	46841.14
597.20	47131.37
597.36	47164.14
597.51	47510.53
597.67	47304.57
597.83	47192.22
597.99	47346.70
598.14	47047.11
598.30	46749.86
598.46	47051.79
598.61	46925.40
598.77	46473.68
598.93	46976.89
599.09	46988.60
599.24	47356.06
599.40	47250.74
599.56	47283.50
599.71	47166.48
599.87	46855.18
600.03	47297.55
600.18	46983.91
600.34	47117.32
600.50	46944.12
600.65	46969.87
600.81	46990.94
600.97	47093.92
601.12	47044.77
601.28	47084.56
601.44	46469.00
601.59	46976.89
601.75	46525.17
601.91	46857.52
602.06	47056.47
602.22	46955.83
602.37	47138.39
602.53	46838.80
602.69	47285.84
602.84	46726.46
603.00	46644.54
603.16	47110.30
603.31	46670.28
603.47	47360.74
603.62	46981.57
603.78	46993.28
603.94	46766.24
604.09	47028.38
604.25	46700.71
604.40	46864.55
604.56	46653.90
604.71	46824.76
604.87	46644.54
605.03	46850.50
605.18	46621.13
605.34	46831.78
605.49	46738.16
605.65	46686.67
605.80	46674.96
605.96	47044.77
606.12	47068.17
606.27	46906.68
606.43	46260.69
606.58	46747.52
606.74	46621.13
606.89	46841.14
607.05	46775.61
607.20	47026.04
607.36	46452.61
607.51	46674.96
607.67	46534.53
607.82	46511.13
607.98	46735.82
608.13	46745.18
608.29	46632.83
608.44	46234.94
608.60	45963.44
608.75	46417.50
608.91	46616.45
609.06	46653.90
609.22	46738.16
609.37	46183.45
609.53	46583.68
609.68	46260.69
609.84	46625.81
609.99	46253.67
610.15	46403.46
610.30	46195.15
610.46	46089.83
610.61	46246.65
610.76	46096.85
610.92	46614.11
611.07	46700.71
611.23	46529.85
611.38	45986.85
611.54	46307.50
611.69	45883.86
611.84	46476.02
612.00	46171.75
612.15	45881.52
612.31	46747.52
612.46	46110.89
612.62	46267.71
612.77	46164.73
612.92	46258.35
613.08	45844.07
613.23	45907.27
613.39	46050.04
613.54	45820.67
613.69	46183.45
613.85	45677.90
614.00	46064.08
614.15	46127.28
614.31	45897.91
614.46	46012.59
614.62	46127.28
614.77	46038.34
614.92	45682.58
615.08	45574.91
615.23	45219.15
615.38	45565.55
615.54	45153.62
615.69	45303.41
615.84	45673.21
616.00	45984.51
616.15	45296.39
616.30	45528.10
616.46	45296.39
616.61	45312.77
616.76	45382.99
616.92	45401.71
617.07	45308.09
617.22	44800.19
617.37	45319.79
617.53	45811.31
617.68	45535.12
617.83	45677.90
617.99	45680.24
618.14	45045.95
618.29	45469.59
618.45	45329.16
618.60	44795.51
618.75	44940.63
618.90	44940.63
619.06	44877.43
619.21	45287.03
619.36	45382.99
619.51	45003.82
619.67	45226.17
619.82	44921.90
619.97	45081.06
620.12	45095.10
620.28	44198.68
620.43	45172.34
620.58	45099.78
620.73	45062.33
620.89	44772.11
621.04	44299.32
621.19	45071.70
621.34	45001.48
621.49	44760.40
621.65	44570.82
621.80	44961.69
621.95	44500.61
622.10	44528.69
622.25	44261.87
622.41	44545.08
622.56	44261.87
622.71	44568.48
622.86	44402.30
623.01	44404.64
623.16	44484.22
623.32	44238.47
623.47	44402.30
623.62	44154.21
623.77	44355.49
623.92	44161.23
624.07	44257.19
624.23	43990.37
624.38	44027.82
624.53	44083.99
624.68	44093.35
624.83	44287.62
624.98	43627.59
625.13	43966.96
625.29	43533.96
625.44	43665.03
625.59	44219.74
625.74	43353.74
625.89	43332.68
626.04	43569.07
626.19	43529.28
626.34	43786.74
626.49	44018.46
626.65	43817.17
626.80	44247.83
626.95	44074.63
627.10	43608.86
627.25	43187.56
627.40	43290.55
627.55	43150.12
627.70	43072.88
627.85	43206.29
628.00	43084.58
628.15	43358.42
628.30	43299.91
628.45	43625.25
628.60	43313.95
628.76	43419.28
628.91	43398.21
629.06	42951.17
629.21	43112.67
629.36	42689.03
629.51	42745.20
629.66	43042.45
629.81	42494.77
629.96	43035.43
630.11	42728.82
630.26	43288.21
630.41	43505.88
630.56	43082.24
630.71	42902.02
630.86	42815.42
631.01	42974.58
631.16	42740.52
631.31	42693.71
631.46	42059.43
631.61	43012.02
631.76	42583.71
631.91	42433.91
632.06	43126.71
632.21	42597.75
632.36	42777.97
632.51	42611.79
632.66	42389.44
632.81	42492.43
632.96	42534.56
633.10	42036.02
633.25	42202.20
633.40	42597.75
633.55	42232.63
633.70	42614.13
633.85	42337.95
634.00	42621.16
634.15	42478.38
634.30	42129.64
634.45	42171.77
634.60	42328.59
634.75	42515.83
634.90	42096.88
635.05	42096.88
635.19	41830.05
635.34	42300.50
635.49	42101.56
635.64	41956.44
635.79	41748.14
635.94	41670.90
636.09	41890.91
636.24	41776.22
636.39	41294.07
636.53	42066.45
636.68	41563.23
636.83	42162.41
636.98	41794.95
637.13	41668.56
637.28	41680.26
637.43	41682.60
637.57	42464.34
637.72	41429.82
637.87	41570.25
638.02	41687.28
638.17	42031.34
638.32	41408.76
638.46	41345.56
638.61	41310.46
638.76	41493.02
638.91	41923.68
639.06	41769.20
639.20	41553.87
639.35	41567.91
639.50	41532.81
639.65	41448.55
639.80	41172.36
639.94	41273.01
640.09	41223.86
640.24	41053.00
640.39	40952.35
640.54	40828.30
640.68	41352.58
640.83	41265.99
640.98	40961.72
641.13	41081.08
641.27	41418.12
641.42	40978.10
641.57	40538.08
641.72	40701.92
641.86	40608.29
642.01	40727.66
642.16	40596.59
642.31	40341.47
642.45	40259.55
642.60	40456.16
642.75	40659.79
642.90	40706.60
643.04	40786.18
643.19	40783.83
643.34	40467.86
643.48	40832.99
643.63	40453.82
643.78	40509.99
643.93	40566.16
644.07	40605.95
644.22	40474.88
644.37	40500.63
644.51	40367.22
644.66	40187.00
644.81	40243.17
644.95	40587.23
645.10	40315.73
645.25	40151.89
645.39	40205.72
645.54	40322.75
645.69	40297.00
645.83	40402.33
645.98	40332.11
646.13	40357.86
646.27	40048.91
646.42	39903.79
646.57	39569.10
646.71	39503.56
646.86	39842.94
647.00	40233.81
647.15	40191.68
647.30	40378.92
647.44	39889.75
647.59	39606.55
647.74	39295.25
647.88	39636.97
648.03	40095.72
648.17	39847.62
648.32	39496.54
648.47	39629.95
648.61	39608.89
648.76	39569.10
648.90	39182.91
649.05	39688.46
649.20	39421.64
649.34	39601.86
649.49	39686.12
649.63	39365.47
649.78	39241.42
649.92	39576.12
650.07	39758.68
650.21	38920.77
650.36	39283.55
650.51	39803.15
650.65	39611.23
650.80	40119.12
650.94	39526.97
651.09	39725.91
651.23	39393.56
651.38	39636.97
651.52	38937.15
651.67	38686.71
651.81	39138.44
651.96	39339.72
652.10	38897.36
652.25	39168.87
652.39	38789.70
652.54	39002.69
652.68	38576.71
652.83	39318.66
652.97	39023.75
653.12	39033.11
653.26	38614.16
653.41	38801.40
653.55	38972.26
653.70	38443.30
653.84	38380.10
653.99	38527.56
654.13	38522.88
654.27	38574.37
654.42	38075.84
654.56	38447.98
654.71	38799.06
654.85	38476.07
655.00	38422.23
655.14	38394.15
655.29	38099.24
655.43	38085.20
655.57	38000.94
655.72	37904.98
655.86	37827.74
656.01	37397.08
656.15	37263.67
656.30	37895.61
656.44	37603.05
656.58	37736.46
656.73	38260.74
656.87	37668.58
657.01	37691.99
657.16	38157.75
657.30	37942.42
657.45	37471.98
657.59	37696.67
657.73	37757.52
657.88	38160.09
658.02	38115.62
658.16	38155.41
658.31	37792.63
658.45	38164.78
658.60	37827.74
658.74	37460.27
658.88	37479.00
659.03	37893.27
659.17	37560.92
659.31	37198.13
659.46	37062.38
659.60	37483.68
659.74	37116.22
659.89	37392.40
660.03	37071.75
660.17	37139.62
660.32	37298.78
660.46	37589.00
660.60	36877.48
660.74	37331.54
660.89	37181.75
661.03	36538.10
661.17	36737.05
661.32	36570.87
661.46	36861.10
661.60	36718.32
661.74	36495.97
661.89	36580.23
662.03	36758.11
662.17	36605.98
662.31	36601.30
662.46	36760.45
662.60	36547.47
662.74	36334.48
662.88	36414.05
663.03	36486.61
663.17	36165.96
663.31	35817.22
663.45	36231.49
663.60	35782.11
663.74	36074.68
663.88	35637.00
664.02	35718.92
664.17	36196.38
664.31	35536.35
664.45	35665.08
664.59	35838.28
664.73	35316.34
664.88	35899.14
665.02	35335.07
665.16	35351.45
665.30	35587.85
665.44	35639.34
665.59	35264.85
665.73	35508.27
665.87	35264.85
666.01	34878.66
666.15	34808.45
666.29	35505.93
666.44	35047.18
666.58	35129.10
666.72	35276.55
666.86	35234.42
667.00	34684.40
667.14	34642.27
667.28	34597.80
667.43	34698.44
667.57	35175.91
667.71	34574.39
667.85	35138.46
667.99	34543.97
668.13	34923.13
668.27	34588.44
668.41	34291.19
668.56	34225.65
668.70	34417.58
668.84	33940.11
668.98	33865.21
669.12	33542.22
669.26	34103.95
669.40	33802.02
669.54	33928.41
669.68	33584.35
669.82	33710.74
669.96	33940.11
670.10	33184.12
670.25	33682.65
670.39	33291.78
670.53	33055.39
670.67	33303.48
670.81	33848.83
670.95	33422.85
671.09	33614.77
671.23	33251.99
671.37	32870.48
671.51	32828.35
671.65	32914.95
671.79	32762.82
671.93	32734.73
672.07	32884.53
672.21	32690.26
672.35	32542.81
672.49	32638.77
672.63	32666.86
672.77	32753.46
672.91	32514.72
673.05	32341.52
673.19	32215.13
673.33	32767.50
673.47	32257.26
673.61	32016.19
673.75	31564.46
673.89	31899.16
674.03	31880.44
674.17	31964.70
674.31	31873.42
674.45	31777.45
674.59	31896.82
674.73	31892.14
674.87	31791.50
675.01	31447.44
675.15	31552.76
675.29	31084.65
675.43	31040.18
675.56	31482.55
675.70	30944.22
675.84	30967.63
675.98	30167.16
676.12	31068.27
676.26	31026.14
676.40	30649.32
676.54	30628.25
676.68	30654.00
676.82	30331.00
676.96	30199.93
677.10	30469.09
677.23	30239.72
677.37	30043.12
677.51	29869.92
677.65	30153.12
677.79	29677.99
677.93	29738.85
678.07	29666.29
678.21	29460.32
678.34	29127.97
678.48	29020.30
678.62	28889.23
678.76	28929.02
678.90	28641.14
679.04	28676.24
679.18	28669.22
679.31	28496.02
679.45	28568.58
679.59	28208.14
679.73	28477.30
679.87	28283.03
680.00	28276.01
680.14	28121.54
680.28	28311.12
680.42	27920.25
680.56	28084.09
680.70	27770.46
680.83	28133.24
680.97	27552.79
681.11	27667.47
681.25	27725.99
681.39	27494.27
681.52	27520.02
681.66	27281.28
681.80	27026.17
681.94	27260.22
682.07	27513.00
682.21	27283.62
682.35	26958.29
682.49	26972.33
682.62	26991.06
682.76	26600.19
682.90	26466.78
683.04	26513.59
683.17	26471.46
683.31	26169.53
683.45	26398.90
683.59	26398.90
683.72	26286.56
683.86	25895.69
684.00	26155.49
684.13	26078.25
684.27	25876.96
684.41	25525.88
684.55	25340.98
684.68	25483.75
684.82	25635.89
684.96	25500.14
685.09	25223.95
685.23	25287.15
685.37	24907.98
685.50	25020.33
685.64	24957.13
685.78	25006.28
685.91	24615.41
686.05	24222.20
686.19	24308.80
686.32	23999.85
686.46	23880.49
686.60	23601.96
686.73	23662.82
686.87	23159.60
687.01	23480.25
687.14	23194.71
687.28	23311.74
687.42	23407.70
687.55	23199.39
687.69	23475.57
687.82	23129.17
687.96	23026.19
688.10	22878.74
688.23	22625.96
688.37	22693.83
688.50	22808.52
688.64	22803.84
688.78	22256.15
688.91	22462.12
689.05	22581.49
689.18	22527.66
689.32	22106.36
689.46	22375.52
689.59	22417.65
689.73	22497.23
689.86	22057.21
690.00	22181.26
690.13	22085.30
690.27	21788.05
690.41	21537.61
690.54	21741.24
690.68	21626.55
690.81	21422.92
690.95	21617.19
691.08	21582.08
691.22	21441.65
691.35	21518.89
691.49	21603.14
691.62	20980.56
691.76	20978.22
691.89	21104.61
692.03	21263.77
692.16	20795.66
692.30	20779.28
692.43	20446.92
692.57	20334.57
692.70	20634.16
692.84	20182.44
692.97	20042.01
693.11	20203.50
693.24	20240.95
693.38	19845.40
693.51	19676.88
693.65	19800.93
693.78	19637.09
693.92	19653.48
694.05	19721.35
694.19	19506.02
694.32	19627.73
694.45	19290.70
694.59	18878.76
694.72	19178.35
694.86	19204.10
694.99	18843.65
695.13	19119.84
695.26	19145.58
695.39	19173.67
695.53	18909.19
695.66	18970.04
695.80	18970.04
695.93	18504.28
696.07	18651.73
696.20	18595.56
696.33	18272.56
696.47	18424.70
696.60	18047.87
696.73	17799.77
696.87	18232.77
697.00	17902.76
697.14	17975.31
697.27	17649.98
697.40	17879.35
697.54	17713.17
697.67	17390.18
697.80	17303.58
697.94	17167.83
698.07	17006.33
698.21	17259.11
698.34	17439.33
698.47	17179.53
698.61	16985.27
698.74	16776.96
698.87	16704.40
699.01	16734.83
699.14	17050.80
699.27	16350.98
699.40	16615.46
699.54	16629.51
699.67	16308.85
699.80	16358.00
699.94	16248.00
700.07	16243.32
700.20	16105.23
700.34	16233.96
700.47	16065.44
700.60	16325.24
700.73	16177.78
700.87	15957.77
701.00	15878.19
701.13	15751.81
701.26	15508.39
701.40	15484.98
701.53	15452.22
701.66	15419.45
701.79	15218.16
701.93	15447.54
702.06	15293.06
702.19	15286.04
702.32	15187.74
702.46	15281.36
702.59	15091.77
702.72	14965.39
702.85	14949.00
702.99	14827.29
703.12	14733.67
703.25	14614.30
703.38	14609.62
703.51	14668.14
703.65	14253.86
703.78	14373.23
703.91	14256.20
704.04	14204.71
704.17	14249.18
704.31	14169.60
704.44	14232.80
704.57	13977.68
704.70	13858.31
704.83	13928.53
704.96	14167.26
705.10	13778.73
705.23	13738.94
>>>>>End Processed Spectral Data<<<<<
