SpectraSuite Data File
++++++++++++++++++++++++++++++++++++
Date: Fri Oct 25 11:26:01 EDT 2013
User: price-jones
Dark Spectrum Present: No
Reference Spectrum Present: No
Number of Sampled Component Spectra: 1
Spectrometers: USB2+H05261
Integration Time (usec): 100000 (USB2+H05261)
Spectra Averaged: 1 (USB2+H05261)
Boxcar Smoothing: 0 (USB2+H05261)
Correct for Electrical Dark: No (USB2+H05261)
Strobe/Lamp Enabled: No (USB2+H05261)
Correct for Detector Non-linearity: No (USB2+H05261)
Correct for Stray Light: No (USB2+H05261)
Number of Pixels in Processed Spectrum: 2048
>>>>>Begin Processed Spectral Data<<<<<
365.73	248.10
365.92	248.10
366.12	248.10
366.32	168.52
366.52	175.54
366.72	166.18
366.91	147.45
367.11	138.09
367.31	65.54
367.51	119.37
367.70	98.30
367.90	135.75
368.10	166.18
368.30	84.26
368.49	131.07
368.69	168.52
368.89	191.92
369.09	234.05
369.28	163.84
369.48	159.16
369.68	166.18
369.87	208.31
370.07	114.69
370.27	196.60
370.47	341.72
370.66	571.09
370.86	636.63
371.06	730.25
371.25	755.99
371.45	685.78
371.65	716.20
371.84	641.31
372.04	638.97
372.24	676.41
372.44	720.88
372.63	802.80
372.83	772.38
373.03	784.08
373.22	798.12
373.42	833.23
373.62	802.80
373.81	793.44
374.01	880.04
374.21	844.93
374.40	807.48
374.60	896.43
374.79	898.77
374.99	812.17
375.19	861.32
375.38	739.61
375.58	863.66
375.78	844.93
375.97	847.27
376.17	915.15
376.37	849.61
376.56	983.02
376.76	917.49
376.95	858.98
377.15	961.96
377.35	873.02
377.54	833.23
377.74	863.66
377.93	882.38
378.13	912.81
378.33	917.49
378.52	851.96
378.72	952.60
378.91	961.96
379.11	966.64
379.31	950.26
379.50	950.26
379.70	983.02
379.89	992.39
380.09	1029.84
380.28	978.34
380.48	947.92
380.68	938.55
380.87	968.98
381.07	1034.52
381.26	1090.69
381.46	999.41
381.65	1095.37
381.85	1086.01
382.04	1053.24
382.24	1046.22
382.43	1036.86
382.63	1142.18
382.83	1121.12
383.02	1053.24
383.22	1139.84
383.41	1076.65
383.61	1076.65
383.80	1149.20
384.00	1146.86
384.19	1083.67
384.39	1128.14
384.58	1104.73
384.78	1188.99
384.97	1186.65
385.17	1198.35
385.36	1196.01
385.56	1093.03
385.75	1076.65
385.95	1240.48
386.14	1233.46
386.34	1259.21
386.53	1291.98
386.72	1221.76
386.92	1294.32
387.11	1263.89
387.31	1270.91
387.50	1280.27
387.70	1327.08
387.89	1224.10
388.09	1334.11
388.28	1249.85
388.48	1277.93
388.67	1357.51
388.86	1334.11
389.06	1348.15
389.25	1338.79
389.45	1345.81
389.64	1303.68
389.84	1385.60
390.03	1366.87
390.22	1355.17
390.42	1331.76
390.61	1320.06
390.81	1299.00
391.00	1341.13
391.19	1448.79
391.39	1490.92
391.58	1427.73
391.78	1451.13
391.97	1533.05
392.16	1430.07
392.36	1533.05
392.55	1528.37
392.75	1519.01
392.94	1572.84
393.13	1542.41
393.33	1453.47
393.52	1533.05
393.71	1579.86
393.91	1511.99
394.10	1584.54
394.29	1640.72
394.49	1596.25
394.68	1720.29
394.88	1629.01
395.07	1739.02
395.26	1657.10
395.46	1666.46
395.65	1729.66
395.84	1774.13
396.04	1820.94
396.23	1673.48
396.42	1741.36
396.62	1795.19
396.81	1699.23
397.00	1788.17
397.19	1844.34
397.39	1776.47
397.58	1811.57
397.77	1839.66
397.97	1926.26
398.16	1886.47
398.35	1909.88
398.55	1825.62
398.74	1788.17
398.93	1966.05
399.12	1870.09
399.32	1940.30
399.51	1977.75
399.70	1989.46
399.90	1977.75
400.09	2031.58
400.28	2052.65
400.47	1996.48
400.67	2167.34
400.86	2066.69
401.05	2127.55
401.24	2132.23
401.44	2064.35
401.63	2047.97
401.82	2120.53
402.01	2022.22
402.21	2099.46
402.40	2272.66
402.59	2148.61
402.78	2092.44
402.97	2183.72
403.17	2211.81
403.36	2291.38
403.55	2307.77
403.74	2345.22
403.93	2396.71
404.13	2499.69
404.32	2457.56
404.51	2326.49
404.70	2387.35
404.89	2338.20
405.09	2539.48
405.28	2513.74
405.47	2415.43
405.66	2565.23
405.85	2450.54
406.05	2459.90
406.24	2518.42
406.43	2602.68
406.62	2562.89
406.81	2663.53
407.00	2534.80
407.20	2516.08
407.39	2614.38
407.58	2689.28
407.77	2745.45
407.96	2703.32
408.15	2869.50
408.34	2743.11
408.54	2932.69
408.73	2761.83
408.92	2906.95
409.11	2993.55
409.30	2932.69
409.49	2902.26
409.68	2871.84
409.87	2963.12
410.07	2993.55
410.26	2899.92
410.45	2988.86
410.64	3007.59
410.83	3009.93
411.02	3164.40
411.21	2988.86
411.40	3101.21
411.59	3148.02
411.78	3194.83
411.98	3180.79
412.17	3176.11
412.36	3396.12
412.55	3370.37
412.74	3433.57
412.93	3435.91
413.12	3304.84
413.31	3581.02
413.50	3478.04
413.69	3346.97
413.88	3557.61
414.07	3541.23
414.26	3700.39
414.45	3583.36
414.64	3651.24
414.83	3733.15
415.02	3854.86
415.22	3763.58
415.41	3772.94
415.60	3782.31
415.79	3831.46
415.98	4070.19
416.17	4007.00
416.36	4100.62
416.55	3981.25
416.74	4009.34
416.93	3934.44
417.12	3999.98
417.31	4177.86
417.50	4166.15
417.69	4304.25
417.88	4306.59
418.07	4210.62
418.26	4236.37
418.45	4203.60
418.64	4580.43
418.83	4461.06
419.02	4402.55
419.21	4535.96
419.39	4421.27
419.58	4538.30
419.77	4486.81
419.96	4493.83
420.15	4615.54
420.34	4416.59
420.53	4732.56
420.72	4732.56
420.91	4582.77
421.10	4716.18
421.29	4713.84
421.48	4631.92
421.67	4753.63
421.86	4702.14
422.05	4784.06
422.24	4856.61
422.43	4791.08
422.61	4779.37
422.80	5050.88
422.99	4915.12
423.18	4786.40
423.37	5015.77
423.56	5004.07
423.75	4868.31
423.94	4786.40
424.13	4660.01
424.32	4770.01
424.50	4973.64
424.69	5055.56
424.88	5179.61
425.07	4915.12
425.26	4840.23
425.45	4858.95
425.64	5055.56
425.83	4924.49
426.01	4954.91
426.20	5050.88
426.39	5034.49
426.58	4985.34
426.77	4954.91
426.96	5088.32
427.15	5071.94
427.33	5074.28
427.52	5177.26
427.71	5291.95
427.90	5238.12
428.09	5296.63
428.28	5224.08
428.46	5231.10
428.65	5359.83
428.84	5474.51
429.03	5399.62
429.22	5476.85
429.40	5540.05
429.59	5509.62
429.78	5301.31
429.97	5488.56
430.16	5537.71
430.34	5575.16
430.53	5563.45
430.72	5731.97
430.91	5664.10
431.10	5614.95
431.28	5694.52
431.47	5785.80
431.66	5746.02
431.85	5762.40
432.03	5778.78
432.22	5949.64
432.41	5968.37
432.60	5844.32
432.79	6010.50
432.97	6040.92
433.16	5944.96
433.35	6059.65
433.54	6069.01
433.72	6179.01
433.91	6183.70
434.10	6132.20
434.28	6069.01
434.47	6228.17
434.66	6113.48
434.85	6310.08
435.03	6258.59
435.22	6207.10
435.41	6352.21
435.59	6237.53
435.78	6363.92
435.97	6562.86
436.16	6513.71
436.34	6349.87
436.53	6375.62
436.72	6579.25
436.90	6366.26
437.09	6700.95
437.28	6438.81
437.46	6560.52
437.65	6707.98
437.84	6612.01
438.02	6745.42
438.21	6773.51
438.40	6691.59
438.58	6927.99
438.77	6988.84
438.96	6951.39
439.14	7173.74
439.33	7192.47
439.52	7269.70
439.70	7213.53
439.89	7421.84
440.08	7360.98
440.26	7419.50
440.45	7396.09
440.63	7445.24
440.82	7588.02
441.01	7356.30
441.19	7606.74
441.38	7864.20
441.57	7733.13
441.75	7740.15
441.94	8067.83
442.12	7843.14
442.31	7997.61
442.50	8112.30
442.68	7878.24
442.87	8124.00
443.05	7950.80
443.24	8294.86
443.43	8355.71
443.61	8322.94
443.80	8484.44
443.98	8283.16
444.17	7679.30
444.35	8166.13
444.54	8374.44
444.73	8383.80
444.91	8095.91
445.10	8432.95
445.28	8372.10
445.47	8084.21
445.65	8367.42
445.84	8451.67
446.02	8545.30
446.21	8475.08
446.39	8418.91
446.58	8507.85
446.77	8322.94
446.95	8166.13
447.14	8400.18
447.32	8655.30
447.51	8353.37
447.69	8269.11
447.88	8528.91
448.06	8379.12
448.25	8425.93
448.43	8411.89
448.62	8777.01
448.80	8655.30
448.99	8599.13
449.17	8650.62
449.36	8526.57
449.54	8912.76
449.73	8844.88
449.91	8992.34
450.10	8840.20
450.28	9151.49
450.46	9004.04
450.65	9004.04
450.83	9254.48
451.02	8945.53
451.20	9200.65
451.39	9055.53
451.57	9046.17
451.76	9097.66
451.94	9006.38
452.13	9184.26
452.31	9561.09
452.49	9235.75
452.68	9446.40
452.86	9247.46
453.05	9067.24
453.23	9483.85
453.42	9291.93
453.60	9448.74
453.78	9490.87
453.97	9404.27
454.15	9547.05
454.34	9465.13
454.52	9664.07
454.70	9703.86
454.89	9717.90
455.07	9799.82
455.26	9792.80
455.44	9966.00
455.62	9720.24
455.81	9987.07
455.99	10040.90
456.17	9745.99
456.36	10040.90
456.54	10015.15
456.73	10544.11
456.91	10399.00
457.09	10523.05
457.28	10417.72
457.46	10244.52
457.64	10455.17
457.83	10705.61
458.01	10272.61
458.19	10541.77
458.38	10389.64
458.56	10752.42
458.74	10609.65
458.93	10576.88
459.11	10558.16
459.29	10850.72
459.48	10864.77
459.66	10817.96
459.84	10846.04
460.03	11094.14
460.21	10944.34
460.39	10998.18
460.57	11073.07
460.76	11056.69
460.94	11047.33
461.12	11225.21
461.31	11377.34
461.49	11007.54
461.67	11005.20
461.85	11382.03
462.04	11286.06
462.22	11744.81
462.40	11646.51
462.59	11527.14
462.77	11571.61
462.95	11580.97
463.13	11372.66
463.32	11709.70
463.50	11602.04
463.68	11705.02
463.86	11943.75
464.05	11819.71
464.23	11705.02
464.41	11772.89
464.59	11758.85
464.78	12032.69
464.96	12020.99
465.14	11651.19
465.32	11946.09
465.50	12329.94
465.69	12142.70
465.87	12081.85
466.05	12259.73
466.23	12262.07
466.41	11964.82
466.60	12269.09
466.78	12264.41
466.96	12145.04
467.14	12175.47
467.32	12264.41
467.51	12395.48
467.69	12191.85
467.87	12479.74
468.05	12688.04
468.23	12517.18
468.41	12519.53
468.60	12395.48
468.78	12589.74
468.96	12517.18
469.14	12496.12
469.32	12989.97
469.50	12552.29
469.69	12950.18
469.87	12919.76
470.05	12879.97
470.23	13083.59
470.41	12973.59
470.59	13160.83
470.77	12926.78
470.95	13207.64
471.14	13380.84
471.32	13296.58
471.50	13432.33
471.68	13846.61
471.86	13554.04
472.04	13692.13
472.22	13837.25
472.40	13628.94
472.58	13710.86
472.77	13996.40
472.95	14237.48
473.13	14483.24
473.31	13989.38
473.49	14359.19
473.67	14150.88
473.85	14157.90
474.03	14651.75
474.21	14794.53
474.39	14537.07
474.57	14621.33
474.75	14869.42
474.93	15035.60
475.12	14724.31
475.30	14846.02
475.48	14824.95
475.66	15187.74
475.84	15246.25
476.02	15272.00
476.20	15260.29
476.38	15625.42
476.56	15948.41
476.74	15957.77
476.92	15861.81
477.10	15714.36
477.28	16287.79
477.46	16177.78
477.64	16255.02
477.82	16840.15
478.00	16847.18
478.18	16594.40
478.36	16966.54
478.54	17312.94
478.72	17078.89
478.90	17493.16
479.08	17706.15
479.26	17745.94
479.44	17771.69
479.62	17668.70
479.80	17855.95
479.98	18068.94
480.16	18527.68
480.34	18080.64
480.52	18696.20
480.70	18356.82
480.88	18539.38
481.06	18574.49
481.24	18579.17
481.41	19054.30
481.59	19295.38
481.77	19396.02
481.95	19372.61
482.13	19906.26
482.31	19557.52
482.49	20320.53
482.67	20301.81
482.85	20318.19
483.03	20210.53
483.21	20798.00
483.39	21055.46
483.57	20823.75
483.74	21158.44
483.92	21486.12
484.10	21069.50
484.28	21619.53
484.46	21713.15
484.64	22274.88
484.82	21900.39
485.00	22157.85
485.18	22686.81
485.35	23037.89
485.53	22703.20
485.71	22953.63
485.89	23550.47
486.07	23316.42
486.25	23447.49
486.43	23718.99
486.61	23924.96
486.78	23868.78
486.96	23967.09
487.14	24561.58
487.32	24584.99
487.50	24786.27
487.68	24788.61
487.85	25006.28
488.03	25212.25
488.21	25869.94
488.39	25366.73
488.57	25958.88
488.75	26181.23
488.92	26574.44
489.10	26567.42
489.28	26668.06
489.46	26733.60
489.64	27087.02
489.81	27803.22
489.99	27810.25
490.17	27711.94
490.35	28313.46
490.53	28098.13
490.70	28332.18
490.88	28222.18
491.06	28570.92
491.24	28620.07
491.41	29027.32
491.59	29123.29
491.77	29345.64
491.95	29518.84
492.13	29535.22
492.30	29933.11
492.48	29865.24
492.66	30092.27
492.84	30321.64
493.01	30532.29
493.19	30731.23
493.37	30801.45
493.54	31019.12
493.72	31789.16
493.90	31271.90
494.08	31452.12
494.25	31955.33
494.43	31740.00
494.61	32364.93
494.79	32727.71
494.96	32374.29
495.14	32594.30
495.32	33294.12
495.49	33062.41
495.67	33240.29
495.85	33209.86
496.02	33429.87
496.20	34040.75
496.38	33727.12
496.55	33851.17
496.73	34639.93
496.91	34499.50
497.09	34731.21
497.26	34873.98
497.44	35234.42
497.62	35061.22
497.79	35800.83
497.97	35213.36
498.14	36046.59
498.32	36177.66
498.50	35805.52
498.67	36432.78
498.85	36313.41
499.03	36678.54
499.20	36540.44
499.38	36435.12
499.56	36945.36
499.73	37331.54
499.91	37294.10
500.08	37495.38
500.26	37315.16
500.44	37109.19
500.61	37919.02
500.79	37684.97
500.97	38176.48
501.14	38492.45
501.32	38389.47
501.49	38595.43
501.67	38749.91
501.84	38611.82
502.02	38696.08
502.20	38731.18
502.37	39440.37
502.55	39381.85
502.72	39423.98
502.90	39419.30
503.07	39438.03
503.25	39423.98
503.43	39730.59
503.60	40065.29
503.78	40395.31
503.95	40311.05
504.13	40423.39
504.30	40568.51
504.48	40533.40
504.65	40547.44
504.83	40840.01
505.01	41556.21
505.18	40814.26
505.36	41605.36
505.53	41523.44
505.71	41553.87
505.88	41701.32
506.06	41254.28
506.23	41886.23
506.41	41806.65
506.58	41902.61
506.76	41752.82
506.93	42370.72
507.11	42487.74
507.28	42665.63
507.46	42642.22
507.63	42941.81
507.81	43107.99
507.98	42672.65
508.16	42824.78
508.33	43164.16
508.50	43611.20
508.68	43559.71
508.85	43821.85
509.03	43636.95
509.20	43978.67
509.38	43957.60
509.55	44041.86
509.73	44430.39
509.90	44526.35
510.08	44657.42
510.25	44474.86
510.42	44486.56
510.60	44987.44
510.77	44959.35
510.95	45270.64
511.12	44828.28
511.30	45015.52
511.47	45392.35
511.64	45478.95
511.82	45717.68
511.99	45228.51
512.17	45972.80
512.34	45918.97
512.51	46248.99
512.69	46389.42
512.86	46204.52
513.04	46454.95
513.21	46241.96
513.38	46916.04
513.56	47199.24
513.73	46848.16
513.90	46710.07
514.08	46529.85
514.25	47143.07
514.43	47222.65
514.60	47229.67
514.77	47302.23
514.95	47643.94
515.12	47278.82
515.29	47732.89
515.47	47880.34
515.64	48123.75
515.81	47470.75
515.99	48013.75
516.16	48037.16
516.33	48236.10
516.51	48271.21
516.68	48322.70
516.85	48793.15
517.03	48535.69
517.20	48596.54
517.37	48626.97
517.54	48570.80
517.72	48851.66
517.89	48715.91
518.06	49050.61
518.24	49502.33
518.41	49144.23
518.58	49296.36
518.75	49158.27
518.93	49364.24
519.10	49549.14
519.27	49549.14
519.45	49652.12
519.62	50136.62
519.79	49897.88
519.96	49762.13
520.14	50087.46
520.31	50087.46
520.48	50403.44
520.65	50195.13
520.83	50340.24
521.00	50450.25
521.17	50361.31
521.34	50684.30
521.52	50766.22
521.69	50876.22
521.86	50932.40
522.03	50887.93
522.20	51145.39
522.38	51487.10
522.55	51239.01
522.72	51098.58
522.89	51208.58
523.07	51562.00
523.24	51213.26
523.41	51571.36
523.58	51199.22
523.75	51833.50
523.92	51641.58
524.10	51746.90
524.27	51592.43
524.44	51948.19
524.61	51732.86
524.78	52144.80
524.96	52196.29
525.13	52308.63
525.30	52121.39
525.47	52376.51
525.64	52399.91
525.81	52327.36
525.98	52570.77
526.16	52301.61
526.33	52741.63
526.50	52933.56
526.67	52823.55
526.84	52795.46
527.01	52926.53
527.18	52919.51
527.36	52734.61
527.53	53097.39
527.70	53193.36
527.87	53294.00
528.04	53127.82
528.21	53422.73
528.38	53366.55
528.55	53291.66
528.72	53247.19
528.89	53272.93
529.07	53153.57
529.24	53322.08
529.41	53551.46
529.58	53549.12
529.75	53333.79
529.92	53462.52
530.09	53979.78
530.26	53998.50
530.43	53867.43
530.60	53719.98
530.77	54057.01
530.94	53806.58
531.11	54078.08
531.28	54108.50
531.46	54162.34
531.63	54223.19
531.80	54012.54
531.97	54258.30
532.14	54625.76
532.31	54330.86
532.48	54499.37
532.65	54761.51
532.82	54356.60
532.99	54550.87
533.16	54307.45
533.33	54766.20
533.50	54728.75
533.67	54738.11
533.84	54944.08
534.01	54646.83
534.18	54796.62
534.35	55117.28
534.52	55117.28
534.69	55196.85
534.86	55199.19
535.03	55051.74
535.20	55241.32
535.37	55166.43
535.54	55454.31
535.71	55077.49
535.88	55299.84
536.05	55487.08
536.22	55456.65
536.38	55639.22
536.55	55470.70
536.72	55468.36
536.89	55325.58
537.06	55496.44
537.23	55561.98
537.40	55578.36
537.57	55618.15
537.74	55592.40
537.91	55971.57
538.08	55707.09
538.25	55604.11
538.42	55760.92
538.59	56168.18
538.75	55971.57
538.92	56051.15
539.09	56172.86
539.26	56229.03
539.43	56039.45
539.60	56425.64
539.77	56088.60
539.94	56453.72
540.11	56357.76
540.28	56514.58
540.44	56460.74
540.61	56549.68
540.78	56484.15
540.95	56437.34
541.12	56301.59
541.29	56369.46
541.46	56374.14
541.62	56147.11
541.79	56540.32
541.96	56240.73
542.13	56622.24
542.30	56809.48
542.47	56493.51
542.63	57038.86
542.80	56898.42
542.97	57027.15
543.14	57200.35
543.31	57055.24
543.48	57097.37
543.64	57518.67
543.81	57408.66
543.98	57261.21
544.15	57263.55
544.32	57455.47
544.48	57546.75
544.65	57254.18
544.82	57209.71
544.99	57195.67
545.16	57378.23
545.32	57319.72
545.49	57638.03
545.66	57708.25
545.83	57567.82
546.00	57799.53
546.16	57757.40
546.33	57595.90
546.50	57190.99
546.67	57698.89
546.83	57598.24
547.00	57687.18
547.17	57666.12
547.34	57757.40
547.50	57954.00
547.67	58019.54
547.84	57996.13
548.00	58080.39
548.17	58031.24
548.34	57998.48
548.51	58028.90
548.67	58106.14
548.84	58220.83
549.01	58040.60
549.18	58164.65
549.34	58150.61
549.51	58045.29
549.68	58244.23
549.84	58354.24
550.01	58300.40
550.18	58445.52
550.34	58300.40
550.51	58185.72
550.68	58389.34
550.84	58281.68
551.01	58433.81
551.18	58335.51
551.34	58628.08
551.51	58686.59
551.68	58616.38
551.84	58590.63
552.01	58497.01
552.18	58457.22
552.34	58497.01
552.51	58616.38
552.68	58398.71
552.84	58492.33
553.01	58759.15
553.18	58749.79
553.34	58820.00
553.51	58852.77
553.67	58801.28
553.84	58773.19
554.01	59035.33
554.17	59075.12
554.34	59178.10
554.51	58922.99
554.67	58920.65
554.84	58908.94
555.00	58862.13
555.17	58756.81
555.33	59262.36
555.50	58962.78
555.67	59063.42
555.83	58946.39
556.00	58969.80
556.16	59035.33
556.33	59079.80
556.50	59159.38
556.66	59192.15
556.83	59103.21
556.99	59423.86
557.16	59269.39
557.32	59320.88
557.49	59611.10
557.65	59421.52
557.82	59487.06
557.98	59231.94
558.15	59217.89
558.32	59442.59
558.48	59152.36
558.65	59430.88
558.81	59306.83
558.98	59379.39
559.14	59559.61
559.31	59585.36
559.47	59583.02
559.64	59711.75
559.80	59669.62
559.97	59784.30
560.13	59449.61
560.30	59587.70
560.46	59313.86
560.63	59639.19
560.79	59807.71
560.96	59786.64
561.12	59732.81
561.29	59756.22
561.45	59906.01
561.61	59861.54
561.78	59742.17
561.94	59583.02
562.11	59751.54
562.27	59906.01
562.44	59938.78
562.60	59971.55
562.77	59987.93
562.93	59576.00
563.10	60013.68
563.26	59800.69
563.42	60006.65
563.59	59828.77
563.75	59889.63
563.92	60093.25
564.08	59983.25
564.24	59929.42
564.41	60030.06
564.57	60140.07
564.74	60128.36
564.90	60090.91
565.07	60090.91
565.23	59955.16
565.39	60037.08
565.56	60191.56
565.72	59934.10
565.88	60135.38
566.05	60119.00
566.21	59962.18
566.38	60203.26
566.54	60051.12
566.70	60423.27
566.87	60481.78
567.03	59966.87
567.19	60324.97
567.36	60111.98
567.52	60217.30
567.68	60418.59
567.85	60374.12
568.01	60423.27
568.17	60200.92
568.34	60500.51
568.50	60083.89
568.66	60456.04
568.83	60456.04
568.99	60231.35
569.15	60229.01
569.32	60165.81
569.48	60306.24
569.64	60353.05
569.81	60430.29
569.97	60395.18
570.13	60416.25
570.30	60409.23
570.46	60348.37
570.62	60427.95
570.78	60317.95
570.95	60563.70
571.11	60465.40
571.27	60463.06
571.43	60552.00
571.60	60509.87
571.76	60392.84
571.92	60659.66
572.09	60568.38
572.25	60568.38
572.41	60303.90
572.57	60334.33
572.74	60434.97
572.90	60612.85
573.06	60559.02
573.22	60673.71
573.38	60622.22
573.55	60530.93
573.71	61048.19
573.87	60797.76
574.03	60528.59
574.20	60715.84
574.36	60732.22
574.52	60619.88
574.68	60704.13
574.84	60568.38
575.01	60816.48
575.17	60624.56
575.33	60563.70
575.49	60591.79
575.65	60676.05
575.82	60910.10
575.98	60643.28
576.14	60662.00
576.30	60856.27
576.46	60659.66
576.62	60715.84
576.79	60699.45
576.95	60666.69
577.11	60757.97
577.27	60816.48
577.43	60678.39
577.59	60743.92
577.75	60732.22
577.92	60570.72
578.08	60633.92
578.24	60835.20
578.40	60835.20
578.56	60856.27
578.72	60818.82
578.88	60800.10
579.04	61282.25
579.21	60662.00
579.37	60870.31
579.53	60966.27
579.69	60706.47
579.85	60849.25
580.01	60807.12
580.17	60598.81
580.33	60938.19
580.49	60879.67
580.65	60872.65
580.82	60671.37
580.98	60650.30
581.14	60804.78
581.30	61020.11
581.46	60952.23
581.62	60961.59
581.78	60793.07
581.94	61017.77
582.10	60816.48
582.26	60746.26
582.42	60985.00
582.58	60706.47
582.74	60781.37
582.90	60896.06
583.06	60872.65
583.22	60779.03
583.38	60879.67
583.54	60863.29
583.70	60989.68
583.86	60879.67
584.02	60804.78
584.18	61052.87
584.34	61111.39
584.50	60907.76
584.66	60865.63
584.82	60767.33
584.98	61221.39
585.14	60940.53
585.30	60860.95
585.46	61029.47
585.62	60846.91
585.78	60963.93
585.94	60879.67
586.10	60867.97
586.26	60896.06
586.42	60921.80
586.58	61001.38
586.74	60940.53
586.90	61057.56
587.06	60825.84
587.22	61057.56
587.38	60807.12
587.54	60867.97
587.70	61151.18
587.86	60987.34
588.02	60989.68
588.18	61085.64
588.34	60912.44
588.49	60889.04
588.65	61041.17
588.81	61212.03
588.97	61146.50
589.13	61095.00
589.29	61069.26
589.45	61216.71
589.61	61160.54
589.77	61310.33
589.93	61139.47
590.08	61162.88
590.24	61312.67
590.40	61275.22
590.56	61251.82
590.72	61277.57
590.88	61183.94
591.04	61141.81
591.20	61495.24
591.35	61282.25
591.51	61614.60
591.67	61034.15
591.83	61593.54
591.99	61336.08
592.15	61258.84
592.31	61532.68
592.46	61251.82
592.62	61420.34
592.78	61450.77
592.94	61256.50
593.10	61359.48
593.26	61382.89
593.41	61272.88
593.57	61317.35
593.73	61282.25
593.89	61518.64
594.05	61455.45
594.20	61492.89
594.36	61619.28
594.52	61553.75
594.68	61382.89
594.84	61326.72
594.99	61523.32
595.15	61326.72
595.31	61497.58
595.47	61345.44
595.62	61467.15
595.78	61277.57
595.94	61691.84
596.10	61649.71
596.25	61506.94
596.41	61703.54
596.57	61455.45
596.73	61443.74
596.88	61394.59
597.04	61574.81
597.20	61633.33
597.36	61499.92
597.51	61630.99
597.67	61675.46
597.83	61350.12
597.99	61600.56
598.14	61586.52
598.30	61682.48
598.46	61556.09
598.61	61616.94
598.77	61385.23
598.93	61630.99
599.09	61652.05
599.24	61888.45
599.40	61815.89
599.56	61698.86
599.71	61762.06
599.87	61769.08
600.03	61612.26
600.18	61670.78
600.34	61586.52
600.50	61649.71
600.65	61680.14
600.81	61820.57
600.97	61733.97
601.12	61872.06
601.28	61605.24
601.44	61450.77
601.59	61577.15
601.75	61659.07
601.91	61928.23
602.06	61748.01
602.22	62045.26
602.37	61778.44
602.53	61787.80
602.69	61740.99
602.84	61551.41
603.00	61712.91
603.16	61869.72
603.31	61755.03
603.47	61818.23
603.62	61635.67
603.78	61897.81
603.94	61593.54
604.09	61799.50
604.25	61731.63
604.40	61663.75
604.56	61698.86
604.71	61874.40
604.87	61623.96
605.03	61757.38
605.18	61740.99
605.34	61811.21
605.49	61530.34
605.65	61666.09
605.80	61684.82
605.96	61890.79
606.12	61834.61
606.27	61808.87
606.43	61647.37
606.58	61752.69
606.74	61778.44
606.89	61626.31
607.05	61783.12
607.20	61764.40
607.36	61511.62
607.51	61471.83
607.67	61425.02
607.82	61593.54
607.98	61382.89
608.13	61663.75
608.29	61633.33
608.44	61546.73
608.60	61584.18
608.75	61549.07
608.91	61495.24
609.06	61539.71
609.22	61645.03
609.37	61586.52
609.53	61546.73
609.68	61511.62
609.84	61291.61
609.99	61616.94
610.15	61474.17
610.30	61565.45
610.46	61542.05
610.61	61703.54
610.76	61528.00
610.92	61478.85
611.07	61492.89
611.23	61277.57
611.38	61731.63
611.54	61497.58
611.69	61605.24
611.84	61731.63
612.00	61530.34
612.15	61310.33
612.31	61630.99
612.46	61277.57
612.62	61378.21
612.77	61523.32
612.92	61701.20
613.08	61375.87
613.23	61436.72
613.39	61544.39
613.54	61083.30
613.69	61574.81
613.85	61432.04
614.00	61563.11
614.15	61595.88
614.31	61345.44
614.46	61350.12
614.62	61293.95
614.77	61312.67
614.92	61448.42
615.08	61116.07
615.23	61111.39
615.38	61429.70
615.54	61256.50
615.69	61387.57
615.84	61317.35
616.00	61373.53
616.15	61422.68
616.30	61242.46
616.46	61141.81
616.61	61085.64
616.76	61394.59
616.92	61059.90
617.07	61015.43
617.22	61165.22
617.37	61338.42
617.53	61359.48
617.68	61387.57
617.83	60970.96
617.99	61029.47
618.14	61020.11
618.29	61401.61
618.45	61031.81
618.60	61013.08
618.75	61116.07
618.90	60867.97
619.06	61205.01
619.21	60987.34
619.36	61228.41
619.51	61160.54
619.67	60905.42
619.82	61050.53
619.97	61015.43
620.12	60879.67
620.28	60970.96
620.43	61099.68
620.58	61038.83
620.73	60907.76
620.89	60985.00
621.04	61080.96
621.19	61027.13
621.34	60891.38
621.49	60776.69
621.65	60872.65
621.80	60907.76
621.95	60828.18
622.10	60846.91
622.25	60996.70
622.41	60760.31
622.56	60856.27
622.71	60867.97
622.86	60772.01
623.01	60547.32
623.16	60484.12
623.32	60811.80
623.47	60781.37
623.62	60804.78
623.77	60498.17
623.92	60900.74
624.07	60699.45
624.23	60835.20
624.38	60643.28
624.53	60530.93
624.68	60416.25
624.83	60629.24
624.98	60764.99
625.13	60371.78
625.29	60654.98
625.44	60575.40
625.59	60554.34
625.74	60690.09
625.89	60399.86
626.04	60444.33
626.19	60406.89
626.34	60350.71
626.49	60367.10
626.65	60137.72
626.80	60420.93
626.95	60191.56
627.10	60121.34
627.25	60367.10
627.40	60086.23
627.55	60458.38
627.70	60449.02
627.85	60268.79
628.00	60306.24
628.15	60179.85
628.30	60090.91
628.45	60341.35
628.60	60196.24
628.76	60128.36
628.91	60402.21
629.06	60282.84
629.21	60240.71
629.36	60285.18
629.51	60079.21
629.66	60072.19
629.81	60004.31
629.96	59962.18
630.11	60088.57
630.26	60088.57
630.41	60086.23
630.56	60023.04
630.71	59948.14
630.86	60009.00
631.01	59966.87
631.16	60009.00
631.31	59945.80
631.46	59723.45
631.61	59938.78
631.76	59922.40
631.91	59966.87
632.06	60044.10
632.21	59976.23
632.36	59599.40
632.51	59299.81
632.66	59781.96
632.81	59779.62
632.96	59973.89
633.10	59821.75
633.25	59657.91
633.40	59852.18
633.55	59934.10
633.70	59854.52
633.85	59875.58
634.00	59526.84
634.15	59583.02
634.30	59568.97
634.45	59646.21
634.60	59760.90
634.75	59629.83
634.90	59313.86
635.05	59552.59
635.19	59737.49
635.34	59512.80
635.49	59664.94
635.64	59678.98
635.79	59505.78
635.94	59473.01
636.09	59454.29
636.24	59489.40
636.39	59608.76
636.53	59641.53
636.68	59517.48
636.83	59332.58
636.98	59821.75
637.13	59327.90
637.28	59746.86
637.43	59353.65
637.57	59533.87
637.72	59262.36
637.87	59339.60
638.02	59419.18
638.17	59412.16
638.32	59206.19
638.46	59402.80
638.61	59515.14
638.76	59351.30
638.91	59180.45
639.06	59257.68
639.20	59086.82
639.35	59227.26
639.50	59079.80
639.65	59042.35
639.80	59264.70
639.94	59023.63
640.09	59042.35
640.24	59077.46
640.39	59126.61
640.54	58855.11
640.68	59110.23
640.83	59171.08
640.98	58878.52
641.13	58827.02
641.27	59227.26
641.42	59058.74
641.57	58859.79
641.72	58759.15
641.86	58583.61
642.01	58958.09
642.16	58660.85
642.31	58770.85
642.45	58801.28
642.60	58920.65
642.75	59061.08
642.90	58862.13
643.04	58646.80
643.19	58623.40
643.34	58721.70
643.48	58866.81
643.63	58843.41
643.78	58686.59
643.93	58578.93
644.07	58604.67
644.22	58527.44
644.37	58047.63
644.51	58536.80
644.66	58670.21
644.81	58614.04
644.95	58557.86
645.10	58363.60
645.25	58511.05
645.39	58525.10
645.54	58464.24
645.69	58337.85
645.83	58632.76
645.98	58431.47
646.13	58719.36
646.27	58375.30
646.42	58433.81
646.57	58375.30
646.71	58206.78
646.86	58415.09
647.00	58506.37
647.15	58354.24
647.30	58501.69
647.44	58328.49
647.59	58574.25
647.74	58314.45
647.88	58562.54
648.03	58569.57
648.17	58253.59
648.32	58408.07
648.47	58174.02
648.61	58218.49
648.76	58379.98
648.90	58387.00
649.05	58145.93
649.20	58209.12
649.34	58218.49
649.49	58169.33
649.63	58192.74
649.78	58548.50
649.92	58298.06
650.07	58174.02
650.21	58248.91
650.36	58295.72
650.51	58040.60
650.65	58321.47
650.80	58101.46
650.94	58092.10
651.09	57661.44
651.23	57822.93
651.38	57827.62
651.52	57682.50
651.67	57703.57
651.81	57825.28
651.96	57804.21
652.10	57909.53
652.25	57769.10
652.39	57916.56
652.54	57666.12
652.68	57757.40
652.83	57602.92
652.97	57722.29
653.12	57715.27
653.26	57736.34
653.41	57701.23
653.55	57893.15
653.70	57876.77
653.84	57792.51
653.99	57755.06
654.13	57619.31
654.27	57537.39
654.42	57670.80
654.56	57256.53
654.71	57724.63
654.85	57836.98
655.00	57506.96
655.14	57701.23
655.29	57542.07
655.43	57490.58
655.57	57525.69
655.72	57609.95
655.86	57612.29
656.01	57577.18
656.15	57338.44
656.30	57544.41
656.44	57591.22
656.58	57340.78
656.73	57588.88
656.87	57275.25
657.01	57502.28
657.16	57441.43
657.30	57216.74
657.45	57181.63
657.59	57359.51
657.73	57151.20
657.88	57097.37
658.02	57130.14
658.16	57125.46
658.31	57151.20
658.45	57212.06
658.60	57055.24
658.74	57125.46
658.88	57279.93
659.03	56917.15
659.17	56992.04
659.31	56875.02
659.46	56994.39
659.60	56933.53
659.74	56968.64
659.89	56535.64
660.03	56825.87
660.17	56912.47
660.32	56666.71
660.46	57013.11
660.60	56327.33
660.74	56755.65
660.89	56783.74
661.03	56645.65
661.17	56390.53
661.32	56296.91
661.46	56444.36
661.60	56502.87
661.74	56343.72
661.89	56306.27
662.03	56250.09
662.17	56425.64
662.31	56460.74
662.46	56224.35
662.60	56350.74
662.74	56104.98
662.88	56027.74
663.03	56016.04
663.17	55999.66
663.31	55866.25
663.45	56147.11
663.60	55765.60
663.74	55325.58
663.88	55629.85
664.02	55664.96
664.17	55887.31
664.31	55517.51
664.45	55590.06
664.59	55615.81
664.73	55498.78
664.88	55458.99
665.02	55098.55
665.16	55281.11
665.30	55356.01
665.44	55325.58
665.59	55412.18
665.73	55299.84
665.87	55348.99
666.01	55400.48
666.15	55344.31
666.29	55257.71
666.44	55131.32
666.58	54960.46
666.72	55030.68
666.86	54855.14
667.00	54972.16
667.14	54518.10
667.28	54848.11
667.43	54571.93
667.57	54838.75
667.71	54602.36
667.85	54365.96
667.99	54436.18
668.13	54293.41
668.27	54557.89
668.41	54546.18
668.56	54150.63
668.70	54134.25
668.84	53848.71
668.98	54302.77
669.12	54279.36
669.26	54066.38
669.40	54227.87
669.54	54202.13
669.68	54195.10
669.82	53930.62
669.96	54122.55
670.10	54160.00
670.25	53963.39
670.39	53932.96
670.53	53911.90
670.67	53998.50
670.81	53970.41
670.95	53719.98
671.09	53263.57
671.23	53373.58
671.37	53443.79
671.51	53317.40
671.65	53546.78
671.79	53329.11
671.93	53340.81
672.07	53478.90
672.21	52947.60
672.35	53095.05
672.49	52626.95
672.63	52650.35
672.77	52624.60
672.91	52811.85
673.05	52231.40
673.19	52397.57
673.33	52385.87
673.47	52058.20
673.61	52577.79
673.75	52355.44
673.89	51679.03
674.03	51870.95
674.17	51693.07
674.31	51491.79
674.45	51627.54
674.59	51498.81
674.73	51702.43
674.87	51487.10
675.01	51697.75
675.15	51267.09
675.29	51381.78
675.43	51611.15
675.56	51381.78
675.70	51002.61
675.84	50955.80
675.98	49717.66
676.12	50738.13
676.26	50527.48
676.40	50574.30
676.54	50628.13
676.68	51131.34
676.82	49869.79
676.96	50508.76
677.10	49907.24
677.23	49874.48
677.37	50162.36
677.51	49635.74
677.65	49656.81
677.79	48395.26
677.93	49359.56
678.07	48823.58
678.21	48844.64
678.34	48664.42
678.48	49003.80
678.62	48793.15
678.76	48545.05
678.90	48861.02
679.04	48512.28
679.18	48367.17
679.31	47669.69
679.45	47992.68
679.59	47800.76
679.73	47988.00
679.87	47578.41
680.00	47353.72
680.14	47075.19
680.28	47700.12
680.42	46958.17
680.56	46876.25
680.70	46705.39
680.83	46501.76
680.97	46461.97
681.11	46885.61
681.25	46429.21
681.39	46220.90
681.52	45787.90
681.66	46253.67
681.80	45595.98
681.94	45705.98
682.07	45474.27
682.21	45111.49
682.35	45099.78
682.49	45151.27
682.62	45422.78
682.76	45294.05
682.90	44849.35
683.04	44746.36
683.17	44907.86
683.31	44140.16
683.45	44664.44
683.59	44128.46
683.72	43665.03
683.86	43849.94
684.00	44287.62
684.13	44189.31
684.27	43679.08
684.41	43999.73
684.55	43700.14
684.68	43674.40
684.82	43325.66
684.96	42799.04
685.09	42747.54
685.23	42204.54
685.37	42321.57
685.50	42480.72
685.64	42176.45
685.78	42375.40
685.91	42014.96
686.05	41701.32
686.19	41195.77
686.32	41195.77
686.46	40774.47
686.60	40767.45
686.73	40538.08
686.87	40849.37
687.01	40737.02
687.14	40460.84
687.28	39962.31
687.42	40297.00
687.55	39852.30
687.69	40289.98
687.82	39761.02
687.96	39791.45
688.10	39126.74
688.23	39285.89
688.37	39260.15
688.50	39180.57
688.64	39103.33
688.78	38490.11
688.91	38132.01
689.05	38693.74
689.18	38326.27
689.32	37954.13
689.46	38066.47
689.59	37717.73
689.73	37816.04
689.86	37474.32
690.00	37228.56
690.13	37476.66
690.27	37298.78
690.41	37345.59
690.54	37097.49
690.68	36854.08
690.81	36404.69
690.95	36350.86
691.08	36334.48
691.22	35999.78
691.35	35735.30
691.49	36491.29
691.62	35985.74
691.76	35321.02
691.89	35555.08
692.03	35363.15
692.16	35381.88
692.30	35112.72
692.43	35023.78
692.57	34527.58
692.70	34656.31
692.84	34618.86
692.97	34539.29
693.11	34265.44
693.24	34117.99
693.38	34169.48
693.51	33930.75
693.65	33907.34
693.78	33249.65
693.92	33544.56
694.05	33022.62
694.19	33207.52
694.32	33013.26
694.45	32910.27
694.59	32662.18
694.72	32685.58
694.86	32606.00
694.99	31976.40
695.13	31681.49
695.26	31934.27
695.39	31564.46
695.53	32137.90
695.66	31866.39
695.80	31316.37
695.93	31349.14
696.07	31215.72
696.20	30719.53
696.33	30331.00
696.47	30733.57
696.60	30565.06
696.73	30415.26
696.87	29724.80
697.00	29916.73
697.14	30391.86
697.27	29972.90
697.40	29874.60
697.54	29741.19
697.67	29614.80
697.80	29593.73
697.94	29127.97
698.07	28685.61
698.21	28945.41
698.34	28648.16
698.47	28819.02
698.61	27864.08
698.74	28709.01
698.87	28538.15
699.01	27838.33
699.14	28177.71
699.27	27967.06
699.40	28180.05
699.54	27339.80
699.67	27754.07
699.80	27562.15
699.94	27756.41
700.07	27180.64
700.20	27147.87
700.34	26551.04
700.47	26380.18
700.60	26897.44
700.73	26487.84
700.87	26143.78
701.00	26115.70
701.13	25699.08
701.26	25883.98
701.40	25986.97
701.53	25549.29
701.66	25640.57
701.79	25036.71
701.93	25340.98
702.06	24999.26
702.19	25163.10
702.32	25083.52
702.46	24795.64
702.59	24577.97
702.72	24278.38
702.85	24308.80
702.99	24364.98
703.12	24343.91
703.25	23662.82
703.38	23824.31
703.51	23662.82
703.65	23309.40
703.78	23363.23
703.91	22721.92
704.04	23318.76
704.17	23332.80
704.31	22927.89
704.44	22890.44
704.57	22836.61
704.70	22661.07
704.83	22270.20
704.96	22204.66
705.10	22134.45
705.23	22235.09
>>>>>End Processed Spectral Data<<<<<
