SpectraSuite Data File
++++++++++++++++++++++++++++++++++++
Date: Fri Oct 25 11:22:35 EDT 2013
User: price-jones
Dark Spectrum Present: No
Reference Spectrum Present: No
Number of Sampled Component Spectra: 1
Spectrometers: USB2+H05261
Integration Time (usec): 100000 (USB2+H05261)
Spectra Averaged: 1 (USB2+H05261)
Boxcar Smoothing: 0 (USB2+H05261)
Correct for Electrical Dark: No (USB2+H05261)
Strobe/Lamp Enabled: No (USB2+H05261)
Correct for Detector Non-linearity: No (USB2+H05261)
Correct for Stray Light: No (USB2+H05261)
Number of Pixels in Processed Spectrum: 2048
>>>>>Begin Processed Spectral Data<<<<<
365.73	191.92
365.92	191.92
366.12	191.92
366.32	187.24
366.52	133.41
366.72	102.98
366.91	140.43
367.11	173.20
367.31	203.63
367.51	100.64
367.70	131.07
367.90	156.82
368.10	161.50
368.30	173.20
368.49	173.20
368.69	152.13
368.89	138.09
369.09	128.73
369.28	147.45
369.48	84.26
369.68	124.05
369.87	154.48
370.07	227.03
370.27	234.05
370.47	344.06
370.66	573.43
370.86	620.24
371.06	692.80
371.25	676.41
371.45	657.69
371.65	713.86
371.84	690.46
372.04	706.84
372.24	739.61
372.44	674.07
372.63	772.38
372.83	793.44
373.03	772.38
373.22	697.48
373.42	816.85
373.62	751.31
373.81	763.01
374.01	830.89
374.21	798.12
374.40	807.48
374.60	840.25
374.79	814.51
374.99	898.77
375.19	875.36
375.38	873.02
375.58	891.74
375.78	774.72
375.97	844.93
376.17	917.49
376.37	842.59
376.56	903.45
376.76	842.59
376.95	873.02
377.15	840.25
377.35	873.02
377.54	896.43
377.74	915.15
377.93	873.02
378.13	894.08
378.33	898.77
378.52	901.11
378.72	964.30
378.91	987.71
379.11	898.77
379.31	987.71
379.50	837.91
379.70	994.73
379.89	1025.15
380.09	940.90
380.28	1102.39
380.48	1062.60
380.68	1004.09
380.87	997.07
381.07	987.71
381.26	1025.15
381.46	983.02
381.65	1025.15
381.85	943.24
382.04	1027.50
382.24	1090.69
382.43	1022.81
382.63	1123.46
382.83	1022.81
383.02	1090.69
383.22	1029.84
383.41	1118.78
383.61	1205.38
383.80	1163.25
384.00	1071.97
384.19	1149.20
384.39	1107.07
384.58	1158.57
384.78	1163.25
384.97	1158.57
385.17	1055.58
385.36	1165.59
385.56	1160.91
385.75	1196.01
385.95	1163.25
386.14	1198.35
386.34	1125.80
386.53	1196.01
386.72	1221.76
386.92	1242.82
387.11	1310.70
387.31	1291.98
387.50	1179.63
387.70	1205.38
387.89	1245.16
388.09	1310.70
388.28	1263.89
388.48	1287.29
388.67	1359.85
388.86	1306.02
389.06	1366.87
389.25	1338.79
389.45	1394.96
389.64	1348.15
389.84	1287.29
390.03	1380.92
390.22	1378.58
390.42	1380.92
390.61	1413.68
390.81	1371.55
391.00	1376.24
391.19	1509.65
391.39	1409.00
391.58	1486.24
391.78	1406.66
391.97	1563.48
392.16	1476.88
392.36	1488.58
392.55	1509.65
392.75	1516.67
392.94	1521.35
393.13	1521.35
393.33	1561.14
393.52	1596.25
393.71	1624.33
393.91	1549.43
394.10	1554.12
394.29	1401.98
394.49	1530.71
394.68	1720.29
394.88	1652.42
395.07	1673.48
395.26	1661.78
395.46	1732.00
395.65	1774.13
395.84	1795.19
396.04	1767.10
396.23	1699.23
396.42	1661.78
396.62	1788.17
396.81	1762.42
397.00	1750.72
397.19	1764.76
397.39	1790.51
397.58	1741.36
397.77	1842.00
397.97	1790.51
398.16	1923.92
398.35	1937.96
398.55	1893.49
398.74	1909.88
398.93	1879.45
399.12	1881.79
399.32	1956.69
399.51	1923.92
399.70	2001.16
399.90	1970.73
400.09	2167.34
400.28	2176.70
400.47	2104.14
400.67	2036.27
400.86	2125.21
401.05	2132.23
401.24	2167.34
401.44	2197.76
401.63	2179.04
401.82	2181.38
402.01	1982.43
402.21	2136.91
402.40	2223.51
402.59	2193.08
402.78	2190.74
402.97	2218.83
403.17	2300.75
403.36	2251.60
403.55	2279.68
403.74	2420.11
403.93	2464.58
404.13	2473.95
404.32	2438.84
404.51	2445.86
404.70	2406.07
404.89	2466.92
405.09	2504.37
405.28	2450.54
405.47	2417.77
405.66	2562.89
405.85	2546.50
406.05	2527.78
406.24	2602.68
406.43	2593.31
406.62	2726.72
406.81	2679.91
407.00	2633.10
407.20	2562.89
407.39	2679.91
407.58	2759.49
407.77	2738.43
407.96	2726.72
408.15	2738.43
408.34	2691.62
408.54	2876.52
408.73	2836.73
408.92	2789.92
409.11	2799.28
409.30	2909.29
409.49	3073.12
409.68	2925.67
409.87	2981.84
410.07	2970.14
410.26	2963.12
410.45	2970.14
410.64	3026.31
410.83	3148.02
411.02	3133.98
411.21	3157.38
411.40	3089.51
411.59	3204.19
411.78	3208.87
411.98	3211.22
412.17	3304.84
412.36	3435.91
412.55	3424.20
412.74	3445.27
412.93	3332.92
413.12	3353.99
413.31	3602.08
413.50	3510.80
413.69	3379.73
413.88	3559.95
414.07	3623.15
414.26	3637.19
414.45	3775.28
414.64	3798.69
414.83	3613.79
415.02	3824.44
415.22	3859.54
415.41	3948.48
415.60	3801.03
415.79	3868.91
415.98	4056.15
416.17	3887.63
416.36	3948.48
416.55	4046.79
416.74	4051.47
416.93	4002.32
417.12	4166.15
417.31	4147.43
417.50	4189.56
417.69	4381.48
417.88	4400.21
418.07	4299.56
418.26	4283.18
418.45	4322.97
418.64	4531.28
418.83	4486.81
419.02	4517.23
419.21	4669.37
419.39	4751.29
419.58	4550.00
419.77	4550.00
419.96	4547.66
420.15	4650.64
420.34	4676.39
420.53	4531.28
420.72	4643.62
420.91	4786.40
421.10	4795.76
421.29	4901.08
421.48	4629.58
421.67	4805.12
421.86	4802.78
422.05	4898.74
422.24	4875.34
422.43	4905.76
422.61	4968.96
422.80	4980.66
422.99	5053.22
423.18	5025.13
423.37	5067.26
423.56	5011.09
423.75	4940.87
423.94	4943.21
424.13	4779.37
424.32	4791.08
424.50	5139.82
424.69	5203.01
424.88	5193.65
425.07	5020.45
425.26	5076.62
425.45	4936.19
425.64	5008.75
425.83	5076.62
426.01	5142.16
426.20	5146.84
426.39	5205.35
426.58	5027.47
426.77	5125.77
426.96	5247.48
427.15	5238.12
427.33	5207.69
427.52	5132.79
427.71	5282.59
427.90	5294.29
428.09	5266.21
428.28	5308.34
428.46	5458.13
428.65	5556.43
428.84	5673.46
429.03	5446.43
429.22	5451.11
429.40	5554.09
429.59	5390.25
429.78	5259.18
429.97	5490.90
430.16	5568.13
430.34	5628.99
430.53	5753.04
430.72	5781.12
430.91	5778.78
431.10	5710.91
431.28	5809.21
431.47	5696.86
431.66	5771.76
431.85	5774.10
432.03	5902.83
432.22	6122.84
432.41	5949.64
432.60	6094.76
432.79	5832.62
432.97	6054.97
433.16	6099.44
433.35	6001.13
433.54	6155.61
433.72	6141.57
433.91	6008.16
434.10	6239.87
434.28	6094.76
434.47	6284.34
434.66	6293.70
434.85	6277.32
435.03	6366.26
435.22	6490.31
435.41	6539.46
435.59	6403.71
435.78	6527.75
435.97	6506.69
436.16	6312.42
436.34	6722.02
436.53	6417.75
436.72	6729.04
436.90	6455.20
437.09	6604.99
437.28	6621.38
437.46	6677.55
437.65	6789.89
437.84	6782.87
438.02	6902.24
438.21	6785.21
438.40	6558.18
438.58	7124.59
438.77	7150.34
438.96	7129.27
439.14	7140.97
439.33	7344.60
439.52	7276.73
439.70	7096.50
439.89	7356.30
440.08	7433.54
440.26	7281.41
440.45	7478.01
440.63	7400.77
440.82	7653.55
441.01	7595.04
441.19	7658.23
441.38	7625.47
441.57	7873.56
441.75	7784.62
441.94	8081.87
442.12	7955.48
442.31	8018.68
442.50	8030.38
442.68	7985.91
442.87	7992.93
443.05	8126.34
443.24	8301.88
443.43	8234.00
443.61	8334.65
443.80	8580.40
443.98	8187.19
444.17	7927.39
444.35	8297.20
444.54	8470.40
444.73	8259.75
444.91	8287.84
445.10	8414.23
445.28	8533.59
445.47	8372.10
445.65	8479.76
445.84	8650.62
446.02	8545.30
446.21	8496.14
446.39	8507.85
446.58	8587.43
446.77	8336.99
446.95	8189.53
447.14	8400.18
447.32	8786.37
447.51	8699.77
447.69	8624.87
447.88	8549.98
448.06	8500.83
448.25	8631.90
448.43	8777.01
448.62	8807.44
448.80	8652.96
448.99	8629.56
449.17	8950.21
449.36	8837.86
449.54	8725.52
449.73	9039.15
449.91	9210.01
450.10	9001.70
450.28	9071.92
450.46	9282.56
450.65	8978.30
450.83	9090.64
451.02	9076.60
451.20	9273.20
451.39	9329.38
451.57	9231.07
451.76	8936.17
451.94	9420.66
452.13	9408.95
452.31	9327.03
452.49	9411.29
452.68	9392.57
452.86	9343.42
453.05	9514.28
453.23	9317.67
453.42	9366.82
453.60	9287.25
453.78	9657.05
453.97	9371.50
454.15	9607.90
454.34	9710.88
454.52	9851.31
454.70	9568.11
454.89	9675.77
455.07	9710.88
455.26	9996.43
455.44	10036.22
455.62	10071.33
455.81	10190.69
455.99	9966.00
456.17	10010.47
456.36	10040.90
456.54	10237.50
456.73	10207.08
456.91	10588.58
457.09	10333.47
457.28	10665.82
457.46	10516.03
457.64	10466.88
457.83	10525.39
458.01	10576.88
458.19	10853.06
458.38	10775.83
458.56	10743.06
458.74	10764.12
458.93	10850.72
459.11	10700.93
459.29	10803.91
459.48	10593.26
459.66	10977.11
459.84	10871.79
460.03	11094.14
460.21	11007.54
460.39	11026.26
460.57	11215.85
460.76	11147.97
460.94	11250.96
461.12	11269.68
461.31	11286.06
461.49	11246.27
461.67	11538.84
461.85	11517.78
462.04	11297.77
462.22	11997.59
462.40	11637.14
462.59	11382.03
462.77	11662.89
462.95	11634.80
463.13	11613.74
463.32	11740.13
463.50	11770.55
463.68	11941.41
463.86	11892.26
464.05	11882.90
464.23	11763.53
464.41	11894.60
464.59	11742.47
464.78	12154.40
464.96	12252.70
465.14	12208.23
465.32	12250.36
465.50	12095.89
465.69	12299.52
465.87	12313.56
466.05	12367.39
466.23	12147.38
466.41	12379.09
466.60	12659.96
466.78	12079.50
466.96	12594.42
467.14	12329.94
467.32	12538.25
467.51	12484.42
467.69	12123.98
467.87	12645.91
468.05	12842.52
468.23	12566.34
468.41	12697.41
468.60	12842.52
468.78	12952.52
468.96	12674.00
469.14	12662.30
469.32	13057.85
469.50	12624.85
469.69	13092.96
469.87	13296.58
470.05	13355.10
470.23	13451.06
470.41	13338.71
470.59	13238.07
470.77	13172.54
470.95	13315.31
471.14	13558.72
471.32	13369.14
471.50	13806.82
471.68	13771.71
471.86	13612.56
472.04	13862.99
472.22	14211.73
472.40	13682.77
472.58	14134.50
472.77	14209.39
472.95	14125.13
473.13	14586.22
473.31	14200.03
473.49	14193.01
473.67	14401.32
473.85	14375.57
474.03	14644.73
474.21	14661.12
474.39	14909.21
474.57	14824.95
474.75	15122.20
474.93	15185.40
475.12	15227.53
475.30	15440.51
475.48	15115.18
475.66	15321.15
475.84	15318.81
476.02	15412.43
476.20	15602.01
476.38	15875.85
476.56	16379.07
476.74	15712.02
476.92	16177.78
477.10	16006.92
477.28	16308.85
477.46	16416.52
477.64	16681.00
477.82	16627.17
478.00	17158.47
478.18	17022.72
478.36	17240.39
478.54	17298.90
478.72	17245.07
478.90	17642.96
479.08	17565.72
479.26	17886.37
479.44	17792.75
479.62	18169.58
479.80	18263.20
479.98	18342.78
480.16	18621.30
480.34	18537.04
480.52	19108.13
480.70	18911.53
480.88	18576.83
481.06	18838.97
481.24	19030.90
481.41	19248.57
481.59	19421.77
481.77	19599.65
481.95	19625.39
482.13	19686.25
482.31	20018.60
482.49	20514.80
482.67	20432.88
482.85	20456.28
483.03	20851.83
483.21	20622.46
483.39	21198.23
483.57	21146.74
483.74	21453.35
483.92	21614.85
484.10	21565.70
484.28	22029.12
484.46	22059.55
484.64	22384.88
484.82	22106.36
485.00	22574.47
485.18	23049.60
485.35	23019.17
485.53	22967.68
485.71	23222.80
485.89	23836.02
486.07	23960.06
486.25	23679.20
486.43	23854.74
486.61	24093.47
486.78	24280.72
486.96	24348.59
487.14	24496.05
487.32	24641.16
487.50	24896.28
487.68	25132.67
487.85	25685.04
488.03	25617.16
488.21	26118.04
488.39	26169.53
488.57	26370.82
488.75	26768.71
488.92	26789.77
489.10	27192.34
489.28	26740.62
489.46	27496.61
489.64	27330.44
489.81	27927.27
489.99	27847.69
490.17	28046.64
490.35	28460.91
490.53	28371.97
490.70	28900.94
490.88	28634.11
491.06	29092.86
491.24	29163.08
491.41	29376.06
491.59	29476.71
491.77	29401.81
491.95	29731.83
492.13	30132.06
492.30	30206.95
492.48	30352.07
492.66	30813.15
492.84	30745.28
493.01	31103.38
493.19	31140.83
493.37	31243.81
493.54	31409.99
493.72	31793.84
493.90	31943.63
494.08	32397.70
494.25	32294.71
494.43	32208.11
494.61	32613.02
494.79	32891.55
494.96	32697.28
495.14	33090.49
495.32	33170.07
495.49	33301.14
495.67	33333.91
495.85	33799.68
496.02	33944.79
496.20	34588.44
496.38	34026.71
496.55	34450.35
496.73	35536.35
496.91	34920.79
497.09	35019.10
497.26	35171.23
497.44	35126.76
497.62	35669.76
497.79	35772.75
497.97	35438.05
498.14	36222.13
498.32	36364.90
498.50	36428.10
498.67	36854.08
498.85	37015.57
499.03	36772.16
499.20	37090.47
499.38	37275.37
499.56	37516.45
499.73	37886.25
499.91	38127.33
500.08	38136.69
500.26	37666.24
500.44	38183.50
500.61	38150.73
500.79	38010.30
500.97	38286.48
501.14	39089.29
501.32	38710.12
501.49	39297.59
501.67	39166.52
501.84	39028.43
502.02	38902.04
502.20	39510.58
502.37	39702.51
502.55	39524.63
502.72	39950.60
502.90	39847.62
503.07	39871.03
503.25	40189.34
503.43	40341.47
503.60	40505.31
503.78	40332.11
503.95	40692.55
504.13	40509.99
504.30	40533.40
504.48	40701.92
504.65	41294.07
504.83	41399.40
505.01	41572.60
505.18	41860.48
505.36	41724.73
505.53	41841.76
505.71	41731.75
505.88	42312.20
506.06	41825.37
506.23	42611.79
506.41	42234.97
506.58	42855.21
506.76	42672.65
506.93	42913.72
507.11	42925.42
507.28	42997.98
507.46	42951.17
507.63	43175.86
507.81	43723.55
507.98	43030.75
508.16	43557.37
508.33	44053.56
508.50	44091.01
508.68	44114.42
508.85	44392.94
509.03	44722.96
509.20	44629.34
509.38	44624.65
509.55	44924.24
509.73	44987.44
509.90	45219.15
510.08	45188.72
510.25	44832.96
510.42	45050.63
510.60	45298.73
510.77	45619.38
510.95	45790.24
511.12	45277.66
511.30	45144.25
511.47	45406.39
511.64	45780.88
511.82	46059.40
511.99	45687.26
512.17	45933.01
512.34	45818.33
512.51	46361.33
512.69	46953.49
512.86	46827.10
513.04	47281.16
513.21	47138.39
513.38	47505.85
513.56	46979.23
513.73	47487.13
513.90	47704.80
514.08	47463.72
514.25	47529.26
514.43	47814.80
514.60	47852.25
514.77	48231.42
514.95	47976.30
515.12	48140.14
515.29	47978.64
515.47	48268.87
515.64	48825.92
515.81	48538.03
515.99	48769.74
516.16	48882.09
516.33	48954.64
516.51	49186.36
516.68	49132.53
516.85	49050.61
517.03	49240.19
517.20	49270.62
517.37	49287.00
517.54	49345.51
517.72	49235.51
517.89	49294.02
518.06	49542.12
518.24	49621.70
518.41	49925.97
518.58	49661.49
518.75	49900.22
518.93	49801.92
519.10	49897.88
519.27	50057.04
519.45	50389.39
519.62	50178.75
519.79	50431.52
519.96	50373.01
520.14	50714.73
520.31	50380.03
520.48	50614.08
520.65	50562.59
520.83	50897.29
521.00	50911.33
521.17	51107.94
521.34	50990.91
521.52	50876.22
521.69	51063.47
521.86	51578.39
522.03	51554.98
522.20	51695.41
522.38	51908.40
522.55	51576.04
522.72	51896.70
522.89	51896.70
523.07	52156.50
523.24	52163.52
523.41	52051.17
523.58	51480.08
523.75	52149.48
523.92	51952.87
524.10	52102.67
524.27	52308.63
524.44	52292.25
524.61	52334.38
524.78	52708.86
524.96	52456.09
525.13	52818.87
525.30	52933.56
525.47	52868.02
525.64	52786.10
525.81	53146.54
525.98	53237.83
526.16	52868.02
526.33	52947.60
526.50	53418.05
526.67	53216.76
526.84	53106.76
527.01	53336.13
527.18	53078.67
527.36	53638.06
527.53	53544.44
527.70	53783.17
527.87	53745.72
528.04	53659.12
528.21	53670.82
528.38	53825.30
528.55	53876.79
528.72	53682.53
528.89	53895.52
529.07	53425.07
529.24	53872.11
529.41	54017.22
529.58	53900.20
529.75	54108.50
529.92	54181.06
530.09	54141.27
530.26	54251.28
530.43	54515.76
530.60	54171.70
530.77	54251.28
530.94	54555.55
531.11	54415.11
531.28	54656.19
531.46	54597.68
531.63	54578.95
531.80	54838.75
531.97	54817.69
532.14	54934.71
532.31	54660.87
532.48	54892.58
532.65	55150.04
532.82	54637.47
532.99	55276.43
533.16	54801.30
533.33	55208.56
533.50	55178.13
533.67	55302.18
533.84	55112.59
534.01	55075.15
534.18	55199.19
534.35	55414.52
534.52	55213.24
534.69	55559.64
534.86	55470.70
535.03	55285.79
535.20	55482.40
535.37	55599.43
535.54	55894.33
535.71	55552.62
535.88	55627.51
536.05	55882.63
536.22	55936.46
536.38	56055.83
536.55	55789.01
536.72	55894.33
536.89	56037.11
537.06	56044.13
537.23	56074.55
537.40	55749.22
537.57	55950.51
537.74	56058.17
537.91	56474.79
538.08	56287.54
538.25	55938.80
538.42	56219.67
538.59	56477.13
538.75	56161.15
538.92	56381.16
539.09	56542.66
539.26	56390.53
539.43	56336.69
539.60	56320.31
539.77	56355.42
539.94	56732.25
540.11	56638.62
540.28	56729.90
540.44	56671.39
540.61	56516.92
540.78	56750.97
540.95	56846.93
541.12	56472.45
541.29	56435.00
541.46	56755.65
541.62	56708.84
541.79	56865.66
541.96	56940.55
542.13	56760.33
542.30	56903.10
542.47	57148.86
542.63	57141.84
542.80	57013.11
542.97	57389.94
543.14	57546.75
543.31	57200.35
543.48	57429.72
543.64	57497.60
543.81	57785.49
543.98	57464.83
544.15	57413.34
544.32	57623.99
544.48	57799.53
544.65	57766.76
544.82	57710.59
544.99	57511.64
545.16	57771.44
545.32	57836.98
545.49	57804.21
545.66	58169.33
545.83	57888.47
546.00	58028.90
546.16	57888.47
546.33	57584.20
546.50	57935.28
546.67	57986.77
546.83	57745.70
547.00	57848.68
547.17	58157.63
547.34	57825.28
547.50	58035.92
547.67	58223.17
547.84	58064.01
548.00	58562.54
548.17	58450.20
548.34	58370.62
548.51	58230.19
548.67	58569.57
548.84	58431.47
549.01	58234.87
549.18	58321.47
549.34	58511.05
549.51	58475.94
549.68	58445.52
549.84	58616.38
550.01	58864.47
550.18	58574.25
550.34	58702.98
550.51	58719.36
550.68	58639.78
550.84	58412.75
551.01	58684.25
551.18	58681.91
551.34	58752.13
551.51	58855.11
551.68	58735.74
551.84	58621.06
552.01	58695.95
552.18	58953.41
552.34	58988.52
552.51	58983.84
552.68	58962.78
552.84	58876.18
553.01	59196.83
553.18	59091.51
553.34	59154.70
553.51	59159.38
553.67	59023.63
553.84	59194.49
554.01	59250.66
554.17	59107.89
554.34	59316.20
554.51	59131.29
554.67	59360.67
554.84	59131.29
555.00	59271.73
555.17	59023.63
555.33	59243.64
555.50	59168.74
555.67	59215.55
555.83	59327.90
556.00	59449.61
556.16	59597.06
556.33	59568.97
556.50	59372.37
556.66	59695.36
556.83	59381.73
556.99	59650.89
557.16	59697.70
557.32	59945.80
557.49	59950.48
557.65	59627.49
557.82	59683.66
557.98	59599.40
558.15	59643.87
558.32	59559.61
558.48	59573.66
558.65	59601.74
558.81	59681.32
558.98	59861.54
559.14	59868.56
559.31	59870.90
559.47	60001.97
559.64	59847.50
559.80	59927.08
559.97	59882.61
560.13	59889.63
560.30	60093.25
560.46	59999.63
560.63	60030.06
560.79	60041.76
560.96	60324.97
561.12	59887.29
561.29	60109.64
561.45	59994.95
561.61	60140.07
561.78	59966.87
561.94	60130.70
562.11	60023.04
562.27	60154.11
562.44	60282.84
562.60	60231.35
562.77	60018.36
562.93	60051.12
563.10	60247.73
563.26	60161.13
563.42	60331.99
563.59	60306.24
563.75	60135.38
563.92	60264.11
564.08	60348.37
564.24	60392.84
564.41	60306.24
564.57	60261.77
564.74	60528.59
564.90	60243.05
565.07	60093.25
565.23	60324.97
565.39	60339.01
565.56	60533.28
565.72	60336.67
565.88	60264.11
566.05	60217.30
566.21	60390.50
566.38	60409.23
566.54	60470.08
566.70	60418.59
566.87	60694.77
567.03	60219.64
567.19	60795.42
567.36	60563.70
567.52	60626.90
567.68	60764.99
567.85	60680.73
568.01	60535.62
568.17	60540.30
568.34	60825.84
568.50	60516.89
568.66	60446.68
568.83	60640.94
568.99	60587.11
569.15	60528.59
569.32	60673.71
569.48	60479.44
569.64	60722.86
569.81	60563.70
569.97	60556.68
570.13	60795.42
570.30	60413.91
570.46	60774.35
570.62	60846.91
570.78	60673.71
570.95	60638.60
571.11	60839.89
571.27	60591.79
571.43	60647.96
571.60	60914.78
571.76	60739.24
571.92	60720.52
572.09	60966.27
572.25	60781.37
572.41	60856.27
572.57	60711.16
572.74	61144.16
572.90	60830.52
573.06	60896.06
573.22	60683.07
573.38	60734.56
573.55	60867.97
573.71	61024.79
573.87	60814.14
574.03	60786.05
574.20	60977.98
574.36	60874.99
574.52	61038.83
574.68	60839.89
574.84	61130.11
575.01	61038.83
575.17	60809.46
575.33	60874.99
575.49	60853.93
575.65	61024.79
575.82	61132.45
575.98	60900.74
576.14	60977.98
576.30	61015.43
576.46	60837.54
576.62	61015.43
576.79	61036.49
576.95	60874.99
577.11	61158.20
577.27	60992.02
577.43	61041.17
577.59	60846.91
577.75	60992.02
577.92	60963.93
578.08	61057.56
578.24	61176.92
578.40	61052.87
578.56	61406.30
578.72	60942.87
578.88	61158.20
579.04	61403.95
579.21	61071.60
579.37	61183.94
579.53	61343.10
579.69	60954.57
579.85	61162.88
580.01	61244.80
580.17	61057.56
580.33	61029.47
580.49	61219.05
580.65	61148.84
580.82	61045.85
580.98	60982.66
581.14	61095.00
581.30	61099.68
581.46	61212.03
581.62	61361.82
581.78	61076.28
581.94	61387.57
582.10	61085.64
582.26	61207.35
582.42	61017.77
582.58	61083.30
582.74	61176.92
582.90	61146.50
583.06	61095.00
583.22	61078.62
583.38	61343.10
583.54	61193.31
583.70	61186.28
583.86	61230.75
584.02	60963.93
584.18	61223.73
584.34	61233.10
584.50	61214.37
584.66	61087.98
584.82	60879.67
584.98	61413.32
585.14	61324.38
585.30	61151.18
585.46	61111.39
585.62	61123.09
585.78	61432.04
585.94	61010.74
586.10	61441.40
586.26	61284.59
586.42	61542.05
586.58	61331.40
586.74	61347.78
586.90	61139.47
587.06	61181.60
587.22	61263.52
587.38	61235.44
587.54	61457.79
587.70	61345.44
587.86	61219.05
588.02	61258.84
588.18	61329.06
588.34	61226.07
588.49	61382.89
588.65	61036.49
588.81	61455.45
588.97	61528.00
589.13	61357.14
589.29	61268.20
589.45	61368.85
589.61	61429.70
589.77	61588.86
589.93	61645.03
590.08	61602.90
590.24	61415.66
590.40	61542.05
590.56	61745.67
590.72	61392.25
590.88	61457.79
591.04	61649.71
591.20	61748.01
591.35	61612.26
591.51	61918.87
591.67	61630.99
591.83	61740.99
591.99	61567.79
592.15	61602.90
592.31	61792.48
592.46	61535.02
592.62	61654.39
592.78	61499.92
592.94	61623.96
593.10	61736.31
593.26	61764.40
593.41	61656.73
593.57	61647.37
593.73	61827.59
593.89	61853.34
594.05	61825.25
594.20	61544.39
594.36	61715.25
594.52	61729.29
594.68	61647.37
594.84	61687.16
594.99	61874.40
595.15	61546.73
595.31	61872.06
595.47	61579.49
595.62	61719.93
595.78	61691.84
595.94	61834.61
596.10	62035.90
596.25	61897.81
596.41	61818.23
596.57	61743.33
596.73	61769.08
596.88	61862.70
597.04	61764.40
597.20	61923.55
597.36	61855.68
597.51	61888.45
597.67	61836.95
597.83	61701.20
597.99	61736.31
598.14	61832.27
598.30	61733.97
598.46	61778.44
598.61	61752.69
598.77	61883.76
598.93	61846.32
599.09	61785.46
599.24	61935.26
599.40	62047.60
599.56	61773.76
599.71	61921.21
599.87	62040.58
600.03	61949.30
600.18	61928.23
600.34	61968.02
600.50	61944.62
600.65	62110.80
600.81	61996.11
600.97	62068.67
601.12	62028.88
601.28	61963.34
601.44	61977.39
601.59	62010.15
601.75	61944.62
601.91	62106.12
602.06	61979.73
602.22	62162.29
602.37	62014.83
602.53	61888.45
602.69	62075.69
602.84	61818.23
603.00	61916.53
603.16	62080.37
603.31	61925.89
603.47	62073.35
603.62	61935.26
603.78	62026.54
603.94	61958.66
604.09	62078.03
604.25	62059.30
604.40	61907.17
604.56	62080.37
604.71	62258.25
604.87	61921.21
605.03	61923.55
605.18	62108.46
605.34	61949.30
605.49	61879.08
605.65	62150.59
605.80	62012.49
605.96	62110.80
606.12	62211.44
606.27	62122.50
606.43	61996.11
606.58	62223.14
606.74	61977.39
606.89	61745.67
607.05	61888.45
607.20	61900.15
607.36	61691.84
607.51	61890.79
607.67	61778.44
607.82	61740.99
607.98	61794.82
608.13	61900.15
608.29	61815.89
608.44	61902.49
608.60	61773.76
608.75	61740.99
608.91	61773.76
609.06	61661.41
609.22	61932.92
609.37	61731.63
609.53	61841.63
609.68	61839.29
609.84	61815.89
609.99	61935.26
610.15	61790.14
610.30	61869.72
610.46	61724.61
610.61	61886.10
610.76	61900.15
610.92	61710.56
611.07	61705.88
611.23	61792.48
611.38	61773.76
611.54	61771.42
611.69	61701.20
611.84	61867.38
612.00	61740.99
612.15	61684.82
612.31	61815.89
612.46	61446.08
612.62	61689.50
612.77	61549.07
612.92	61656.73
613.08	61705.88
613.23	61822.91
613.39	61656.73
613.54	61726.95
613.69	61703.54
613.85	61649.71
614.00	61523.32
614.15	61628.65
614.31	61551.41
614.46	61799.50
614.62	61492.89
614.77	61581.84
614.92	61670.78
615.08	61546.73
615.23	61675.46
615.38	61595.88
615.54	61420.34
615.69	61605.24
615.84	61595.88
616.00	61591.20
616.15	61537.36
616.30	61689.50
616.46	61572.47
616.61	61389.91
616.76	61621.62
616.92	61340.76
617.07	61588.86
617.22	61286.93
617.37	61418.00
617.53	61626.31
617.68	61460.13
617.83	61312.67
617.99	61497.58
618.14	61605.24
618.29	61464.81
618.45	61221.39
618.60	61539.71
618.75	61200.33
618.90	61230.75
619.06	61432.04
619.21	61581.84
619.36	61436.72
619.51	61403.95
619.67	61305.65
619.82	61200.33
619.97	61490.55
620.12	61244.80
620.28	61247.14
620.43	61413.32
620.58	61207.35
620.73	61223.73
620.89	61188.63
621.04	61408.64
621.19	61202.67
621.34	61071.60
621.49	61050.53
621.65	61073.94
621.80	61406.30
621.95	61244.80
622.10	60973.30
622.25	60977.98
622.41	61176.92
622.56	61069.26
622.71	61008.40
622.86	60961.59
623.01	60945.21
623.16	61073.94
623.32	60928.83
623.47	61186.28
623.62	60942.87
623.77	60970.96
623.92	61319.70
624.07	61010.74
624.23	61029.47
624.38	61095.00
624.53	60977.98
624.68	60795.42
624.83	60942.87
624.98	61020.11
625.13	60685.41
625.29	60928.83
625.44	60907.76
625.59	60823.50
625.74	60882.02
625.89	60814.14
626.04	60577.75
626.19	60589.45
626.34	60610.51
626.49	60678.39
626.65	60556.68
626.80	60853.93
626.95	60748.60
627.10	60706.47
627.25	60544.98
627.40	60713.50
627.55	60528.59
627.70	60472.42
627.85	60748.60
628.00	60463.06
628.15	60535.62
628.30	60418.59
628.45	60451.36
628.60	60252.41
628.76	60535.62
628.91	60774.35
629.06	60509.87
629.21	60472.42
629.36	60144.75
629.51	60474.76
629.66	60331.99
629.81	60353.05
629.96	60095.60
630.11	60200.92
630.26	60360.08
630.41	60331.99
630.56	60324.97
630.71	60418.59
630.86	60367.10
631.01	60303.90
631.16	60252.41
631.31	60416.25
631.46	60074.53
631.61	60219.64
631.76	60140.07
631.91	60282.84
632.06	60123.68
632.21	60182.19
632.36	60343.69
632.51	59934.10
632.66	60207.94
632.81	60156.45
632.96	60116.66
633.10	59980.91
633.25	60123.68
633.40	60069.85
633.55	60016.02
633.70	59943.46
633.85	59870.90
634.00	60018.36
634.15	59877.93
634.30	59966.87
634.45	60123.68
634.60	60214.96
634.75	60107.30
634.90	59924.74
635.05	59898.99
635.19	59779.62
635.34	59957.50
635.49	59997.29
635.64	59742.17
635.79	59739.83
635.94	59847.50
636.09	59660.26
636.24	59950.48
636.39	59821.75
636.53	60006.65
636.68	59587.70
636.83	59671.96
636.98	59971.55
637.13	59700.04
637.28	59613.44
637.43	59749.20
637.57	59772.60
637.72	59697.70
637.87	59690.68
638.02	59746.86
638.17	59875.58
638.32	59629.83
638.46	59641.53
638.61	59547.91
638.76	59145.34
638.91	59449.61
639.06	59451.95
639.20	59480.03
639.35	59412.16
639.50	59143.00
639.65	59363.01
639.80	59377.05
639.94	59182.79
640.09	59487.06
640.24	59351.30
640.39	59402.80
640.54	59421.52
640.68	59243.64
640.83	59405.14
640.98	59306.83
641.13	59194.49
641.27	59585.36
641.42	59180.45
641.57	58981.50
641.72	59157.04
641.86	59171.08
642.01	59157.04
642.16	59348.96
642.31	58983.84
642.45	59423.86
642.60	59082.14
642.75	59363.01
642.90	59222.58
643.04	59152.36
643.19	59072.78
643.34	59075.12
643.48	59168.74
643.63	59100.87
643.78	59145.34
643.93	59154.70
644.07	58972.14
644.22	58993.20
644.37	58775.53
644.51	58944.05
644.66	59138.32
644.81	58988.52
644.95	59000.22
645.10	59152.36
645.25	59070.44
645.39	58761.49
645.54	58824.68
645.69	58705.32
645.83	58660.85
645.98	58621.06
646.13	58695.95
646.27	59032.99
646.42	58695.95
646.57	58658.51
646.71	58798.94
646.86	58707.66
647.00	58979.16
647.15	58784.90
647.30	58623.40
647.44	58604.67
647.59	58922.99
647.74	58604.67
647.88	58756.81
648.03	58951.07
648.17	58667.87
648.32	58394.03
648.47	58574.25
648.61	58597.65
648.76	58590.63
648.90	58513.39
649.05	58695.95
649.20	58782.55
649.34	58611.70
649.49	58162.31
649.63	58616.38
649.78	58628.08
649.92	58497.01
650.07	58616.38
650.21	58190.40
650.36	58375.30
650.51	58316.79
650.65	58489.99
650.80	58466.58
650.94	58305.09
651.09	58213.80
651.23	57954.00
651.38	58288.70
651.52	58110.82
651.67	58108.48
651.81	58246.57
651.96	57928.26
652.10	58255.93
652.25	58190.40
652.39	58014.86
652.54	57998.48
652.68	58108.48
652.83	58185.72
652.97	57972.73
653.12	57790.17
653.26	57855.70
653.41	58174.02
653.55	58059.33
653.70	57911.88
653.84	58223.17
653.99	58047.63
654.13	58073.37
654.27	57886.13
654.42	57935.28
654.56	57759.74
654.71	57935.28
654.85	57755.06
655.00	58061.67
655.14	58003.16
655.29	57780.81
655.43	57855.70
655.57	57851.02
655.72	57638.03
655.86	57755.06
656.01	57853.36
656.15	57577.18
656.30	57883.79
656.44	57921.24
656.58	57923.58
656.73	58024.22
656.87	57771.44
657.01	57579.52
657.16	57612.29
657.30	57542.07
657.45	57523.35
657.59	57539.73
657.73	57205.03
657.88	57345.47
658.02	57488.24
658.16	57254.18
658.31	57256.53
658.45	57446.11
658.60	57230.78
658.74	57553.77
658.88	57464.83
659.03	57155.88
659.17	57134.82
659.31	57144.18
659.46	56954.60
659.60	57357.17
659.74	57085.67
659.89	57130.14
660.03	56872.68
660.17	57254.18
660.32	57162.90
660.46	56835.23
660.60	56921.83
660.74	56919.49
660.89	56713.52
661.03	56772.03
661.17	56748.63
661.32	56570.75
661.46	56697.14
661.60	56774.37
661.74	56587.13
661.89	56781.40
662.03	56498.19
662.17	56516.92
662.31	56472.45
662.46	56645.65
662.60	56530.96
662.74	56275.84
662.88	56268.82
663.03	56420.95
663.17	56121.37
663.31	56322.65
663.45	56310.95
663.60	56175.20
663.74	55997.32
663.88	55856.88
664.02	56100.30
664.17	56170.52
664.31	55894.33
664.45	55910.72
664.59	56102.64
664.73	55997.32
664.88	55791.35
665.02	55461.33
665.16	55505.80
665.30	55512.83
665.44	55723.47
665.59	55627.51
665.73	55456.65
665.87	55285.79
666.01	55557.30
666.15	55529.21
666.29	55679.00
666.44	55606.45
666.58	55398.14
666.72	55077.49
666.86	55260.05
667.00	55033.02
667.14	54930.03
667.28	55222.60
667.43	54852.80
667.57	55187.49
667.71	54906.63
667.85	54864.50
667.99	54883.22
668.13	54897.27
668.27	54946.42
668.41	54695.98
668.56	54513.42
668.70	54588.31
668.84	54585.97
668.98	54593.00
669.12	54883.22
669.26	54644.49
669.40	54578.95
669.54	54419.80
669.68	54422.14
669.82	53970.41
669.96	54344.90
670.10	54202.13
670.25	54314.47
670.39	54403.41
670.53	54113.19
670.67	53949.35
670.81	54466.61
670.95	54157.66
671.09	53879.13
671.23	53703.59
671.37	53904.88
671.51	53663.80
671.65	53937.65
671.79	53439.11
671.93	53647.42
672.07	53476.56
672.21	53324.43
672.35	53024.84
672.49	53256.55
672.63	53155.91
672.77	52701.84
672.91	53024.84
673.05	52765.04
673.19	52926.53
673.33	52788.44
673.47	52788.44
673.61	52767.38
673.75	52701.84
673.89	52584.82
674.03	52416.30
674.17	52299.27
674.31	52156.50
674.45	51980.96
674.59	51789.03
674.73	52317.99
674.87	51814.78
675.01	51985.64
675.15	51606.47
675.29	51980.96
675.43	51819.46
675.56	51770.31
675.70	51510.51
675.84	51136.02
675.98	50653.87
676.12	51430.93
676.26	51489.45
676.40	51281.14
676.54	51091.55
676.68	51000.27
676.82	50314.50
676.96	50532.17
677.10	50770.90
677.23	50155.34
677.37	50316.84
677.51	50258.32
677.65	49794.90
677.79	49141.89
677.93	49549.14
678.07	49689.57
678.21	49359.56
678.34	49354.88
678.48	49392.33
678.62	48800.17
678.76	48776.76
678.90	48966.35
679.04	49198.06
679.18	48893.79
679.31	48399.94
679.45	48266.53
679.59	48212.70
679.73	48748.68
679.87	48453.77
680.00	47608.84
680.14	47433.30
680.28	47978.64
680.42	47632.24
680.56	47442.66
680.70	47021.36
680.83	47306.91
680.97	47168.82
681.11	47419.25
681.25	47604.16
681.39	47047.11
681.52	46951.15
681.66	46316.86
681.80	46178.77
681.94	46553.26
682.07	46667.94
682.21	45455.54
682.35	45446.18
682.49	45841.73
682.62	45500.01
682.76	45780.88
682.90	45916.63
683.04	45247.24
683.17	45329.16
683.31	44851.69
683.45	44619.97
683.59	44320.38
683.72	44617.63
683.86	44495.92
684.00	44383.58
684.13	44612.95
684.27	43983.35
684.41	44083.99
684.55	44065.27
684.68	44175.27
684.82	44032.50
684.96	43849.94
685.09	43594.82
685.23	43210.97
685.37	43016.71
685.50	43140.75
685.64	42642.22
685.78	42857.55
685.91	42724.14
686.05	42476.04
686.19	41888.57
686.32	41619.41
686.46	41298.75
686.60	41242.58
686.73	40847.03
686.87	41188.75
687.01	41486.00
687.14	40832.99
687.28	40767.45
687.42	40327.43
687.55	40350.84
687.69	41092.79
687.82	40708.94
687.96	39864.00
688.10	39931.88
688.23	40416.37
688.37	39934.22
688.50	39828.90
688.64	39365.47
688.78	39505.90
688.91	38785.02
689.05	38761.61
689.18	38822.47
689.32	38356.70
689.46	38295.85
689.59	38431.60
689.73	37780.93
689.86	38117.96
690.00	37394.74
690.13	38014.98
690.27	38029.02
690.41	38312.23
690.54	37113.87
690.68	37574.96
690.81	36765.14
690.95	37081.11
691.08	36786.20
691.22	36610.66
691.35	36608.32
691.49	36774.50
691.62	36730.03
691.76	36313.41
691.89	35847.64
692.03	35941.27
692.16	35445.07
692.30	35374.86
692.43	35501.25
692.57	35133.78
692.70	35070.59
692.84	34951.22
692.97	35072.93
693.11	34958.24
693.24	34972.28
693.38	34457.37
693.51	34064.16
693.65	33825.42
693.78	33846.49
693.92	34059.48
694.05	33422.85
694.19	33673.29
694.32	33422.85
694.45	33322.21
694.59	33207.52
694.72	32877.51
694.86	32713.67
694.99	32346.20
695.13	32435.14
695.26	32144.92
695.39	31789.16
695.53	31676.81
695.66	31842.99
695.80	31878.10
695.93	31725.96
696.07	31103.38
696.20	31290.62
696.33	30965.29
696.47	30941.88
696.60	31021.46
696.73	30726.55
696.87	31138.49
697.00	30162.48
697.14	30529.95
697.27	30026.73
697.40	30286.53
697.54	30146.10
697.67	29881.62
697.80	29802.04
697.94	29654.59
698.07	29249.67
698.21	29158.39
698.34	29102.22
698.47	28800.29
698.61	28224.52
698.74	28463.25
698.87	28814.34
699.01	27971.74
699.14	28393.04
699.27	28149.62
699.40	27997.49
699.54	27992.81
699.67	27927.27
699.80	27929.61
699.94	27527.04
700.07	28051.32
700.20	27218.09
700.34	26806.16
700.47	27154.90
700.60	26845.94
700.73	26740.62
700.87	26473.80
701.00	26099.31
701.13	26162.51
701.26	25743.55
701.40	26281.88
701.53	25914.41
701.66	26181.23
701.79	26087.61
701.93	24959.47
702.06	25008.62
702.19	25177.14
702.32	25181.82
702.46	24931.39
702.59	24575.62
702.72	24467.96
702.85	24847.13
702.99	24790.95
703.12	24554.56
703.25	24189.44
703.38	24247.95
703.51	23978.79
703.65	23828.99
703.78	23583.24
703.91	23616.01
704.04	23723.67
704.17	23513.02
704.31	23386.63
704.44	23330.46
704.57	23026.19
704.70	23070.66
704.83	22672.77
704.96	22897.46
705.10	22401.27
705.23	22015.08
>>>>>End Processed Spectral Data<<<<<
