SpectraSuite Data File
++++++++++++++++++++++++++++++++++++
Date: Fri Oct 25 11:26:03 EDT 2013
User: price-jones
Dark Spectrum Present: No
Reference Spectrum Present: No
Number of Sampled Component Spectra: 1
Spectrometers: USB2+H05261
Integration Time (usec): 100000 (USB2+H05261)
Spectra Averaged: 1 (USB2+H05261)
Boxcar Smoothing: 0 (USB2+H05261)
Correct for Electrical Dark: No (USB2+H05261)
Strobe/Lamp Enabled: No (USB2+H05261)
Correct for Detector Non-linearity: No (USB2+H05261)
Correct for Stray Light: No (USB2+H05261)
Number of Pixels in Processed Spectrum: 2048
>>>>>Begin Processed Spectral Data<<<<<
365.73	287.89
365.92	287.89
366.12	287.89
366.32	112.35
366.52	72.56
366.72	220.01
366.91	112.35
367.11	138.09
367.31	88.94
367.51	119.37
367.70	131.07
367.90	142.77
368.10	44.47
368.30	180.22
368.49	149.79
368.69	147.45
368.89	182.56
369.09	149.79
369.28	163.84
369.48	212.99
369.68	238.73
369.87	243.42
370.07	187.24
370.27	229.37
370.47	259.80
370.66	550.03
370.86	634.29
371.06	683.44
371.25	805.14
371.45	547.69
371.65	669.39
371.84	692.80
372.04	692.80
372.24	734.93
372.44	648.33
372.63	814.51
372.83	737.27
373.03	727.91
373.22	751.31
373.42	758.33
373.62	763.01
373.81	655.35
374.01	833.23
374.21	837.91
374.40	863.66
374.60	854.30
374.79	844.93
374.99	823.87
375.19	826.21
375.38	821.53
375.58	835.57
375.78	800.46
375.97	901.11
376.17	905.79
376.37	922.17
376.56	889.40
376.76	870.68
376.95	840.25
377.15	823.87
377.35	908.13
377.54	863.66
377.74	908.13
377.93	905.79
378.13	943.24
378.33	929.19
378.52	917.49
378.72	910.47
378.91	940.90
379.11	917.49
379.31	966.64
379.50	882.38
379.70	933.87
379.89	1055.58
380.09	926.85
380.28	976.00
380.48	1071.97
380.68	936.21
380.87	980.68
381.07	1008.77
381.26	1036.86
381.46	938.55
381.65	1046.22
381.85	1104.73
382.04	1006.43
382.24	1034.52
382.43	1011.11
382.63	1057.92
382.83	1025.15
383.02	1060.26
383.22	1062.60
383.41	1132.82
383.61	1076.65
383.80	1186.65
384.00	1174.95
384.19	1102.39
384.39	1128.14
384.58	1170.27
384.78	1196.01
384.97	1233.46
385.17	1188.99
385.36	1149.20
385.56	1186.65
385.75	1153.88
385.95	1172.61
386.14	1149.20
386.34	1228.78
386.53	1181.97
386.72	1214.74
386.92	1242.82
387.11	1228.78
387.31	1224.10
387.50	1233.46
387.70	1284.95
387.89	1308.36
388.09	1343.47
388.28	1397.30
388.48	1282.61
388.67	1284.95
388.86	1383.26
389.06	1308.36
389.25	1280.27
389.45	1418.36
389.64	1331.76
389.84	1322.40
390.03	1420.71
390.22	1366.87
390.42	1390.28
390.61	1345.81
390.81	1418.36
391.00	1383.26
391.19	1406.66
391.39	1341.13
391.58	1434.75
391.78	1409.00
391.97	1451.13
392.16	1472.20
392.36	1547.09
392.55	1500.28
392.75	1465.18
392.94	1467.52
393.13	1526.03
393.33	1430.07
393.52	1598.59
393.71	1554.12
393.91	1572.84
394.10	1724.97
394.29	1671.14
394.49	1600.93
394.68	1593.90
394.88	1598.59
395.07	1617.31
395.26	1696.89
395.46	1643.06
395.65	1741.36
395.84	1769.44
396.04	1717.95
396.23	1755.40
396.42	1699.23
396.62	1785.83
396.81	1741.36
397.00	1781.15
397.19	1769.44
397.39	1764.76
397.58	1839.66
397.77	1935.62
397.97	1858.39
398.16	1865.41
398.35	1895.83
398.55	1891.15
398.74	1886.47
398.93	1842.00
399.12	1806.89
399.32	1834.98
399.51	1923.92
399.70	1912.22
399.90	1952.01
400.09	1933.28
400.28	2111.16
400.47	1956.69
400.67	2022.22
400.86	2155.63
401.05	2094.78
401.24	2125.21
401.44	2148.61
401.63	2092.44
401.82	2155.63
402.01	2150.95
402.21	2188.40
402.40	2251.60
402.59	2176.70
402.78	2221.17
402.97	2188.40
403.17	2235.21
403.36	2242.23
403.55	2223.51
403.74	2345.22
403.93	2267.98
404.13	2347.56
404.32	2335.85
404.51	2293.72
404.70	2422.45
404.89	2387.35
405.09	2349.90
405.28	2478.63
405.47	2459.90
405.66	2459.90
405.85	2495.01
406.05	2487.99
406.24	2544.16
406.43	2551.18
406.62	2583.95
406.81	2780.56
407.00	2609.70
407.20	2665.87
407.39	2567.57
407.58	2616.72
407.77	2689.28
407.96	2780.56
408.15	2590.97
408.34	2705.66
408.54	2881.20
408.73	2836.73
408.92	2820.35
409.11	2920.99
409.30	2848.43
409.49	2960.78
409.68	2967.80
409.87	3023.97
410.07	2991.20
410.26	2909.29
410.45	3007.59
410.64	2979.50
410.83	3066.10
411.02	3061.42
411.21	3197.17
411.40	3084.83
411.59	3255.69
411.78	3166.74
411.98	3164.40
412.17	3258.03
412.36	3297.81
412.55	3337.60
412.74	3300.16
412.93	3510.80
413.12	3379.73
413.31	3618.47
413.50	3471.01
413.69	3527.19
413.88	3569.32
414.07	3492.08
414.26	3623.15
414.45	3676.98
414.64	3695.71
414.83	3831.46
415.02	3899.33
415.22	3770.60
415.41	3796.35
415.60	3749.54
415.79	3878.27
415.98	3971.89
416.17	4063.17
416.36	3934.44
416.55	4018.70
416.74	4131.05
416.93	4081.89
417.12	4086.58
417.31	4081.89
417.50	4152.11
417.69	4266.80
417.88	4285.52
418.07	4318.29
418.26	4166.15
418.45	4266.80
418.64	4442.34
418.83	4315.95
419.02	4346.37
419.21	4383.82
419.39	4489.15
419.58	4395.53
419.77	4414.25
419.96	4531.28
420.15	4550.00
420.34	4615.54
420.53	4683.41
420.72	4573.41
420.91	4727.88
421.10	4758.31
421.29	4863.63
421.48	4697.46
421.67	4706.82
421.86	4922.15
422.05	4793.42
422.24	4690.43
422.43	4711.50
422.61	4802.78
422.80	4873.00
422.99	4978.32
423.18	5076.62
423.37	4983.00
423.56	4814.48
423.75	4905.76
423.94	4882.36
424.13	4678.73
424.32	4805.12
424.50	5048.54
424.69	5135.14
424.88	5055.56
425.07	4891.72
425.26	4997.04
425.45	5144.50
425.64	4917.47
425.83	4889.38
426.01	5067.26
426.20	4980.66
426.39	4971.30
426.58	5060.24
426.77	4983.00
426.96	5233.44
427.15	5116.41
427.33	5291.95
427.52	5149.18
427.71	5310.68
427.90	5310.68
428.09	5284.93
428.28	5399.62
428.46	5259.18
428.65	5348.12
428.84	5430.04
429.03	5511.96
429.22	5259.18
429.40	5474.51
429.59	5481.53
429.78	5266.21
429.97	5135.14
430.16	5453.45
430.34	5624.31
430.53	5605.58
430.72	5650.05
430.91	5586.86
431.10	5654.73
431.28	5715.59
431.47	5860.70
431.66	5851.34
431.85	5699.20
432.03	5769.42
432.22	5912.19
432.41	5886.45
432.60	5914.53
432.79	5928.58
432.97	5963.68
433.16	5923.90
433.35	5825.59
433.54	6125.18
433.72	6251.57
433.91	5973.05
434.10	6197.74
434.28	6162.63
434.47	6150.93
434.66	6211.78
434.85	6366.26
435.03	6258.59
435.22	6333.49
435.41	6464.56
435.59	6258.59
435.78	6389.66
435.97	6373.28
436.16	6352.21
436.34	6490.31
436.53	6520.73
436.72	6637.76
436.90	6342.85
437.09	6502.01
437.28	6483.28
437.46	6572.22
437.65	6424.77
437.84	6843.73
438.02	6672.87
438.21	6789.89
438.40	6766.49
438.58	6986.50
438.77	7080.12
438.96	6841.39
439.14	6991.18
439.33	7026.29
439.52	7075.44
439.70	7215.87
439.89	7332.90
440.08	7295.45
440.26	7316.51
440.45	7204.17
440.63	7377.37
440.82	7875.90
441.01	7506.10
441.19	7531.84
441.38	7681.64
441.57	7637.17
441.75	7644.19
441.94	7894.63
442.12	7894.63
442.31	7929.74
442.50	8030.38
442.68	7887.61
442.87	7941.44
443.05	8060.80
443.24	8236.35
443.43	8074.85
443.61	8056.12
443.80	8238.69
443.98	8102.93
444.17	7705.04
444.35	8098.25
444.54	8355.71
444.73	8196.56
444.91	8201.24
445.10	8131.02
445.28	8198.90
445.47	8454.02
445.65	8299.54
445.84	8315.92
446.02	8493.80
446.21	8299.54
446.39	8156.77
446.58	8388.48
446.77	8659.98
446.95	8285.50
447.14	8355.71
447.32	8533.59
447.51	8311.24
447.69	8503.17
447.88	8578.06
448.06	8327.63
448.25	8571.04
448.43	8575.72
448.62	8362.73
448.80	8681.05
448.99	8765.31
449.17	8475.08
449.36	8524.23
449.54	8769.99
449.73	9095.32
449.91	8896.38
450.10	8898.72
450.28	9144.47
450.46	8835.52
450.65	9160.86
450.83	9165.54
451.02	8844.88
451.20	9153.84
451.39	9071.92
451.57	9153.84
451.76	9109.36
451.94	9277.88
452.13	9336.40
452.31	9259.16
452.49	9146.81
452.68	9378.53
452.86	9298.95
453.05	9261.50
453.23	9376.19
453.42	9415.98
453.60	9404.27
453.78	9467.47
453.97	9181.92
454.15	9476.83
454.34	9305.97
454.52	9551.73
454.70	9661.73
454.89	9661.73
455.07	9694.50
455.26	9975.36
455.44	9832.59
455.62	9738.97
455.81	9832.59
455.99	9874.72
456.17	10015.15
456.36	9734.29
456.54	10141.54
456.73	10314.74
456.91	10389.64
457.09	10204.74
457.28	10319.42
457.46	10403.68
457.64	10520.71
457.83	10281.97
458.01	10232.82
458.19	10574.54
458.38	10487.94
458.56	10565.18
458.74	10810.93
458.93	10668.16
459.11	10904.56
459.29	10569.86
459.48	10740.72
459.66	10679.86
459.84	10738.38
460.03	11021.58
460.21	10967.75
460.39	10951.37
460.57	10916.26
460.76	11136.27
460.94	11012.22
461.12	10993.50
461.31	10892.85
461.49	11154.99
461.67	11321.17
461.85	11325.85
462.04	11080.10
462.22	11822.05
462.40	11569.27
462.59	11508.41
462.77	11255.64
462.95	11407.77
463.13	11463.94
463.32	11609.06
463.50	11765.87
463.68	11726.08
463.86	11763.53
464.05	11707.36
464.23	11597.35
464.41	11861.84
464.59	11625.44
464.78	12100.57
464.96	12070.14
465.14	11838.43
465.32	12056.10
465.50	12210.57
465.69	12020.99
465.87	11992.90
466.05	11936.73
466.23	11992.90
466.41	11990.56
466.60	12521.87
466.78	12196.53
466.96	12217.60
467.14	12093.55
467.32	12517.18
467.51	12428.24
467.69	12128.66
467.87	12301.86
468.05	12428.24
468.23	12318.24
468.41	12297.17
468.60	12772.30
468.78	12769.96
468.96	12592.08
469.14	12456.33
469.32	12809.75
469.50	12521.87
469.69	12842.52
469.87	12999.34
470.05	13111.68
470.23	13078.91
470.41	12966.57
470.59	13294.24
470.77	13078.91
470.95	13114.02
471.14	13275.52
471.32	13259.13
471.50	13556.38
471.68	13638.30
471.86	13460.42
472.04	13472.12
472.22	14087.68
472.40	13563.40
472.58	13745.97
472.77	14012.79
472.95	14312.38
473.13	14401.32
473.31	13799.80
473.49	14143.86
473.67	14230.46
473.85	14235.14
474.03	14448.13
474.21	14469.19
474.39	14630.69
474.57	14618.99
474.75	15023.90
474.93	14649.41
475.12	14820.27
475.30	15197.10
475.48	15229.87
475.66	15400.72
475.84	15077.73
476.02	15157.31
476.20	15190.08
476.38	15620.74
476.56	15946.07
476.74	15847.77
476.92	15929.69
477.10	15602.01
477.28	16173.10
477.46	16123.95
477.64	16226.93
477.82	16629.51
478.00	17013.35
478.18	16737.17
478.36	16908.03
478.54	16964.20
478.72	17436.99
478.90	17408.90
479.08	17500.19
479.26	17862.97
479.44	17575.08
479.62	17624.23
479.80	18195.32
479.98	17841.90
480.16	18272.56
480.34	18340.44
480.52	18298.31
480.70	18359.16
480.88	18317.03
481.06	18675.13
481.24	18881.10
481.41	19124.52
481.59	19396.02
481.77	19204.10
481.95	19365.59
482.13	19454.53
482.31	19824.34
482.49	19999.88
482.67	19978.81
482.85	20383.73
483.03	20737.15
483.21	20769.91
483.39	21027.37
483.57	20790.98
483.74	21085.89
483.92	21263.77
484.10	21041.42
484.28	21486.12
484.46	21631.23
484.64	22153.17
484.82	21956.57
485.00	22300.62
485.18	22487.87
485.35	22871.72
485.53	22398.93
485.71	22955.97
485.89	23164.28
486.07	23021.51
486.25	23297.69
486.43	23367.91
486.61	23559.83
486.78	23969.43
486.96	24079.43
487.14	24114.54
487.32	24456.26
487.50	24903.30
487.68	24875.21
487.85	25245.02
488.03	25383.11
488.21	25811.43
488.39	25844.20
488.57	25635.89
488.75	26244.43
488.92	26462.10
489.10	26869.35
489.28	26497.20
489.46	26918.50
489.64	27138.51
489.81	27592.58
489.99	27278.94
490.17	27941.32
490.35	28336.87
490.53	28177.71
490.70	28114.52
490.88	28533.47
491.06	28753.48
491.24	28636.45
491.41	28992.22
491.59	28835.40
491.77	29076.48
491.95	29495.43
492.13	29703.74
492.30	29879.28
492.48	30024.39
492.66	29935.45
492.84	30206.95
493.01	30504.20
493.19	30471.43
493.37	30433.99
493.54	31143.17
493.72	31599.57
493.90	31234.45
494.08	31749.37
494.25	32041.93
494.43	31887.46
494.61	32091.09
494.79	32320.46
494.96	32222.16
495.14	32224.50
495.32	32961.76
495.49	33104.54
495.67	33237.95
495.85	33404.13
496.02	34017.35
496.20	34235.02
496.38	34190.55
496.55	33820.74
496.73	34682.06
496.91	34494.82
497.09	35030.80
497.26	34649.29
497.44	34618.86
497.62	35150.17
497.79	35564.44
497.97	35337.41
498.14	35852.33
498.32	35714.23
498.50	36130.85
498.67	36570.87
498.85	36746.41
499.03	36584.91
499.20	36400.01
499.38	36896.20
499.56	36741.73
499.73	37046.00
499.91	37043.66
500.08	37464.96
500.26	37263.67
500.44	37614.75
500.61	38003.28
500.79	37724.75
500.97	38017.32
501.14	38513.52
501.32	38478.41
501.49	38384.79
501.67	38356.70
501.84	38883.32
502.02	38831.83
502.20	38752.25
502.37	39072.90
502.55	39477.82
502.72	39243.76
502.90	39522.29
503.07	39264.83
503.25	39882.73
503.43	39519.95
503.60	39796.13
503.78	39981.03
503.95	39999.76
504.13	40128.48
504.30	40301.68
504.48	40081.67
504.65	40507.65
504.83	41038.95
505.01	40847.03
505.18	40821.28
505.36	41701.32
505.53	40687.87
505.71	41612.38
505.88	41729.41
506.06	41060.02
506.23	41731.75
506.41	41930.70
506.58	41928.36
506.76	41923.68
506.93	41958.78
507.11	42162.41
507.28	42792.01
507.46	42635.20
507.63	42768.61
507.81	42792.01
507.98	42878.61
508.16	43044.79
508.33	43199.27
508.50	43353.74
508.68	42906.70
508.85	43751.63
509.03	43449.70
509.20	43435.66
509.38	44261.87
509.55	44023.14
509.73	44535.71
509.90	44210.38
510.08	44509.97
510.25	44472.52
510.42	44924.24
510.60	45083.40
510.77	44868.07
510.95	45242.56
511.12	44933.60
511.30	45170.00
511.47	45095.10
511.64	45193.40
511.82	45734.07
511.99	45827.69
512.17	45986.85
512.34	45940.04
512.51	46934.76
512.69	46387.08
512.86	46082.81
513.04	46302.82
513.21	46328.56
513.38	46698.37
513.56	46543.89
513.73	46550.91
513.90	47180.52
514.08	46642.20
514.25	46962.85
514.43	47395.85
514.60	47000.30
514.77	47433.30
514.95	47543.30
515.12	47487.13
515.29	47601.82
515.47	47632.24
515.64	47927.15
515.81	47753.95
515.99	48198.65
516.16	48158.86
516.33	48090.99
516.51	48704.21
516.68	48528.67
516.85	48575.48
517.03	48708.89
517.20	48495.90
517.37	48959.33
517.54	48573.14
517.72	48744.00
517.89	49188.70
518.06	49181.68
518.24	49174.66
518.41	49287.00
518.58	49497.65
518.75	49029.54
518.93	49048.27
519.10	49017.84
519.27	49631.06
519.45	49240.19
519.62	49944.69
519.79	49925.97
519.96	50073.42
520.14	50274.71
520.31	49666.17
520.48	50326.20
520.65	50040.65
520.83	50412.80
521.00	50295.77
521.17	50595.36
521.34	50475.99
521.52	50873.88
521.69	50869.20
521.86	50712.39
522.03	50869.20
522.20	51082.19
522.38	51402.85
522.55	51290.50
522.72	51201.56
522.89	51026.02
523.07	51480.08
523.24	51470.72
523.41	51629.88
523.58	51250.71
523.75	51760.95
523.92	51585.41
524.10	51791.37
524.27	51583.07
524.44	51646.26
524.61	51971.60
524.78	52097.98
524.96	51973.94
525.13	52009.04
525.30	52189.27
525.47	52528.64
525.64	52430.34
525.81	52596.52
525.98	52715.89
526.16	52273.52
526.33	52832.91
526.50	52765.04
526.67	52676.10
526.84	52926.53
527.01	52734.61
527.18	52877.38
527.36	52708.86
527.53	52868.02
527.70	52935.90
527.87	53338.47
528.04	53057.60
528.21	53233.14
528.38	53162.93
528.55	53427.41
528.72	53380.60
528.89	53352.51
529.07	53256.55
529.24	53396.98
529.41	53530.39
529.58	53549.12
529.75	53556.14
529.92	53731.68
530.09	53715.29
530.26	53975.09
530.43	54031.27
530.60	53991.48
530.77	53968.07
530.94	53982.12
531.11	53815.94
531.28	54024.25
531.46	54092.12
531.63	54234.89
531.80	54185.74
531.97	54237.23
532.14	54663.21
532.31	54162.34
532.48	54164.68
532.65	54571.93
532.82	54274.68
532.99	54557.89
533.16	54466.61
533.33	54805.98
533.50	54962.80
533.67	54710.02
533.84	54534.48
534.01	54756.83
534.18	54590.66
534.35	55110.25
534.52	54791.94
534.69	54990.89
534.86	55187.49
535.03	55189.83
535.20	54951.10
535.37	55276.43
535.54	55363.03
535.71	54988.55
535.88	55491.76
536.05	55234.30
536.22	55498.78
536.38	55421.55
536.55	55655.60
536.72	55583.04
536.89	55379.42
537.06	55566.66
537.23	55721.13
537.40	55409.84
537.57	55409.84
537.74	55779.65
537.91	55941.14
538.08	55845.18
538.25	55716.45
538.42	55840.50
538.59	55992.64
538.75	55585.38
538.92	55910.72
539.09	56025.40
539.26	56193.92
539.43	55856.88
539.60	55964.55
539.77	56060.51
539.94	56430.32
540.11	56168.18
540.28	56175.20
540.44	56088.60
540.61	56369.46
540.78	56332.01
540.95	56306.27
541.12	56259.46
541.29	56376.48
541.46	56186.90
541.62	56306.27
541.79	56587.13
541.96	56313.29
542.13	56509.89
542.30	56575.43
542.47	56699.48
542.63	56701.82
542.80	56655.01
542.97	56900.76
543.14	57088.01
543.31	56924.17
543.48	57228.44
543.64	57158.22
543.81	57219.08
543.98	57251.84
544.15	57380.57
544.32	57237.80
544.48	57539.73
544.65	57249.50
544.82	57270.57
544.99	56989.70
545.16	57392.28
545.32	57151.20
545.49	57432.07
545.66	57513.98
545.83	57462.49
546.00	57574.84
546.16	57633.35
546.33	57626.33
546.50	57371.21
546.67	57689.52
546.83	57385.25
547.00	57614.63
547.17	57858.04
547.34	57801.87
547.50	57820.59
547.67	58031.24
547.84	57855.70
548.00	58099.12
548.17	58026.56
548.34	57867.40
548.51	58277.00
548.67	58209.12
548.84	58014.86
549.01	58124.86
549.18	57996.13
549.34	58307.43
549.51	58389.34
549.68	58199.76
549.84	58391.68
550.01	58316.79
550.18	58096.78
550.34	58323.81
550.51	58321.47
550.68	58440.84
550.84	58019.54
551.01	58433.81
551.18	58497.01
551.34	58274.66
551.51	58707.66
551.68	58305.09
551.84	58576.59
552.01	58464.24
552.18	58398.71
552.34	58330.83
552.51	58745.11
552.68	58473.60
552.84	58592.97
553.01	58824.68
553.18	58639.78
553.34	58787.24
553.51	58471.26
553.67	58775.53
553.84	58749.79
554.01	58681.91
554.17	58857.45
554.34	58845.75
554.51	59061.08
554.67	58873.84
554.84	58915.96
555.00	59114.91
555.17	59157.04
555.33	58773.19
555.50	58604.67
555.67	59032.99
555.83	58852.77
556.00	58983.84
556.16	59220.23
556.33	58941.71
556.50	58976.82
556.66	59337.26
556.83	59238.96
556.99	59412.16
557.16	59330.24
557.32	59180.45
557.49	59653.23
557.65	59313.86
557.82	59213.21
557.98	59370.03
558.15	59442.59
558.32	59393.43
558.48	59143.00
558.65	59632.17
558.81	59400.46
558.98	59407.48
559.14	59456.63
559.31	59583.02
559.47	59547.91
559.64	59646.21
559.80	59604.08
559.97	59496.42
560.13	59536.21
560.30	59449.61
560.46	59838.14
560.63	59678.98
560.79	59573.66
560.96	59753.88
561.12	59866.22
561.29	59536.21
561.45	59632.17
561.61	59667.28
561.78	59753.88
561.94	59620.47
562.11	59725.79
562.27	59917.71
562.44	59784.30
562.60	59908.35
562.77	59800.69
562.93	59781.96
563.10	60090.91
563.26	60041.76
563.42	60037.08
563.59	59882.61
563.75	60034.74
563.92	59903.67
564.08	59833.46
564.24	60142.41
564.41	60137.72
564.57	60144.75
564.74	60214.96
564.90	60011.34
565.07	60102.62
565.23	60107.30
565.39	59873.24
565.56	60126.02
565.72	60196.24
565.88	59990.27
566.05	60025.38
566.21	59870.90
566.38	60177.51
566.54	60289.86
566.70	60184.54
566.87	60374.12
567.03	59997.29
567.19	60484.12
567.36	60135.38
567.52	60205.60
567.68	60500.51
567.85	60245.39
568.01	60231.35
568.17	60271.14
568.34	60409.23
568.50	60254.75
568.66	60186.88
568.83	60430.29
568.99	60184.54
569.15	60350.71
569.32	60130.70
569.48	60219.64
569.64	60453.70
569.81	60156.45
569.97	60374.12
570.13	60329.65
570.30	60104.96
570.46	60533.28
570.62	60451.36
570.78	60502.85
570.95	60362.42
571.11	60467.74
571.27	60411.57
571.43	60418.59
571.60	60556.68
571.76	60402.21
571.92	60608.17
572.09	60512.21
572.25	60413.91
572.41	60645.62
572.57	60434.97
572.74	60697.11
572.90	60596.47
573.06	60507.53
573.22	60491.15
573.38	60505.19
573.55	60643.28
573.71	60779.03
573.87	60678.39
574.03	60498.17
574.20	60622.22
574.36	60542.64
574.52	60886.70
574.68	60561.36
574.84	60449.02
575.01	60697.11
575.17	60629.24
575.33	60411.57
575.49	60547.32
575.65	60544.98
575.82	60973.30
575.98	60673.71
576.14	60893.72
576.30	60633.92
576.46	60486.46
576.62	60638.60
576.79	60657.32
576.95	60636.26
577.11	60636.26
577.27	60814.14
577.43	60666.69
577.59	60559.02
577.75	60439.65
577.92	60603.49
578.08	60573.06
578.24	60615.19
578.40	60849.25
578.56	60898.40
578.72	60760.31
578.88	60886.70
579.04	60818.82
579.21	60757.97
579.37	61003.72
579.53	60823.50
579.69	60755.63
579.85	60708.82
580.01	60727.54
580.17	60729.88
580.33	60673.71
580.49	60776.69
580.65	61036.49
580.82	60842.23
580.98	60687.75
581.14	60701.79
581.30	61001.38
581.46	61099.68
581.62	60884.36
581.78	60624.56
581.94	60718.18
582.10	60825.84
582.26	60846.91
582.42	60931.17
582.58	60697.11
582.74	60706.47
582.90	60828.18
583.06	60837.54
583.22	60591.79
583.38	60643.28
583.54	60786.05
583.70	60767.33
583.86	61097.34
584.02	60687.75
584.18	60917.12
584.34	61073.94
584.50	61010.74
584.66	60795.42
584.82	60708.82
584.98	61036.49
585.14	60963.93
585.30	60626.90
585.46	60928.83
585.62	60781.37
585.78	61010.74
585.94	60708.82
586.10	60842.23
586.26	60764.99
586.42	61078.62
586.58	61041.17
586.74	61015.43
586.90	60900.74
587.06	60853.93
587.22	61020.11
587.38	60975.64
587.54	60938.19
587.70	61174.58
587.86	60945.21
588.02	60896.06
588.18	61092.66
588.34	61027.13
588.49	61125.43
588.65	60919.46
588.81	61127.77
588.97	61104.37
589.13	61029.47
589.29	61144.16
589.45	61153.52
589.61	61102.03
589.77	61233.10
589.93	61090.32
590.08	61109.05
590.24	61303.31
590.40	61410.98
590.56	61254.16
590.72	61235.44
590.88	61272.88
591.04	61190.97
591.20	61298.63
591.35	61247.14
591.51	61670.78
591.67	61378.21
591.83	61544.39
591.99	61366.51
592.15	61048.19
592.31	61357.14
592.46	61216.71
592.62	61338.42
592.78	61373.53
592.94	61488.21
593.10	61347.78
593.26	61141.81
593.41	61291.61
593.57	61549.07
593.73	61392.25
593.89	61696.52
594.05	61504.60
594.20	61296.29
594.36	61544.39
594.52	61434.38
594.68	61338.42
594.84	61350.12
594.99	61537.36
595.15	61467.15
595.31	61385.23
595.47	61523.32
595.62	61286.93
595.78	61509.28
595.94	61502.26
596.10	61666.09
596.25	61532.68
596.41	61537.36
596.57	61516.30
596.73	61670.78
596.88	61481.19
597.04	61399.27
597.20	61499.92
597.36	61535.02
597.51	61661.41
597.67	61425.02
597.83	61403.95
597.99	61673.12
598.14	61506.94
598.30	61659.07
598.46	61619.28
598.61	61567.79
598.77	61574.81
598.93	61647.37
599.09	61759.72
599.24	61804.19
599.40	61792.48
599.56	61626.31
599.71	61682.48
599.87	61738.65
600.03	61853.34
600.18	61605.24
600.34	61673.12
600.50	61712.91
600.65	61574.81
600.81	61783.12
600.97	61755.03
601.12	61647.37
601.28	61694.18
601.44	61504.60
601.59	61502.26
601.75	61703.54
601.91	61811.21
602.06	61457.79
602.22	61829.93
602.37	61787.80
602.53	61677.80
602.69	61577.15
602.84	61528.00
603.00	61797.16
603.16	61684.82
603.31	61666.09
603.47	61703.54
603.62	61649.71
603.78	61588.86
603.94	61511.62
604.09	61797.16
604.25	61712.91
604.40	61663.75
604.56	61689.50
604.71	61698.86
604.87	61565.45
605.03	61710.56
605.18	61820.57
605.34	61696.52
605.49	61553.75
605.65	61769.08
605.80	61712.91
605.96	61755.03
606.12	61666.09
606.27	61705.88
606.43	61607.58
606.58	61918.87
606.74	61462.47
606.89	61652.05
607.05	61647.37
607.20	61832.27
607.36	61427.36
607.51	61642.69
607.67	61394.59
607.82	61586.52
607.98	61441.40
608.13	61616.94
608.29	61668.44
608.44	61862.70
608.60	61551.41
608.75	61612.26
608.91	61673.12
609.06	61228.41
609.22	61670.78
609.37	61469.49
609.53	61481.19
609.68	61516.30
609.84	61345.44
609.99	61560.77
610.15	61607.58
610.30	61588.86
610.46	61455.45
610.61	61654.39
610.76	61551.41
610.92	61504.60
611.07	61427.36
611.23	61439.06
611.38	61609.92
611.54	61312.67
611.69	61429.70
611.84	61420.34
612.00	61418.00
612.15	61439.06
612.31	61392.25
612.46	61366.51
612.62	61530.34
612.77	61401.61
612.92	61600.56
613.08	61408.64
613.23	61520.98
613.39	61305.65
613.54	61214.37
613.69	61261.18
613.85	61247.14
614.00	61612.26
614.15	61516.30
614.31	61453.11
614.46	61209.69
614.62	61270.54
614.77	61380.55
614.92	61214.37
615.08	61169.90
615.23	61403.95
615.38	61305.65
615.54	61298.63
615.69	61300.97
615.84	61375.87
616.00	61441.40
616.15	61282.25
616.30	61410.98
616.46	61197.99
616.61	61020.11
616.76	61193.31
616.92	61169.90
617.07	61083.30
617.22	61242.46
617.37	61087.98
617.53	61478.85
617.68	61219.05
617.83	61069.26
617.99	61329.06
618.14	61193.31
618.29	61174.58
618.45	60947.55
618.60	61151.18
618.75	60844.57
618.90	61176.92
619.06	61352.46
619.21	61127.77
619.36	61188.63
619.51	61146.50
619.67	61078.62
619.82	60835.20
619.97	61237.78
620.12	61001.38
620.28	60844.57
620.43	60893.72
620.58	60987.34
620.73	60858.61
620.89	60961.59
621.04	61003.72
621.19	60870.31
621.34	60928.83
621.49	60776.69
621.65	61015.43
621.80	60924.14
621.95	60886.70
622.10	60706.47
622.25	61279.91
622.41	60786.05
622.56	60715.84
622.71	60865.63
622.86	60526.25
623.01	60654.98
623.16	60645.62
623.32	60783.71
623.47	60821.16
623.62	60800.10
623.77	60732.22
623.92	61015.43
624.07	60849.25
624.23	60760.31
624.38	60533.28
624.53	60530.93
624.68	60434.97
624.83	60643.28
624.98	60828.18
625.13	60362.42
625.29	60488.80
625.44	60720.52
625.59	60582.43
625.74	60456.04
625.89	60474.76
626.04	60224.32
626.19	60514.55
626.34	60257.09
626.49	60346.03
626.65	60111.98
626.80	60282.84
626.95	60385.82
627.10	60177.51
627.25	60032.40
627.40	60346.03
627.55	60243.05
627.70	60430.29
627.85	60097.94
628.00	60189.22
628.15	60430.29
628.30	60147.09
628.45	60264.11
628.60	60271.14
628.76	60243.05
628.91	60278.16
629.06	60093.25
629.21	60196.24
629.36	59969.21
629.51	60041.76
629.66	60205.60
629.81	59924.74
629.96	59917.71
630.11	59945.80
630.26	60128.36
630.41	60095.60
630.56	59924.74
630.71	59969.21
630.86	59948.14
631.01	59910.69
631.16	60048.78
631.31	59880.27
631.46	59814.73
631.61	59597.06
631.76	59835.80
631.91	59992.61
632.06	59945.80
632.21	59817.07
632.36	59796.01
632.51	59707.07
632.66	59831.11
632.81	59601.74
632.96	59653.23
633.10	59697.70
633.25	59826.43
633.40	59819.41
633.55	59751.54
633.70	59751.54
633.85	59590.04
634.00	59550.25
634.15	59639.19
634.30	59618.13
634.45	59751.54
634.60	59819.41
634.75	59578.34
634.90	59524.50
635.05	59655.57
635.19	59409.82
635.34	59746.86
635.49	59590.04
635.64	59484.72
635.79	59660.26
635.94	59377.05
636.09	59334.92
636.24	59372.37
636.39	59423.86
636.53	59449.61
636.68	59370.03
636.83	59515.14
636.98	59721.11
637.13	59402.80
637.28	59629.83
637.43	59611.10
637.57	59405.14
637.72	59386.41
637.87	59477.69
638.02	59299.81
638.17	59358.33
638.32	59260.02
638.46	59360.67
638.61	59463.65
638.76	59096.19
638.91	59166.40
639.06	58993.20
639.20	59234.28
639.35	59054.06
639.50	58986.18
639.65	59206.19
639.80	59241.30
639.94	59248.32
640.09	59253.00
640.24	58944.05
640.39	59168.74
640.54	58960.44
640.68	59016.61
640.83	58937.03
640.98	58918.31
641.13	58801.28
641.27	59365.35
641.42	58883.20
641.57	58869.15
641.72	58841.07
641.86	58852.77
642.01	58497.01
642.16	58831.71
642.31	58693.61
642.45	59077.46
642.60	58534.46
642.75	59040.01
642.90	58831.71
643.04	58822.34
643.19	58644.46
643.34	58820.00
643.48	58890.22
643.63	58653.82
643.78	58733.40
643.93	58979.16
644.07	58646.80
644.22	58529.78
644.37	58241.89
644.51	58665.53
644.66	58688.93
644.81	58789.58
644.95	58712.34
645.10	58497.01
645.25	58475.94
645.39	58457.22
645.54	58497.01
645.69	58370.62
645.83	58660.85
645.98	58569.57
646.13	58305.09
646.27	58506.37
646.42	58342.53
646.57	58506.37
646.71	58326.15
646.86	58401.05
647.00	58489.99
647.15	58330.83
647.30	58213.80
647.44	58494.67
647.59	58403.39
647.74	58520.41
647.88	58497.01
648.03	58508.71
648.17	58560.20
648.32	58330.83
648.47	58279.34
648.61	58274.66
648.76	58253.59
648.90	58220.83
649.05	58117.84
649.20	58298.06
649.34	58094.44
649.49	58162.31
649.63	58398.71
649.78	58358.92
649.92	58134.23
650.07	58356.58
650.21	58131.89
650.36	58005.50
650.51	57923.58
650.65	58232.53
650.80	58094.44
650.94	57890.81
651.09	57895.49
651.23	57640.37
651.38	58085.07
651.52	57663.78
651.67	57827.62
651.81	57799.53
651.96	57977.41
652.10	57862.72
652.25	57848.68
652.39	57825.28
652.54	57544.41
652.68	57680.16
652.83	57605.26
652.97	57815.91
653.12	57661.44
653.26	57663.78
653.41	57773.78
653.55	57614.63
653.70	57687.18
653.84	57694.21
653.99	57495.26
654.13	57532.71
654.27	57448.45
654.42	57591.22
654.56	57385.25
654.71	57675.48
654.85	57832.30
655.00	57647.39
655.14	57649.74
655.29	57418.02
655.43	57513.98
655.57	57485.90
655.72	57584.20
655.86	57710.59
656.01	57420.36
656.15	57420.36
656.30	57581.86
656.44	57712.93
656.58	57476.54
656.73	57425.04
656.87	57357.17
657.01	57190.99
657.16	57460.15
657.30	57352.49
657.45	57193.33
657.59	57158.22
657.73	56790.76
657.88	57055.24
658.02	57251.84
658.16	57102.05
658.31	57041.20
658.45	56956.94
658.60	57088.01
658.74	56935.87
658.88	56963.96
659.03	57034.17
659.17	56931.19
659.31	56947.57
659.46	57188.65
659.60	56886.72
659.74	56891.40
659.89	56786.08
660.03	56694.80
660.17	56816.50
660.32	56655.01
660.46	56659.69
660.60	56853.95
660.74	57118.43
660.89	56860.97
661.03	56388.19
661.17	56413.93
661.32	56226.69
661.46	56423.29
661.60	56392.87
661.74	56154.13
661.89	56200.94
662.03	56051.15
662.17	56191.58
662.31	56104.98
662.46	56680.75
662.60	56032.42
662.74	56032.42
662.88	56231.37
663.03	55887.31
663.17	56062.85
663.31	55838.16
663.45	55800.71
663.60	55852.20
663.74	55653.26
663.88	55618.15
664.02	55641.56
664.17	55742.20
664.31	55412.18
664.45	55552.62
664.59	55552.62
664.73	55702.41
664.88	55676.66
665.02	55168.77
665.16	55283.45
665.30	55292.82
665.44	55374.73
665.59	55091.53
665.73	55199.19
665.87	55227.28
666.01	55285.79
666.15	55262.39
666.29	55040.04
666.44	55480.06
666.58	54742.79
666.72	54834.07
666.86	54663.21
667.00	54850.45
667.14	54770.88
667.28	54578.95
667.43	54546.18
667.57	54700.66
667.71	54763.85
667.85	54658.53
667.99	54583.63
668.13	54497.03
668.27	54286.39
668.41	54138.93
668.56	53752.74
668.70	54326.17
668.84	53996.16
668.98	53963.39
669.12	54068.72
669.26	54206.81
669.40	54071.06
669.54	54363.62
669.68	54071.06
669.82	53633.38
669.96	53841.68
670.10	53834.66
670.25	54068.72
670.39	53794.87
670.53	53752.74
670.67	53804.24
670.81	54138.93
670.95	53521.03
671.09	53551.46
671.23	53422.73
671.37	53495.28
671.51	53352.51
671.65	53233.14
671.79	53305.70
671.93	53010.79
672.07	53577.20
672.21	53202.72
672.35	52952.28
672.49	52795.46
672.63	52388.21
672.77	52781.42
672.91	52575.45
673.05	52545.03
673.19	52334.38
673.33	52341.40
673.47	52261.82
673.61	52856.32
673.75	52069.90
673.89	51571.36
674.03	52102.67
674.17	51494.13
674.31	51835.84
674.45	51524.55
674.59	51739.88
674.73	51672.01
674.87	51725.84
675.01	51281.14
675.15	51269.43
675.29	51360.72
675.43	51587.75
675.56	51047.08
675.70	51019.00
675.84	51217.94
675.98	49792.56
676.12	50728.77
676.26	50600.04
676.40	50789.62
676.54	50574.30
676.68	50843.46
676.82	49694.25
676.96	50506.42
677.10	49617.02
677.23	49731.70
677.37	49834.69
677.51	49895.54
677.65	49371.26
677.79	48516.96
677.93	48870.39
678.07	48917.20
678.21	49048.27
678.34	48523.99
678.48	48893.79
678.62	48776.76
678.76	48306.32
678.90	48339.08
679.04	48566.12
679.18	48418.66
679.31	47667.35
679.45	47835.87
679.59	47861.61
679.73	47760.97
679.87	47665.01
680.00	47391.17
680.14	47072.85
680.28	47363.08
680.42	46705.39
680.56	46976.89
680.70	46747.52
680.83	46686.67
680.97	46831.78
681.11	46574.32
681.25	46518.15
681.39	46440.91
681.52	46164.73
681.66	46244.30
681.80	45743.43
681.94	45853.44
682.07	45757.47
682.21	45099.78
682.35	45280.00
682.49	45682.58
682.62	45132.55
682.76	45270.64
682.90	45050.63
683.04	44858.71
683.17	44879.77
683.31	44107.40
683.45	44177.61
683.59	44051.22
683.72	43833.55
683.86	43861.64
684.00	43845.26
684.13	44023.14
684.27	43466.09
684.41	43859.30
684.55	43800.79
684.68	43084.58
684.82	43196.93
684.96	42480.72
685.09	43220.33
685.23	42094.53
685.37	42792.01
685.50	42265.39
685.64	42059.43
685.78	42141.35
685.91	41949.42
686.05	41668.56
686.19	41280.03
686.32	41036.61
686.46	40694.89
686.60	40973.42
686.73	40575.53
686.87	40552.12
687.01	40870.43
687.14	40786.18
687.28	40549.78
687.42	40133.17
687.55	39866.34
687.69	40252.53
687.82	39391.22
687.96	39576.12
688.10	39250.78
688.23	39267.17
688.37	39517.60
688.50	38632.88
688.64	39098.65
688.78	38651.61
688.91	38581.39
689.05	38885.66
689.18	38651.61
689.32	37586.66
689.46	37879.23
689.59	37338.57
689.73	37638.15
689.86	37305.80
690.00	37289.42
690.13	36989.83
690.27	37284.73
690.41	37361.97
690.54	36769.82
690.68	36893.86
690.81	36748.75
690.95	36519.38
691.08	36077.02
691.22	35793.81
691.35	35828.92
691.49	35910.84
691.62	35660.40
691.76	35522.31
691.89	35510.61
692.03	35498.91
692.16	35283.58
692.30	35033.14
692.43	35206.34
692.57	34588.44
692.70	34539.29
692.84	34436.30
692.97	34216.29
693.11	34361.40
693.24	34197.57
693.38	33757.55
693.51	33670.95
693.65	33600.73
693.78	33436.89
693.92	33802.02
694.05	33387.74
694.19	33034.32
694.32	32964.10
694.45	32617.71
694.59	32004.49
694.72	32580.26
694.86	32215.13
694.99	32154.28
695.13	32002.14
695.26	31948.31
695.39	31412.33
695.53	32051.30
695.66	31737.66
695.80	31182.96
695.93	31056.57
696.07	30684.42
696.20	30754.64
696.33	30448.03
696.47	30756.98
696.60	30562.72
696.73	30078.22
696.87	30225.68
697.00	30143.76
697.14	30253.76
697.27	29771.61
697.40	29656.93
697.54	29823.11
697.67	29549.26
697.80	29572.67
697.94	29303.51
698.07	28954.77
698.21	28610.71
698.34	29041.37
698.47	28622.41
698.61	28678.58
698.74	28570.92
698.87	28627.09
699.01	27864.08
699.14	28294.74
699.27	27721.30
699.40	28383.68
699.54	27686.20
699.67	27630.02
699.80	27578.53
699.94	27098.72
700.07	27213.41
700.20	27147.87
700.34	26913.82
700.47	26286.56
700.60	26778.07
700.73	26621.25
700.87	25977.61
701.00	25820.79
701.13	25717.81
701.26	25628.87
701.40	25926.11
701.53	25710.78
701.66	25933.14
701.79	25369.07
701.93	24882.24
702.06	24594.35
702.19	24886.92
702.32	24989.90
702.46	24896.28
702.59	24315.83
702.72	24170.71
702.85	24238.59
702.99	24322.85
703.12	24229.23
703.25	23637.07
703.38	23751.76
703.51	23578.56
703.65	23616.01
703.78	23522.38
703.91	23091.73
704.04	23302.37
704.17	23452.17
704.31	22944.27
704.44	23227.48
704.57	22721.92
704.70	22682.13
704.83	22396.59
704.96	22225.73
705.10	22073.59
705.23	22382.54
>>>>>End Processed Spectral Data<<<<<
