SpectraSuite Data File
++++++++++++++++++++++++++++++++++++
Date: Fri Oct 25 11:23:59 EDT 2013
User: price-jones
Dark Spectrum Present: No
Reference Spectrum Present: No
Number of Sampled Component Spectra: 1
Spectrometers: USB2+H05261
Integration Time (usec): 100000 (USB2+H05261)
Spectra Averaged: 1 (USB2+H05261)
Boxcar Smoothing: 0 (USB2+H05261)
Correct for Electrical Dark: No (USB2+H05261)
Strobe/Lamp Enabled: No (USB2+H05261)
Correct for Detector Non-linearity: No (USB2+H05261)
Correct for Stray Light: No (USB2+H05261)
Number of Pixels in Processed Spectrum: 2048
>>>>>Begin Processed Spectral Data<<<<<
365.73	271.50
365.92	271.50
366.12	271.50
366.32	163.84
366.52	93.62
366.72	105.32
366.91	117.03
367.11	93.62
367.31	194.26
367.51	203.63
367.70	203.63
367.90	170.86
368.10	131.07
368.30	196.60
368.49	142.77
368.69	138.09
368.89	159.16
369.09	135.75
369.28	135.75
369.48	145.11
369.68	175.54
369.87	114.69
370.07	196.60
370.27	224.69
370.47	273.84
370.66	608.54
370.86	592.16
371.06	617.90
371.25	716.20
371.45	650.67
371.65	699.82
371.84	702.16
372.04	720.88
372.24	681.10
372.44	692.80
372.63	641.31
372.83	746.63
373.03	835.57
373.22	767.70
373.42	753.65
373.62	774.72
373.81	840.25
374.01	798.12
374.21	840.25
374.40	779.40
374.60	800.46
374.79	772.38
374.99	791.10
375.19	873.02
375.38	833.23
375.58	908.13
375.78	856.64
375.97	833.23
376.17	936.21
376.37	851.96
376.56	880.04
376.76	800.46
376.95	847.27
377.15	891.74
377.35	922.17
377.54	919.83
377.74	943.24
377.93	837.91
378.13	926.85
378.33	929.19
378.52	968.98
378.72	922.17
378.91	933.87
379.11	940.90
379.31	917.49
379.50	931.53
379.70	999.41
379.89	910.47
380.09	933.87
380.28	1032.18
380.48	987.71
380.68	947.92
380.87	976.00
381.07	994.73
381.26	1074.31
381.46	961.96
381.65	997.07
381.85	1001.75
382.04	1130.48
382.24	1032.18
382.43	990.05
382.63	978.34
382.83	1118.78
383.02	1111.75
383.22	1179.63
383.41	1102.39
383.61	1071.97
383.80	1125.80
384.00	1114.10
384.19	1111.75
384.39	1170.27
384.58	1226.44
384.78	1146.86
384.97	1144.52
385.17	1172.61
385.36	1116.44
385.56	1123.46
385.75	1170.27
385.95	1224.10
386.14	1210.06
386.34	1191.33
386.53	1294.32
386.72	1224.10
386.92	1336.45
387.11	1235.80
387.31	1275.59
387.50	1200.69
387.70	1198.35
387.89	1228.78
388.09	1280.27
388.28	1334.11
388.48	1263.89
388.67	1303.68
388.86	1359.85
389.06	1364.53
389.25	1310.70
389.45	1359.85
389.64	1313.04
389.84	1380.92
390.03	1371.55
390.22	1397.30
390.42	1357.51
390.61	1427.73
390.81	1483.90
391.00	1275.59
391.19	1441.77
391.39	1488.58
391.58	1530.71
391.78	1406.66
391.97	1465.18
392.16	1476.88
392.36	1600.93
392.55	1497.94
392.75	1598.59
392.94	1612.63
393.13	1516.67
393.33	1547.09
393.52	1554.12
393.71	1563.48
393.91	1565.82
394.10	1549.43
394.29	1612.63
394.49	1696.89
394.68	1605.61
394.88	1610.29
395.07	1753.06
395.26	1603.27
395.46	1713.27
395.65	1729.66
395.84	1729.66
396.04	1827.96
396.23	1750.72
396.42	1753.06
396.62	1710.93
396.81	1748.38
397.00	1785.83
397.19	1813.92
397.39	1755.40
397.58	1809.23
397.77	1916.90
397.97	1809.23
398.16	1947.33
398.35	1858.39
398.55	1907.54
398.74	2012.86
398.93	1881.79
399.12	1916.90
399.32	1937.96
399.51	1947.33
399.70	2078.40
399.90	1968.39
400.09	2101.80
400.28	2076.06
400.47	1996.48
400.67	2139.25
400.86	2080.74
401.05	2120.53
401.24	2153.29
401.44	2104.14
401.63	2176.70
401.82	2188.40
402.01	2092.44
402.21	2040.95
402.40	2195.42
402.59	2289.04
402.78	2256.28
402.97	2267.98
403.17	2312.45
403.36	2331.17
403.55	2424.80
403.74	2349.90
403.93	2499.69
404.13	2380.32
404.32	2448.20
404.51	2443.52
404.70	2377.98
404.89	2499.69
405.09	2464.58
405.28	2406.07
405.47	2548.84
405.66	2586.29
405.85	2574.59
406.05	2466.92
406.24	2546.50
406.43	2572.25
406.62	2651.83
406.81	2668.21
407.00	2614.38
407.20	2562.89
407.39	2668.21
407.58	2743.11
407.77	2738.43
407.96	2691.62
408.15	2668.21
408.34	2658.85
408.54	2740.77
408.73	2754.81
408.92	2761.83
409.11	2909.29
409.30	2860.13
409.49	2848.43
409.68	3030.99
409.87	2953.76
410.07	3012.27
410.26	3080.14
410.45	3005.25
410.64	3028.65
410.83	3061.42
411.02	3124.62
411.21	3059.08
411.40	3126.96
411.59	3082.49
411.78	3115.25
411.98	3194.83
412.17	3272.07
412.36	3377.39
412.55	3353.99
412.74	3431.23
412.93	3412.50
413.12	3337.60
413.31	3499.10
413.50	3555.27
413.69	3616.13
413.88	3669.96
414.07	3695.71
414.26	3538.89
414.45	3747.20
414.64	3665.28
414.83	3763.58
415.02	3892.31
415.22	3852.52
415.41	3847.84
415.60	3929.76
415.79	3882.95
415.98	3962.53
416.17	4060.83
416.36	4074.87
416.55	3889.97
416.74	4009.34
416.93	4091.26
417.12	4098.28
417.31	4245.73
417.50	4212.96
417.69	4397.87
417.88	4416.59
418.07	4269.14
418.26	4205.94
418.45	4339.35
418.64	4526.60
418.83	4386.16
419.02	4437.66
419.21	4594.47
419.39	4484.47
419.58	4388.50
419.77	4498.51
419.96	4571.07
420.15	4674.05
420.34	4315.95
420.53	4657.67
420.72	4751.29
420.91	4627.24
421.10	4697.46
421.29	4685.75
421.48	4753.63
421.67	4770.01
421.86	4760.65
422.05	4854.27
422.24	4758.31
422.43	4877.68
422.61	4889.38
422.80	5034.49
422.99	4903.42
423.18	4912.78
423.37	5027.47
423.56	4983.00
423.75	5004.07
423.94	4793.42
424.13	4634.26
424.32	4805.12
424.50	4863.63
424.69	5247.48
424.88	5036.83
425.07	5043.85
425.26	4957.25
425.45	5121.09
425.64	5006.41
425.83	4961.94
426.01	5090.67
426.20	5224.08
426.39	4938.53
426.58	5057.90
426.77	4985.34
426.96	5130.45
427.15	5046.20
427.33	5401.96
427.52	5160.88
427.71	5298.97
427.90	5203.01
428.09	5348.12
428.28	5296.63
428.46	5291.95
428.65	5341.10
428.84	5523.66
429.03	5507.28
429.22	5345.78
429.40	5535.37
429.59	5603.24
429.78	5296.63
429.97	5284.93
430.16	5540.05
430.34	5495.58
430.53	5671.12
430.72	5561.11
430.91	5668.78
431.10	5593.88
431.28	5722.61
431.47	5776.44
431.66	5905.17
431.85	5675.80
432.03	5949.64
432.22	6094.76
432.41	5961.34
432.60	6052.63
432.79	6143.91
432.97	6071.35
433.16	5940.28
433.35	5961.34
433.54	6031.56
433.72	6160.29
433.91	6272.64
434.10	6125.18
434.28	5977.73
434.47	6209.44
434.66	6197.74
434.85	6265.61
435.03	6384.98
435.22	6349.87
435.41	6530.09
435.59	6396.68
435.78	6520.73
435.97	6581.59
436.16	6450.52
436.34	6422.43
436.53	6595.63
436.72	6740.74
436.90	6406.05
437.09	6796.92
437.28	6502.01
437.46	6595.63
437.65	6614.35
437.84	6874.15
438.02	6768.83
438.21	6801.60
438.40	6689.25
438.58	7159.70
438.77	7096.50
438.96	6890.54
439.14	7274.38
439.33	7307.15
439.52	7227.57
439.70	7171.40
439.89	7480.35
440.08	7396.09
440.26	7332.90
440.45	7248.64
440.63	7454.61
440.82	7557.59
441.01	7396.09
441.19	7583.34
441.38	7801.01
441.57	7826.75
441.75	7836.11
441.94	7960.16
442.12	8074.85
442.31	8098.25
442.50	8065.49
442.68	7974.21
442.87	8021.02
443.05	8187.19
443.24	8107.62
443.43	8184.85
443.61	8278.47
443.80	8390.82
443.98	7943.78
444.17	8091.23
444.35	8285.50
444.54	8451.67
444.73	8175.49
444.91	8318.26
445.10	8463.38
445.28	8346.35
445.47	8311.24
445.65	8297.20
445.84	8416.57
446.02	8535.93
446.21	8325.29
446.39	8498.49
446.58	8472.74
446.77	8575.72
446.95	8297.20
447.14	8585.08
447.32	8533.59
447.51	8734.88
447.69	8657.64
447.88	8566.36
448.06	8592.11
448.25	8718.50
448.43	8624.87
448.62	8669.34
448.80	8519.55
448.99	8835.52
449.17	8931.48
449.36	8681.05
449.54	8781.69
449.73	9055.53
449.91	8982.98
450.10	8936.17
450.28	8917.44
450.46	9172.56
450.65	8919.78
450.83	9104.68
451.02	9071.92
451.20	9521.30
451.39	8990.00
451.57	9132.77
451.76	9188.94
451.94	9231.07
452.13	9406.61
452.31	9423.00
452.49	9142.13
452.68	9455.76
452.86	9509.60
453.05	9383.21
453.23	9549.39
453.42	9446.40
453.60	9383.21
453.78	9617.26
453.97	9497.89
454.15	9479.17
454.34	9479.17
454.52	9696.84
454.70	9757.69
454.89	9841.95
455.07	9935.57
455.26	9795.14
455.44	10015.15
455.62	10050.26
455.81	10059.62
455.99	10083.03
456.17	10167.29
456.36	10026.86
456.54	10200.05
456.73	10239.84
456.91	10324.10
457.09	10281.97
457.28	10499.64
457.46	10583.90
457.64	10878.81
457.83	10539.43
458.01	10647.10
458.19	10576.88
458.38	10691.57
458.56	10663.48
458.74	10752.42
458.93	10731.36
459.11	10876.47
459.29	10843.70
459.48	10911.58
459.66	10890.51
459.84	10998.18
460.03	11272.02
460.21	11112.86
460.39	10876.47
460.57	11037.97
460.76	11201.80
460.94	11140.95
461.12	11037.97
461.31	11194.78
461.49	11098.82
461.67	11243.93
461.85	11653.53
462.04	11194.78
462.22	11576.29
462.40	11487.35
462.59	11349.26
462.77	11295.43
462.95	11587.99
463.13	11578.63
463.32	11805.66
463.50	11592.67
463.68	11665.23
463.86	11903.96
464.05	11674.59
464.23	11620.76
464.41	12116.95
464.59	11623.10
464.78	12252.70
464.96	12121.63
465.14	11995.25
465.32	11910.99
465.50	12259.73
465.69	12058.44
465.87	12376.75
466.05	12262.07
466.23	12168.45
466.41	12374.41
466.60	12547.61
466.78	12173.13
466.96	12198.87
467.14	12451.65
467.32	12475.06
467.51	12765.28
467.69	12241.00
467.87	12365.05
468.05	12776.98
468.23	12582.72
468.41	12552.29
468.60	12849.54
468.78	12674.00
468.96	12711.45
469.14	12856.56
469.32	13006.36
469.50	12732.51
469.69	13043.81
469.87	13118.70
470.05	13240.41
470.23	13142.11
470.41	13149.13
470.59	13364.46
470.77	13357.44
470.95	13121.04
471.14	13516.59
471.32	13392.55
471.50	13383.18
471.68	13858.31
471.86	13685.11
472.04	13778.73
472.22	14143.86
472.40	13724.90
472.58	14167.26
472.77	13980.02
472.95	14218.75
473.13	14794.53
473.31	14090.02
473.49	14443.45
473.67	14108.75
473.85	14281.95
474.03	14665.80
474.21	14618.99
474.39	14881.13
474.57	14583.88
474.75	14885.81
474.93	14977.09
475.12	15042.62
475.30	15192.42
475.48	15304.76
475.66	15232.21
475.84	15215.82
476.02	15559.88
476.20	15527.11
476.38	15704.99
476.56	16201.19
476.74	16030.33
476.92	15871.17
477.10	15634.78
477.28	16285.45
477.46	16542.91
477.64	16383.75
477.82	16631.85
478.00	17020.38
478.18	17114.00
478.36	16905.69
478.54	17242.73
478.72	17221.66
478.90	17589.13
479.08	17799.77
479.26	17720.20
479.44	17518.91
479.62	17954.25
479.80	18284.26
479.98	18532.36
480.16	18778.12
480.34	18450.44
480.52	18724.29
480.70	18843.65
480.88	18501.93
481.06	18888.12
481.24	19323.46
481.41	19316.44
481.59	19393.68
481.77	19428.79
481.95	19557.52
482.13	20037.33
482.31	19803.27
482.49	20334.57
482.67	20372.02
482.85	20678.63
483.03	20767.57
483.21	20826.09
483.39	21083.55
483.57	21296.53
483.74	21380.79
483.92	21451.01
484.10	21516.54
484.28	21898.05
484.46	22225.73
484.64	22471.48
484.82	22160.19
485.00	22647.02
485.18	22890.44
485.35	23372.59
485.53	22441.06
485.71	23192.37
485.89	23627.71
486.07	23433.44
486.25	23428.76
486.43	23843.04
486.61	23812.61
486.78	23995.17
486.96	24432.85
487.14	24844.79
487.32	24961.81
487.50	25174.80
487.68	24989.90
487.85	25406.52
488.03	25736.53
488.21	26008.03
488.39	26204.64
488.57	26504.23
488.75	26223.36
488.92	26888.07
489.10	26946.59
489.28	27239.15
489.46	27232.13
489.64	27126.81
489.81	27615.98
489.99	27744.71
490.17	28088.77
490.35	28428.15
490.53	28453.89
490.70	28622.41
490.88	28369.63
491.06	29024.98
491.24	28549.85
491.41	29127.97
491.59	29443.94
491.77	29455.64
491.95	29673.31
492.13	29986.94
492.30	29907.37
492.48	30366.11
492.66	30286.53
492.84	30441.01
493.01	30857.62
493.19	30925.50
493.37	31417.01
493.54	31503.61
493.72	31590.21
493.90	31644.04
494.08	32254.92
494.25	32203.43
494.43	32341.52
494.61	32425.78
494.79	33118.58
494.96	32547.49
495.14	33436.89
495.32	33752.87
495.49	33336.25
495.67	33284.76
495.85	33762.23
496.02	34085.22
496.20	34249.06
496.38	34373.11
496.55	34410.56
496.73	34747.59
496.91	34873.98
497.09	35119.74
497.26	35189.95
497.44	35157.19
497.62	35545.72
497.79	36020.84
497.97	35779.77
498.14	35791.47
498.32	36315.75
498.50	36320.43
498.67	37067.06
498.85	36664.49
499.03	36531.08
499.20	37109.19
499.38	37329.20
499.56	37682.62
499.73	37261.33
499.91	37755.18
500.08	37579.64
500.26	37614.75
500.44	37996.26
500.61	38026.68
500.79	37809.01
500.97	38691.40
501.14	38761.61
501.32	38822.47
501.49	38752.25
501.67	38770.97
501.84	38873.96
502.02	38857.57
502.20	39337.38
502.37	39676.76
502.55	39622.93
502.72	39765.70
502.90	39789.11
503.07	39585.48
503.25	40348.50
503.43	39943.58
503.60	40261.90
503.78	40610.64
503.95	40587.23
504.13	40755.75
504.30	40776.81
504.48	40809.58
504.65	40545.10
504.83	41420.46
505.01	41521.10
505.18	41553.87
505.36	41628.77
505.53	41329.18
505.71	41855.80
505.88	41691.96
506.06	41392.37
506.23	42082.83
506.41	41776.22
506.58	42108.58
506.76	42422.21
506.93	42824.78
507.11	43016.71
507.28	42794.36
507.46	42616.47
507.63	43126.71
507.81	42983.94
507.98	43552.69
508.16	43454.39
508.33	43819.51
508.50	43915.47
508.68	43859.30
508.85	44315.70
509.03	43889.73
509.20	44264.21
509.38	44610.61
509.55	44456.14
509.73	44580.18
509.90	44568.48
510.08	44460.82
510.25	45371.28
510.42	44811.90
510.60	45539.80
510.77	45439.16
510.95	45565.55
511.12	44942.97
511.30	45523.42
511.47	45867.48
511.64	45848.75
511.82	45977.48
511.99	45928.33
512.17	46216.22
512.34	45825.35
512.51	46983.91
512.69	46628.15
512.86	46492.40
513.04	46600.07
513.21	46546.23
513.38	46951.15
513.56	47215.63
513.73	47049.45
513.90	46965.19
514.08	46972.21
514.25	47555.00
514.43	47695.44
514.60	47585.43
514.77	47948.21
514.95	48004.39
515.12	47454.36
515.29	47964.60
515.47	48231.42
515.64	48446.75
515.81	48250.14
515.99	48193.97
516.16	48779.10
516.33	48854.00
516.51	48844.64
516.68	49111.46
516.85	48540.37
517.03	49247.21
517.20	49116.14
517.37	48814.21
517.54	49027.20
517.72	49076.35
517.89	49598.29
518.06	49111.46
518.24	49759.79
518.41	49481.27
518.58	49324.45
518.75	49368.92
518.93	50014.91
519.10	49673.19
519.27	49691.91
519.45	49675.53
519.62	50050.02
519.79	49986.82
519.96	49897.88
520.14	50394.07
520.31	50145.98
520.48	50363.65
520.65	50684.30
520.83	50459.61
521.00	50698.34
521.17	50789.62
521.34	50981.55
521.52	50993.25
521.69	50925.38
521.86	51325.61
522.03	51339.65
522.20	51480.08
522.38	51653.28
522.55	51543.28
522.72	51515.19
522.89	51744.56
523.07	51835.84
523.24	51828.82
523.41	51887.34
523.58	51845.21
523.75	52147.14
523.92	52095.64
524.10	52205.65
524.27	52360.12
524.44	52409.28
524.61	52219.69
524.78	52411.62
524.96	52395.23
525.13	52399.91
525.30	52673.76
525.47	52563.75
525.64	52587.16
525.81	52692.48
525.98	52931.22
526.16	52858.66
526.33	52973.34
526.50	52828.23
526.67	52825.89
526.84	53380.60
527.01	52673.76
527.18	53193.36
527.36	53275.27
527.53	53242.51
527.70	53544.44
527.87	53380.60
528.04	53338.47
528.21	53441.45
528.38	53387.62
528.55	53631.04
528.72	53614.65
528.89	53565.50
529.07	53628.69
529.24	53682.53
529.41	54176.38
529.58	53516.35
529.75	53659.12
529.92	53808.92
530.09	54162.34
530.26	54174.04
530.43	54202.13
530.60	54082.76
530.77	54211.49
530.94	54412.77
531.11	54082.76
531.28	54401.07
531.46	54270.00
531.63	54457.24
531.80	54681.94
531.97	54480.65
532.14	54695.98
532.31	54658.53
532.48	54646.83
532.65	54951.10
532.82	54578.95
532.99	54571.93
533.16	54600.02
533.33	54960.46
533.50	54939.39
533.67	54822.37
533.84	54880.88
534.01	54932.37
534.18	54997.91
534.35	55561.98
534.52	55208.56
534.69	55234.30
534.86	55604.11
535.03	55648.58
535.20	55360.69
535.37	55290.48
535.54	55449.63
535.71	55264.73
535.88	55360.69
536.05	55880.29
536.22	55765.60
536.38	55903.70
536.55	55601.77
536.72	55547.93
536.89	55800.71
537.06	55739.86
537.23	55896.67
537.40	55601.77
537.57	55884.97
537.74	56074.55
537.91	56280.52
538.08	55798.37
538.25	56079.24
538.42	56069.87
538.59	56114.34
538.75	56231.37
538.92	56219.67
539.09	56411.59
539.26	56203.28
539.43	56280.52
539.60	56406.91
539.77	56521.60
539.94	56498.19
540.11	56427.98
540.28	56776.72
540.44	56498.19
540.61	56610.54
540.78	56453.72
540.95	56631.60
541.12	56521.60
541.29	56652.67
541.46	56837.57
541.62	56645.65
541.79	57162.90
541.96	56491.17
542.13	56680.75
542.30	56870.34
542.47	56898.42
542.63	56994.39
542.80	57270.57
542.97	57006.09
543.14	57144.18
543.31	57003.75
543.48	57308.02
543.64	57579.52
543.81	57897.83
543.98	57577.18
544.15	57490.58
544.32	57593.56
544.48	57607.61
544.65	57495.26
544.82	57656.76
544.99	57439.09
545.16	57649.74
545.32	57635.69
545.49	57780.81
545.66	57855.70
545.83	57659.10
546.00	57829.96
546.16	57879.11
546.33	57787.83
546.50	57691.86
546.67	57825.28
546.83	57778.46
547.00	57827.62
547.17	57785.49
547.34	58038.26
547.50	58064.01
547.67	58281.68
547.84	58185.72
548.00	58431.47
548.17	58478.28
548.34	58049.97
548.51	58501.69
548.67	58604.67
548.84	58284.02
549.01	58323.81
549.18	58237.21
549.34	58309.77
549.51	58457.22
549.68	58489.99
549.84	58522.76
550.01	58501.69
550.18	58480.63
550.34	58424.45
550.51	58717.02
550.68	58518.07
550.84	58260.62
551.01	58843.41
551.18	58604.67
551.34	58695.95
551.51	58791.92
551.68	58714.68
551.84	58770.85
552.01	58705.32
552.18	58955.75
552.34	58698.30
552.51	59082.14
552.68	58642.12
552.84	58714.68
553.01	59152.36
553.18	58990.86
553.34	58953.41
553.51	58777.87
553.67	59018.95
553.84	59096.19
554.01	59143.00
554.17	59199.17
554.34	59173.42
554.51	59056.40
554.67	59124.27
554.84	59000.22
555.00	59042.35
555.17	59086.82
555.33	59114.91
555.50	59016.61
555.67	59025.97
555.83	59086.82
556.00	59082.14
556.16	59503.44
556.33	59552.59
556.50	59510.46
556.66	59395.77
556.83	59257.68
556.99	59512.80
557.16	59475.35
557.32	59564.29
557.49	59627.49
557.65	59412.16
557.82	59601.74
557.98	59477.69
558.15	59358.33
558.32	59821.75
558.48	59339.60
558.65	59693.02
558.81	59494.08
558.98	59559.61
559.14	59667.28
559.31	59847.50
559.47	59812.39
559.64	59927.08
559.80	59854.52
559.97	60046.44
560.13	59728.13
560.30	59550.25
560.46	59915.37
560.63	59791.33
560.79	59976.23
560.96	60055.81
561.12	60163.47
561.29	60046.44
561.45	60013.68
561.61	59824.09
561.78	60055.81
561.94	59931.76
562.11	59877.93
562.27	59910.69
562.44	60004.31
562.60	60214.96
562.77	60158.79
562.93	59838.14
563.10	60135.38
563.26	60006.65
563.42	60144.75
563.59	60039.42
563.75	60086.23
563.92	60236.03
564.08	60219.64
564.24	60357.74
564.41	60310.92
564.57	60280.50
564.74	60088.57
564.90	60324.97
565.07	60247.73
565.23	60282.84
565.39	60268.79
565.56	60324.97
565.72	60247.73
565.88	60055.81
566.05	60205.60
566.21	60193.90
566.38	60257.09
566.54	60385.82
566.70	60404.55
566.87	60512.21
567.03	60327.31
567.19	60561.36
567.36	60612.85
567.52	60453.70
567.68	60566.04
567.85	60505.19
568.01	60502.85
568.17	60327.31
568.34	60594.13
568.50	60360.08
568.66	60465.40
568.83	60591.79
568.99	60488.80
569.15	60456.04
569.32	60580.09
569.48	60470.08
569.64	60596.47
569.81	60519.23
569.97	60460.72
570.13	60636.26
570.30	60523.91
570.46	60456.04
570.62	60704.13
570.78	60678.39
570.95	60690.09
571.11	60774.35
571.27	60741.58
571.43	60673.71
571.60	60837.54
571.76	60671.37
571.92	60814.14
572.09	60903.08
572.25	60755.63
572.41	60786.05
572.57	60774.35
572.74	60931.17
572.90	60832.86
573.06	60694.77
573.22	60825.84
573.38	60685.41
573.55	60860.95
573.71	60999.04
573.87	60919.46
574.03	60767.33
574.20	60935.85
574.36	60568.38
574.52	60961.59
574.68	60657.32
574.84	60870.31
575.01	60889.04
575.17	60762.65
575.33	60736.90
575.49	60769.67
575.65	61237.78
575.82	60907.76
575.98	60856.27
576.14	61064.58
576.30	60879.67
576.46	60795.42
576.62	60846.91
576.79	60669.03
576.95	60748.60
577.11	60898.40
577.27	61078.62
577.43	60816.48
577.59	60889.04
577.75	60919.46
577.92	60762.65
578.08	60809.46
578.24	60849.25
578.40	61006.06
578.56	61146.50
578.72	60985.00
578.88	61017.77
579.04	61179.26
579.21	60942.87
579.37	61181.60
579.53	61003.72
579.69	60825.84
579.85	60816.48
580.01	60729.88
580.17	60762.65
580.33	61078.62
580.49	61090.32
580.65	60977.98
580.82	60779.03
580.98	61080.96
581.14	61085.64
581.30	61087.98
581.46	61038.83
581.62	61095.00
581.78	61120.75
581.94	61120.75
582.10	61062.24
582.26	60985.00
582.42	61027.13
582.58	60949.89
582.74	60853.93
582.90	60928.83
583.06	61076.28
583.22	60793.07
583.38	61043.51
583.54	61029.47
583.70	61134.79
583.86	61200.33
584.02	60919.46
584.18	61174.58
584.34	61123.09
584.50	61207.35
584.66	61062.24
584.82	61134.79
584.98	61322.04
585.14	61013.08
585.30	61078.62
585.46	61385.23
585.62	61080.96
585.78	61158.20
585.94	61008.40
586.10	61275.22
586.26	61062.24
586.42	61116.07
586.58	61415.66
586.74	61223.73
586.90	61057.56
587.06	61069.26
587.22	61120.75
587.38	61024.79
587.54	61261.18
587.70	61317.35
587.86	61134.79
588.02	61324.38
588.18	61455.45
588.34	61141.81
588.49	60982.66
588.65	61141.81
588.81	61233.10
588.97	61488.21
589.13	61219.05
589.29	61331.40
589.45	61460.13
589.61	61209.69
589.77	61408.64
589.93	61502.26
590.08	61338.42
590.24	61450.77
590.40	61579.49
590.56	61593.54
590.72	61462.47
590.88	61286.93
591.04	61441.40
591.20	61694.18
591.35	61621.62
591.51	61525.66
591.67	61394.59
591.83	61645.03
591.99	61565.45
592.15	61598.22
592.31	61467.15
592.46	61261.18
592.62	61446.08
592.78	61567.79
592.94	61710.56
593.10	61640.35
593.26	61642.69
593.41	61794.82
593.57	61614.60
593.73	61752.69
593.89	61867.38
594.05	61853.34
594.20	61511.62
594.36	61698.86
594.52	61719.93
594.68	61572.47
594.84	61511.62
594.99	61584.18
595.15	61670.78
595.31	61509.28
595.47	61485.87
595.62	61600.56
595.78	61602.90
595.94	61553.75
596.10	61932.92
596.25	61623.96
596.41	61872.06
596.57	61607.58
596.73	61640.35
596.88	61689.50
597.04	61769.08
597.20	61820.57
597.36	61846.32
597.51	61872.06
597.67	61558.43
597.83	61703.54
597.99	61790.14
598.14	61701.20
598.30	61829.93
598.46	61722.27
598.61	61855.68
598.77	61956.32
598.93	61748.01
599.09	61607.58
599.24	62026.54
599.40	61726.95
599.56	61818.23
599.71	61822.91
599.87	62061.64
600.03	61984.41
600.18	61656.73
600.34	61652.05
600.50	61593.54
600.65	61656.73
600.81	61757.38
600.97	61858.02
601.12	61900.15
601.28	61829.93
601.44	61748.01
601.59	62017.17
601.75	61829.93
601.91	62117.82
602.06	61958.66
602.22	61998.45
602.37	61670.78
602.53	61879.08
602.69	61890.79
602.84	61813.55
603.00	61764.40
603.16	62063.99
603.31	61911.85
603.47	62096.75
603.62	61733.97
603.78	62038.24
603.94	61916.53
604.09	61965.68
604.25	62028.88
604.40	61944.62
604.56	61909.51
604.71	62003.13
604.87	61780.78
605.03	61771.42
605.18	61790.14
605.34	61820.57
605.49	61703.54
605.65	61939.94
605.80	61958.66
605.96	62089.73
606.12	61778.44
606.27	62040.58
606.43	61942.28
606.58	61890.79
606.74	61689.50
606.89	61724.61
607.05	61890.79
607.20	61982.07
607.36	61790.14
607.51	61677.80
607.67	61591.20
607.82	61764.40
607.98	61553.75
608.13	61755.03
608.29	61703.54
608.44	61762.06
608.60	61829.93
608.75	61932.92
608.91	61755.03
609.06	61476.51
609.22	61827.59
609.37	61563.11
609.53	61740.99
609.68	61736.31
609.84	61696.52
609.99	61673.12
610.15	61528.00
610.30	61787.80
610.46	61694.18
610.61	61638.01
610.76	61619.28
610.92	61925.89
611.07	61726.95
611.23	61598.22
611.38	61705.88
611.54	61623.96
611.69	61670.78
611.84	61565.45
612.00	61628.65
612.15	61567.79
612.31	61579.49
612.46	61427.36
612.62	61609.92
612.77	61460.13
612.92	61738.65
613.08	61485.87
613.23	61691.84
613.39	61635.67
613.54	61425.02
613.69	61705.88
613.85	61535.02
614.00	61703.54
614.15	61848.66
614.31	61462.47
614.46	61443.74
614.62	61464.81
614.77	61595.88
614.92	61574.81
615.08	61441.40
615.23	61345.44
615.38	61549.07
615.54	61556.09
615.69	61460.13
615.84	61563.11
616.00	61551.41
616.15	61516.30
616.30	61513.96
616.46	61446.08
616.61	61446.08
616.76	61457.79
616.92	61366.51
617.07	61359.48
617.22	61441.40
617.37	61340.76
617.53	61701.20
617.68	61476.51
617.83	61263.52
617.99	61340.76
618.14	61389.91
618.29	61158.20
618.45	61268.20
618.60	61315.01
618.75	61087.98
618.90	61375.87
619.06	61504.60
619.21	61181.60
619.36	61556.09
619.51	61286.93
619.67	61174.58
619.82	61130.11
619.97	61406.30
620.12	61345.44
620.28	61219.05
620.43	61244.80
620.58	61130.11
620.73	60879.67
620.89	60980.32
621.04	61155.86
621.19	61277.57
621.34	60975.64
621.49	61013.08
621.65	61137.13
621.80	61265.86
621.95	61027.13
622.10	61090.32
622.25	61055.21
622.41	60877.33
622.56	61071.60
622.71	61076.28
622.86	60804.78
623.01	60886.70
623.16	60970.96
623.32	61050.53
623.47	60985.00
623.62	60804.78
623.77	60919.46
623.92	61221.39
624.07	60975.64
624.23	61017.77
624.38	60992.02
624.53	60594.13
624.68	60603.49
624.83	60886.70
624.98	60795.42
625.13	60736.90
625.29	60832.86
625.44	61001.38
625.59	60699.45
625.74	60690.09
625.89	60577.75
626.04	60355.39
626.19	60502.85
626.34	60481.78
626.49	60474.76
626.65	60376.46
626.80	60502.85
626.95	60369.44
627.10	60458.38
627.25	60500.51
627.40	60481.78
627.55	60477.10
627.70	60647.96
627.85	60505.19
628.00	60317.95
628.15	60697.11
628.30	60456.04
628.45	60378.80
628.60	60360.08
628.76	60406.89
628.91	60764.99
629.06	60458.38
629.21	60704.13
629.36	60350.71
629.51	60313.26
629.66	60427.95
629.81	60210.28
629.96	60191.56
630.11	60203.26
630.26	60205.60
630.41	60296.88
630.56	60182.19
630.71	60238.37
630.86	60374.12
631.01	60212.62
631.16	60088.57
631.31	60147.09
631.46	59854.52
631.61	60257.09
631.76	60147.09
631.91	60137.72
632.06	60320.29
632.21	59999.63
632.36	60151.77
632.51	59796.01
632.66	59966.87
632.81	59824.09
632.96	60156.45
633.10	60060.49
633.25	60069.85
633.40	60065.17
633.55	60111.98
633.70	59704.73
633.85	59849.84
634.00	60044.10
634.15	59884.95
634.30	59884.95
634.45	59798.35
634.60	59938.78
634.75	59819.41
634.90	59723.45
635.05	59700.04
635.19	59749.20
635.34	59784.30
635.49	59765.58
635.64	59669.62
635.79	59845.16
635.94	59887.29
636.09	59866.22
636.24	59718.77
636.39	59686.00
636.53	59894.31
636.68	59627.49
636.83	59622.81
636.98	59992.61
637.13	59433.22
637.28	59690.68
637.43	59526.84
637.57	59620.47
637.72	59339.60
637.87	59482.37
638.02	59554.93
638.17	59648.55
638.32	59519.82
638.46	59529.19
638.61	59678.98
638.76	59283.43
638.91	59370.03
639.06	59196.83
639.20	59316.20
639.35	59196.83
639.50	59105.55
639.65	59257.68
639.80	59327.90
639.94	59395.77
640.09	59353.65
640.24	59295.13
640.39	59344.28
640.54	59304.49
640.68	59224.92
640.83	59302.15
640.98	59114.91
641.13	59124.27
641.27	59416.84
641.42	59194.49
641.57	59126.61
641.72	59007.25
641.86	58876.18
642.01	58866.81
642.16	58988.52
642.31	59021.29
642.45	59061.08
642.60	58911.28
642.75	59068.10
642.90	59276.41
643.04	59114.91
643.19	59014.27
643.34	59000.22
643.48	59014.27
643.63	59138.32
643.78	58897.24
643.93	58946.39
644.07	58857.45
644.22	58829.37
644.37	58738.08
644.51	58562.54
644.66	58920.65
644.81	58878.52
644.95	58705.32
645.10	58852.77
645.25	58719.36
645.39	58766.17
645.54	58745.11
645.69	58827.02
645.83	58899.58
645.98	58548.50
646.13	58803.62
646.27	58714.68
646.42	58632.76
646.57	58738.08
646.71	58522.76
646.86	58667.87
647.00	58834.05
647.15	58688.93
647.30	58583.61
647.44	58677.23
647.59	58714.68
647.74	58695.95
647.88	58773.19
648.03	58789.58
648.17	58656.17
648.32	58548.50
648.47	58443.18
648.61	58513.39
648.76	58508.71
648.90	58539.14
649.05	58330.83
649.20	58646.80
649.34	58504.03
649.49	58468.92
649.63	58377.64
649.78	58672.55
649.92	58417.43
650.07	58408.07
650.21	58258.27
650.36	58403.39
650.51	58344.87
650.65	58635.10
650.80	58384.66
650.94	58103.80
651.09	58120.18
651.23	57937.62
651.38	58010.18
651.52	58145.93
651.67	57949.32
651.81	58241.89
651.96	58316.79
652.10	58143.59
652.25	58054.65
652.39	58106.14
652.54	57853.36
652.68	57818.25
652.83	57640.37
652.97	57836.98
653.12	57813.57
653.26	57827.62
653.41	58225.51
653.55	57923.58
653.70	57928.26
653.84	57911.88
653.99	57715.27
654.13	57738.68
654.27	57897.83
654.42	57619.31
654.56	57635.69
654.71	57827.62
654.85	58035.92
655.00	57762.08
655.14	57708.25
655.29	57783.15
655.43	57811.23
655.57	57528.03
655.72	57752.72
655.86	58047.63
656.01	57659.10
656.15	57663.78
656.30	57595.90
656.44	57958.69
656.58	57701.23
656.73	57799.53
656.87	57600.58
657.01	57879.11
657.16	57724.63
657.30	57319.72
657.45	57258.87
657.59	57176.95
657.73	56966.30
657.88	57272.91
658.02	57382.91
658.16	57305.68
658.31	57301.00
658.45	57279.93
658.60	57228.44
658.74	57174.61
658.88	57331.42
659.03	57172.27
659.17	57251.84
659.31	57095.03
659.46	56975.66
659.60	56949.92
659.74	57209.71
659.89	57003.75
660.03	56989.70
660.17	57043.54
660.32	56860.97
660.46	56959.28
660.60	56722.88
660.74	56968.64
660.89	56949.92
661.03	56762.67
661.17	56537.98
661.32	56519.26
661.46	56720.54
661.60	56610.54
661.74	56657.35
661.89	56575.43
662.03	56514.58
662.17	56435.00
662.31	56519.26
662.46	56570.75
662.60	56355.42
662.74	56383.51
662.88	56088.60
663.03	56147.11
663.17	56149.45
663.31	56158.81
663.45	56254.78
663.60	55922.42
663.74	55819.44
663.88	56048.81
664.02	56126.05
664.17	55962.21
664.31	55676.66
664.45	55927.10
664.59	55842.84
664.73	55697.73
664.88	55569.00
665.02	55440.27
665.16	55660.28
665.30	55463.67
665.44	55451.97
665.59	55451.97
665.73	55454.31
665.87	55264.73
666.01	55636.87
666.15	55274.09
666.29	55564.32
666.44	55744.54
666.58	55159.41
666.72	55065.78
666.86	55075.15
667.00	55484.74
667.14	54801.30
667.28	54941.74
667.43	54731.09
667.57	54974.50
667.71	54848.11
667.85	54738.11
667.99	54520.44
668.13	54698.32
668.27	54782.58
668.41	54670.23
668.56	54574.27
668.70	54309.79
668.84	54342.56
668.98	54157.66
669.12	54377.67
669.26	54475.97
669.40	54408.09
669.54	54473.63
669.68	54115.53
669.82	53925.94
669.96	54270.00
670.10	54321.49
670.25	54204.47
670.39	53930.62
670.53	54131.91
670.67	53970.41
670.81	54110.85
670.95	53869.77
671.09	53656.78
671.23	53736.36
671.37	53638.06
671.51	53272.93
671.65	53598.27
671.79	53488.26
671.93	53296.34
672.07	53448.47
672.21	53258.89
672.35	52797.80
672.49	52800.15
672.63	53085.69
672.77	53069.31
672.91	52978.03
673.05	52910.15
673.19	52542.69
673.33	52570.77
673.47	52657.37
673.61	52781.42
673.75	52568.43
673.89	52142.45
674.03	52374.17
674.17	52231.40
674.31	52137.77
674.45	51749.24
674.59	51987.98
674.73	52009.04
674.87	51971.60
675.01	51660.30
675.15	51700.09
675.29	51707.12
675.43	51870.95
675.56	51433.27
675.70	51229.65
675.84	51231.99
675.98	50454.93
676.12	51302.20
676.26	51222.62
676.40	50969.85
676.54	50958.14
676.68	50864.52
676.82	50232.58
676.96	50539.19
677.10	50206.83
677.23	49916.61
677.37	50284.07
677.51	50145.98
677.65	49303.38
677.79	49017.84
677.93	49141.89
678.07	49476.58
678.21	49186.36
678.34	49193.38
678.48	49272.96
678.62	48907.83
678.76	48952.30
678.90	48779.10
679.04	48435.05
679.18	48781.45
679.31	48409.30
679.45	47870.98
679.59	48444.41
679.73	48371.85
679.87	47901.40
680.00	47606.50
680.14	47416.91
680.28	47250.74
680.42	47330.31
680.56	46679.64
680.70	47110.30
680.83	47103.28
680.97	46506.44
681.11	46827.10
681.25	46988.60
681.39	46799.01
681.52	46934.76
681.66	46323.88
681.80	45937.69
681.94	46028.98
682.07	46000.89
682.21	45595.98
682.35	45729.39
682.49	45731.73
682.62	45607.68
682.76	45460.23
682.90	45654.49
683.04	45425.12
683.17	44832.96
683.31	44683.17
683.45	44942.97
683.59	44512.31
683.72	44488.90
683.86	44561.46
684.00	44287.62
684.13	44226.76
684.27	43866.32
684.41	43742.27
684.55	44140.16
684.68	43288.21
684.82	43519.92
684.96	43150.12
685.09	43519.92
685.23	43061.18
685.37	42792.01
685.50	42586.05
685.64	42480.72
685.78	43042.45
685.91	42913.72
686.05	41958.78
686.19	41467.27
686.32	42014.96
686.46	41116.19
686.60	40907.88
686.73	41010.87
686.87	41062.36
687.01	41099.81
687.14	41366.63
687.28	40807.24
687.42	40629.36
687.55	40683.19
687.69	40442.12
687.82	40334.45
687.96	39758.68
688.10	39342.06
688.23	40402.33
688.37	39861.66
688.50	39393.56
688.64	39225.04
688.78	39199.29
688.91	38326.27
689.05	38895.02
689.18	38806.08
689.32	37691.99
689.46	37640.50
689.59	38054.77
689.73	37624.11
689.86	38057.11
690.00	37773.91
690.13	38110.94
690.27	37511.77
690.41	37956.47
690.54	37209.84
690.68	36800.24
690.81	36844.71
690.95	36517.04
691.08	36423.42
691.22	36346.18
691.35	36355.54
691.49	36334.48
691.62	36107.44
691.76	35999.78
691.89	35861.69
692.03	35395.92
692.16	35285.92
692.30	35201.66
692.43	35103.35
692.57	35555.08
692.70	34838.87
692.84	35056.54
692.97	34693.76
693.11	34562.69
693.24	34230.33
693.38	34333.32
693.51	33912.02
693.65	33759.89
693.78	33619.46
693.92	33818.40
694.05	33619.46
694.19	33633.50
694.32	33460.30
694.45	33010.92
694.59	32929.00
694.72	33024.96
694.86	32716.01
694.99	32552.17
695.13	32070.02
695.26	31765.75
695.39	31695.53
695.53	31915.54
695.66	32032.57
695.80	31452.12
695.93	31641.70
696.07	30679.74
696.20	30761.66
696.33	30920.82
696.47	30897.41
696.60	30899.75
696.73	30850.60
696.87	30417.60
697.00	30157.80
697.14	30174.19
697.27	30134.40
697.40	30139.08
697.54	30059.50
697.67	29958.86
697.80	29460.32
697.94	29668.63
698.07	29237.97
698.21	29071.79
698.34	29118.60
698.47	28783.91
698.61	28638.80
698.74	28814.34
698.87	28367.29
699.01	28198.77
699.14	28161.33
699.27	28245.58
699.40	28264.31
699.54	28276.01
699.67	28301.76
699.80	27835.99
699.94	27288.31
700.07	27754.07
700.20	27276.60
700.34	27292.99
700.47	26874.03
700.60	26611.89
700.73	26529.97
700.87	26485.50
701.00	26111.02
701.13	25603.12
701.26	26120.38
701.40	26068.89
701.53	26068.89
701.66	26122.72
701.79	25193.53
701.93	25041.39
702.06	25130.33
702.19	25027.35
702.32	25111.61
702.46	24870.53
702.59	24627.12
702.72	24552.22
702.85	24498.39
702.99	24535.84
703.12	24919.68
703.25	24154.33
703.38	23899.21
703.51	23985.81
703.65	23814.95
703.78	23552.81
703.91	23356.21
704.04	23398.34
704.17	23672.18
704.31	23180.67
704.44	23110.45
704.57	23014.49
704.70	23005.13
704.83	22434.03
704.96	22405.95
705.10	22153.17
705.23	22333.39
>>>>>End Processed Spectral Data<<<<<
