SpectraSuite Data File
++++++++++++++++++++++++++++++++++++
Date: Fri Oct 25 11:26:42 EDT 2013
User: price-jones
Dark Spectrum Present: No
Reference Spectrum Present: No
Number of Sampled Component Spectra: 1
Spectrometers: USB2+H05261
Integration Time (usec): 100000 (USB2+H05261)
Spectra Averaged: 1 (USB2+H05261)
Boxcar Smoothing: 0 (USB2+H05261)
Correct for Electrical Dark: No (USB2+H05261)
Strobe/Lamp Enabled: No (USB2+H05261)
Correct for Detector Non-linearity: No (USB2+H05261)
Correct for Stray Light: No (USB2+H05261)
Number of Pixels in Processed Spectrum: 2048
>>>>>Begin Processed Spectral Data<<<<<
365.73	196.60
365.92	196.60
366.12	196.60
366.32	161.50
366.52	149.79
366.72	189.58
366.91	140.43
367.11	135.75
367.31	173.20
367.51	131.07
367.70	110.01
367.90	203.63
368.10	117.03
368.30	133.41
368.49	142.77
368.69	184.90
368.89	140.43
369.09	91.28
369.28	243.42
369.48	182.56
369.68	212.99
369.87	315.97
370.07	229.37
370.27	220.01
370.47	386.19
370.66	524.28
370.86	615.56
371.06	683.44
371.25	758.33
371.45	671.73
371.65	739.61
371.84	676.41
372.04	718.54
372.24	685.78
372.44	711.52
372.63	716.20
372.83	702.16
373.03	645.99
373.22	760.67
373.42	758.33
373.62	791.10
373.81	800.46
374.01	844.93
374.21	851.96
374.40	798.12
374.60	809.83
374.79	767.70
374.99	828.55
375.19	856.64
375.38	821.53
375.58	922.17
375.78	840.25
375.97	912.81
376.17	936.21
376.37	854.30
376.56	882.38
376.76	905.79
376.95	896.43
377.15	931.53
377.35	931.53
377.54	851.96
377.74	873.02
377.93	866.00
378.13	973.66
378.33	940.90
378.52	983.02
378.72	990.05
378.91	856.64
379.11	898.77
379.31	966.64
379.50	943.24
379.70	1062.60
379.89	1001.75
380.09	933.87
380.28	990.05
380.48	1020.47
380.68	1048.56
380.87	952.60
381.07	1111.75
381.26	1076.65
381.46	1041.54
381.65	1060.26
381.85	1083.67
382.04	1018.13
382.24	1090.69
382.43	1083.67
382.63	1074.31
382.83	1083.67
383.02	1107.07
383.22	1193.67
383.41	1149.20
383.61	1121.12
383.80	1186.65
384.00	1128.14
384.19	1139.84
384.39	1109.41
384.58	1076.65
384.78	1226.44
384.97	1217.08
385.17	1210.06
385.36	1205.38
385.56	1210.06
385.75	1191.33
385.95	1240.48
386.14	1191.33
386.34	1184.31
386.53	1245.16
386.72	1217.08
386.92	1313.04
387.11	1259.21
387.31	1242.82
387.50	1240.48
387.70	1277.93
387.89	1376.24
388.09	1284.95
388.28	1357.51
388.48	1249.85
388.67	1345.81
388.86	1336.45
389.06	1315.38
389.25	1369.21
389.45	1299.00
389.64	1401.98
389.84	1345.81
390.03	1355.17
390.22	1397.30
390.42	1434.75
390.61	1369.21
390.81	1423.05
391.00	1383.26
391.19	1409.00
391.39	1418.36
391.58	1455.81
391.78	1404.32
391.97	1577.52
392.16	1497.94
392.36	1675.82
392.55	1540.07
392.75	1558.80
392.94	1533.05
393.13	1568.16
393.33	1533.05
393.52	1563.48
393.71	1598.59
393.91	1633.69
394.10	1554.12
394.29	1535.39
394.49	1593.90
394.68	1703.91
394.88	1643.06
395.07	1666.46
395.26	1633.69
395.46	1710.93
395.65	1668.80
395.84	1715.61
396.04	1734.34
396.23	1783.49
396.42	1853.70
396.62	1846.68
396.81	1795.19
397.00	1811.57
397.19	1856.04
397.39	1638.38
397.58	1827.96
397.77	1741.36
397.97	1909.88
398.16	1975.41
398.35	1860.73
398.55	1830.30
398.74	1865.41
398.93	1991.80
399.12	2092.44
399.32	1905.20
399.51	1940.30
399.70	2047.97
399.90	1994.14
400.09	1949.67
400.28	2019.88
400.47	2073.71
400.67	2057.33
400.86	2094.78
401.05	2099.46
401.24	2237.55
401.44	2172.02
401.63	2211.81
401.82	2235.21
402.01	2139.25
402.21	2216.49
402.40	2172.02
402.59	2153.29
402.78	2251.60
402.97	2188.40
403.17	2317.13
403.36	2310.11
403.55	2307.77
403.74	2408.41
403.93	2394.37
404.13	2448.20
404.32	2389.69
404.51	2368.62
404.70	2485.65
404.89	2401.39
405.09	2583.95
405.28	2583.95
405.47	2464.58
405.66	2628.42
405.85	2548.84
406.05	2464.58
406.24	2595.65
406.43	2562.89
406.62	2499.69
406.81	2705.66
407.00	2665.87
407.20	2565.23
407.39	2663.53
407.58	2729.06
407.77	2754.81
407.96	2820.35
408.15	2787.58
408.34	2686.94
408.54	2834.39
408.73	2876.52
408.92	2834.39
409.11	2897.58
409.30	2967.80
409.49	2928.01
409.68	2946.73
409.87	2932.69
410.07	3054.40
410.26	2991.20
410.45	2970.14
410.64	3066.10
410.83	3035.67
411.02	3052.06
411.21	3262.71
411.40	3206.53
411.59	3162.06
411.78	3297.81
411.98	3187.81
412.17	3449.95
412.36	3403.14
412.55	3330.58
412.74	3414.84
412.93	3316.54
413.12	3543.57
413.31	3538.89
413.50	3459.31
413.69	3473.36
413.88	3588.04
414.07	3728.47
414.26	3707.41
414.45	3658.26
414.64	3728.47
414.83	3845.50
415.02	3672.30
415.22	3812.73
415.41	3873.59
415.60	3896.99
415.79	3957.85
415.98	4007.00
416.17	4014.02
416.36	3960.19
416.55	3997.64
416.74	4140.41
416.93	4154.45
417.12	4159.13
417.31	4095.94
417.50	4269.14
417.69	4372.12
417.88	4304.25
418.07	4278.50
418.26	4252.75
418.45	4372.12
418.64	4503.19
418.83	4470.42
419.02	4386.16
419.21	4587.45
419.39	4479.79
419.58	4531.28
419.77	4411.91
419.96	4545.32
420.15	4578.09
420.34	4699.80
420.53	4683.41
420.72	4851.93
420.91	4718.52
421.10	4753.63
421.29	4767.67
421.48	4772.35
421.67	4992.36
421.86	4786.40
422.05	4760.65
422.24	4880.02
422.43	4858.95
422.61	5036.83
422.80	5097.69
422.99	4994.70
423.18	5029.81
423.37	5001.72
423.56	5043.85
423.75	4980.66
423.94	4861.29
424.13	4760.65
424.32	4877.68
424.50	4943.21
424.69	5097.69
424.88	4994.70
425.07	5214.71
425.26	4919.81
425.45	4961.94
425.64	5020.45
425.83	5013.43
426.01	4933.85
426.20	5090.67
426.39	5191.31
426.58	5181.95
426.77	5055.56
426.96	5242.80
427.15	5167.90
427.33	5399.62
427.52	5317.70
427.71	5425.36
427.90	5416.00
428.09	5399.62
428.28	5490.90
428.46	5406.64
428.65	5268.55
428.84	5434.72
429.03	5495.58
429.22	5385.57
429.40	5394.93
429.59	5568.13
429.78	5345.78
429.97	5322.38
430.16	5579.84
430.34	5514.30
430.53	5624.31
430.72	5792.83
430.91	5549.41
431.10	5832.62
431.28	5823.25
431.47	5797.51
431.66	5893.47
431.85	5982.41
432.03	5888.79
432.22	6029.22
432.41	6061.99
432.60	5947.30
432.79	5942.62
432.97	6127.52
433.16	6174.33
433.35	6010.50
433.54	6146.25
433.72	6253.91
433.91	6218.80
434.10	6230.51
434.28	6235.19
434.47	6267.95
434.66	6333.49
434.85	6303.06
435.03	6331.15
435.22	6310.08
435.41	6478.60
435.59	6471.58
435.78	6534.78
435.97	6509.03
436.16	6478.60
436.34	6335.83
436.53	6593.29
436.72	6663.51
436.90	6410.73
437.09	6644.78
437.28	6579.25
437.46	6633.08
437.65	6813.30
437.84	6733.72
438.02	6850.75
438.21	6874.15
438.40	6864.79
438.58	7124.59
438.77	7042.67
438.96	6885.86
439.14	7248.64
439.33	7215.87
439.52	7286.09
439.70	7368.01
439.89	7382.05
440.08	7365.67
440.26	7456.95
440.45	7438.22
440.63	7482.69
440.82	7646.53
441.01	7644.19
441.19	7630.15
441.38	7714.41
441.57	7784.62
441.75	7838.45
441.94	7981.23
442.12	8016.33
442.31	7978.89
442.50	7859.52
442.68	8023.36
442.87	8023.36
443.05	8098.25
443.24	8369.76
443.43	8124.00
443.61	8116.98
443.80	8435.29
443.98	8030.38
444.17	8030.38
444.35	8257.41
444.54	8524.23
444.73	8091.23
444.91	8418.91
445.10	8418.91
445.28	8435.29
445.47	8404.86
445.65	8390.82
445.84	8732.54
446.02	8755.94
446.21	8524.23
446.39	8367.42
446.58	8622.53
446.77	8510.19
446.95	8322.94
447.14	8620.19
447.32	8573.38
447.51	8730.20
447.69	8643.60
447.88	8531.25
448.06	8697.43
448.25	8446.99
448.43	8521.89
448.62	8669.34
448.80	8559.34
448.99	8655.30
449.17	8830.84
449.36	8667.00
449.54	8975.95
449.73	9018.08
449.91	9008.72
450.10	8894.04
450.28	9198.31
450.46	9205.33
450.65	9114.05
450.83	9186.60
451.02	9158.52
451.20	9104.68
451.39	9191.28
451.57	9322.35
451.76	9247.46
451.94	9273.20
452.13	9476.83
452.31	9320.01
452.49	9085.96
452.68	9631.30
452.86	9448.74
453.05	9291.93
453.23	9549.39
453.42	9418.32
453.60	9387.89
453.78	9607.90
453.97	9617.26
454.15	9577.47
454.34	9511.94
454.52	9900.47
454.70	9818.55
454.89	9844.29
455.07	9893.44
455.26	10080.69
455.44	10038.56
455.62	9928.55
455.81	10026.86
455.99	10085.37
456.17	10104.09
456.36	10249.21
456.54	10221.12
456.73	10389.64
456.91	10537.09
457.09	10396.66
457.28	10581.56
457.46	10459.85
457.64	10714.97
457.83	10328.78
458.01	10471.56
458.19	10675.18
458.38	10633.05
458.56	10801.57
458.74	10871.79
458.93	10630.71
459.11	10906.90
459.29	11037.97
459.48	10733.70
459.66	10719.65
459.84	11023.92
460.03	11239.25
460.21	11126.91
460.39	11077.76
460.57	11318.83
460.76	11454.58
460.94	11133.93
461.12	11435.86
461.31	11389.05
461.49	11272.02
461.67	11300.11
461.85	11485.01
462.04	11328.19
462.22	11606.72
462.40	11693.32
462.59	11770.55
462.77	11590.33
462.95	11847.79
463.13	11557.57
463.32	11597.35
463.50	11545.86
463.68	11948.43
463.86	12238.66
464.05	11749.49
464.23	11676.93
464.41	11964.82
464.59	11749.49
464.78	12283.13
464.96	11932.05
465.14	11948.43
465.32	12159.08
465.50	12196.53
465.69	12131.00
465.87	12248.02
466.05	12259.73
466.23	12271.43
466.41	12138.02
466.60	12559.31
466.78	12269.09
466.96	12372.07
467.14	12456.33
467.32	12664.64
467.51	12608.47
467.69	12264.41
467.87	12486.76
468.05	12725.49
468.23	12421.22
468.41	12760.60
468.60	12657.62
468.78	12870.61
468.96	12826.14
469.14	12877.63
469.32	13039.12
469.50	12795.71
469.69	13055.51
469.87	13261.48
470.05	13226.37
470.23	13385.52
470.41	13369.14
470.59	13502.55
470.77	13350.42
470.95	13434.68
471.14	13710.86
471.32	13341.05
471.50	13696.82
471.68	13593.83
471.86	13666.39
472.04	13748.31
472.22	14167.26
472.40	13851.29
472.58	13898.10
472.77	13980.02
472.95	14101.73
473.13	14757.08
473.31	14174.28
473.49	14185.99
473.67	14305.35
473.85	14377.91
474.03	14920.92
474.21	14689.20
474.39	14820.27
474.57	14551.11
474.75	15159.65
474.93	14956.02
475.12	15000.49
475.30	15073.05
475.48	15201.78
475.66	15269.66
475.84	15398.38
476.02	15501.37
476.20	15454.56
476.38	15957.77
476.56	16156.72
476.74	16095.86
476.92	16091.18
477.10	15950.75
477.28	16350.98
477.46	16463.33
477.64	16350.98
477.82	16505.46
478.00	16908.03
478.18	16793.34
478.36	17165.49
478.54	17523.59
478.72	17413.59
478.90	17717.86
479.08	17867.65
479.26	17914.46
479.44	17951.91
479.62	18146.17
479.80	18314.69
479.98	18328.74
480.16	18663.43
480.34	18530.02
480.52	18544.06
480.70	18806.20
480.88	18623.64
481.06	18651.73
481.24	19016.85
481.41	19084.73
481.59	19351.55
481.77	19606.67
481.95	19906.26
482.13	19796.25
482.31	19875.83
482.49	20126.27
482.67	20318.19
482.85	20610.76
483.03	20446.92
483.21	20924.39
483.39	21137.38
483.57	21071.84
483.74	21116.31
483.92	21413.56
484.10	21687.40
484.28	21724.85
484.46	22059.55
484.64	22689.15
484.82	22361.48
485.00	22326.37
485.18	22951.29
485.35	23089.38
485.53	22801.50
485.71	23316.42
485.89	23913.25
486.07	23410.04
486.25	23508.34
486.43	23920.28
486.61	23796.23
486.78	24503.07
486.96	24294.76
487.14	24526.47
487.32	24680.95
487.50	25184.16
487.68	25312.89
487.85	25469.71
488.03	25530.56
488.21	26150.81
488.39	26094.63
488.57	26244.43
488.75	26457.42
488.92	26246.77
489.10	27197.02
489.28	27040.21
489.46	27482.57
489.64	27152.55
489.81	27917.91
489.99	28105.15
490.17	27756.41
490.35	28437.51
490.53	28446.87
490.70	28737.10
490.88	28570.92
491.06	28889.23
491.24	28863.49
491.41	29448.62
491.59	29373.72
491.77	29586.71
491.95	30115.67
492.13	29886.30
492.30	30024.39
492.48	29916.73
492.66	30543.99
492.84	30499.52
493.01	30745.28
493.19	31140.83
493.37	30946.56
493.54	31201.68
493.72	31702.56
493.90	31534.04
494.08	32187.05
494.25	32449.19
494.43	32142.58
494.61	32472.59
494.79	32992.19
494.96	33090.49
495.14	33017.94
495.32	33151.35
495.49	33216.88
495.67	33579.67
495.85	34529.92
496.02	33961.17
496.20	34064.16
496.38	34162.46
496.55	34085.22
496.73	35023.78
496.91	34642.27
497.09	35129.10
497.26	35211.02
497.44	35225.06
497.62	35632.32
497.79	35978.72
497.97	35833.60
498.14	36460.87
498.32	36533.42
498.50	36266.60
498.67	36664.49
498.85	36582.57
499.03	37090.47
499.20	36917.27
499.38	37315.16
499.56	37118.56
499.73	37474.32
499.91	37710.71
500.08	37869.87
500.26	37551.56
500.44	37729.44
500.61	38005.62
500.79	38143.71
500.97	37872.21
501.14	38843.53
501.32	38911.41
501.49	39124.40
501.67	39086.95
501.84	39194.61
502.02	38981.62
502.20	38925.45
502.37	38890.34
502.55	39541.01
502.72	39800.81
502.90	39665.06
503.07	39604.20
503.25	40238.49
503.43	39864.00
503.60	40184.66
503.78	40751.07
503.95	40779.15
504.13	41045.97
504.30	41053.00
504.48	40730.00
504.65	40783.83
504.83	41731.75
505.01	41287.05
505.18	41448.55
505.36	41574.94
505.53	41642.81
505.71	42045.38
505.88	42239.65
506.06	41640.47
506.23	42202.20
506.41	41806.65
506.58	42314.55
506.76	42623.50
506.93	43157.14
507.11	42291.14
507.28	42838.83
507.46	43234.38
507.63	43438.00
507.81	43718.87
507.98	43423.96
508.16	43896.75
508.33	43292.89
508.50	43646.31
508.68	43906.11
508.85	44067.61
509.03	43700.14
509.20	44542.74
509.38	44692.53
509.55	44657.42
509.73	44769.77
509.90	45010.84
510.08	44858.71
510.25	44751.04
510.42	45109.14
510.60	45284.68
510.77	45673.21
510.95	45895.56
511.12	45572.57
511.30	45560.87
511.47	45762.15
511.64	45727.05
511.82	46171.75
511.99	45911.95
512.17	46604.75
512.34	46370.69
512.51	46684.33
512.69	46473.68
512.86	46686.67
513.04	46817.74
513.21	46841.14
513.38	46756.88
513.56	46787.31
513.73	47012.00
513.90	47398.19
514.08	46869.23
514.25	47512.88
514.43	47641.60
514.60	47491.81
514.77	47887.36
514.95	48020.77
515.12	47515.22
515.29	48076.94
515.47	48353.13
515.64	48334.40
515.81	47980.98
515.99	48538.03
516.16	48673.78
516.33	48289.93
516.51	48411.64
516.68	48196.31
516.85	48933.58
517.03	48900.81
517.20	49184.02
517.37	48748.68
517.54	49277.64
517.72	48851.66
517.89	49439.14
518.06	49724.68
518.24	49471.90
518.41	49275.30
518.58	49497.65
518.75	49312.75
518.93	49883.84
519.10	49661.49
519.27	50155.34
519.45	50258.32
519.62	50024.27
519.79	50326.20
519.96	50443.23
520.14	50515.78
520.31	50050.02
520.48	50731.11
520.65	50719.41
520.83	50660.90
521.00	50927.72
521.17	50602.38
521.34	50663.24
521.52	51243.69
521.69	51234.33
521.86	51058.79
522.03	51379.44
522.20	51606.47
522.38	51849.89
522.55	51688.39
522.72	51370.08
522.89	51524.55
523.07	51721.16
523.24	51311.56
523.41	51980.96
523.58	51686.05
523.75	52179.90
523.92	51910.74
524.10	52112.03
524.27	52186.92
524.44	52509.92
524.61	52189.27
524.78	52369.49
524.96	52453.75
525.13	52097.98
525.30	52748.65
525.47	52905.47
525.64	52664.39
525.81	52832.91
525.98	52863.34
526.16	52640.99
526.33	52928.87
526.50	53373.58
526.67	53027.18
526.84	52952.28
527.01	53076.33
527.18	53050.58
527.36	53029.52
527.53	53319.74
527.70	53483.58
527.87	53492.94
528.04	53528.05
528.21	53551.46
528.38	53558.48
528.55	53829.98
528.72	53668.48
528.89	53570.18
529.07	53593.59
529.24	53825.30
529.41	53822.96
529.58	53928.28
529.75	53680.19
529.92	54075.74
530.09	54061.69
530.26	54255.96
530.43	54129.57
530.60	53986.80
530.77	54099.14
530.94	54384.69
531.11	54344.90
531.28	54124.89
531.46	54160.00
531.63	54445.54
531.80	54518.10
531.97	54632.78
532.14	54707.68
532.31	54593.00
532.48	54632.78
532.65	54724.07
532.82	54742.79
532.99	54738.11
533.16	54789.60
533.33	55079.83
533.50	54972.16
533.67	54962.80
533.84	54883.22
534.01	55412.18
534.18	55070.46
534.35	55283.45
534.52	55229.62
534.69	55351.33
534.86	55206.22
535.03	55353.67
535.20	55299.84
535.37	55463.67
535.54	55590.06
535.71	55543.25
535.88	55753.90
536.05	55543.25
536.22	55877.95
536.38	55688.37
536.55	55931.78
536.72	55597.09
536.89	55667.30
537.06	55681.34
537.23	56135.41
537.40	55721.13
537.57	56011.36
537.74	55753.90
537.91	56177.54
538.08	55943.48
538.25	55866.25
538.42	56165.84
538.59	56505.21
538.75	56006.68
538.92	56273.50
539.09	56355.42
539.26	56488.83
539.43	56402.23
539.60	56545.00
539.77	56474.79
539.94	56542.66
540.11	56507.55
540.28	56296.91
540.44	56566.07
540.61	56746.29
540.78	56610.54
540.95	56523.94
541.12	56825.87
541.29	56739.27
541.46	56877.36
541.62	56732.25
541.79	56804.80
541.96	56500.53
542.13	56580.11
542.30	56919.49
542.47	57069.28
542.63	57055.24
542.80	57190.99
542.97	57357.17
543.14	57256.53
543.31	57453.13
543.48	57237.80
543.64	57457.81
543.81	57579.52
543.98	57361.85
544.15	57584.20
544.32	57708.25
544.48	57656.76
544.65	57427.38
544.82	57387.60
544.99	57588.88
545.16	57794.85
545.32	57595.90
545.49	58045.29
545.66	58014.86
545.83	58035.92
546.00	57914.22
546.16	57825.28
546.33	57736.34
546.50	57523.35
546.67	57975.07
546.83	57649.74
547.00	58078.05
547.17	57757.40
547.34	57968.05
547.50	58078.05
547.67	58152.95
547.84	58234.87
548.00	58237.21
548.17	58185.72
548.34	58113.16
548.51	58424.45
548.67	58223.17
548.84	58131.89
549.01	58321.47
549.18	58209.12
549.34	58206.78
549.51	58333.17
549.68	58436.16
549.84	58363.60
550.01	58780.21
550.18	58410.41
550.34	58562.54
550.51	58714.68
550.68	58459.56
550.84	58220.83
551.01	58773.19
551.18	58679.57
551.34	58644.46
551.51	58763.83
551.68	58749.79
551.84	58780.21
552.01	58719.36
552.18	58714.68
552.34	58717.02
552.51	58976.82
552.68	58892.56
552.84	58787.24
553.01	59264.70
553.18	58941.71
553.34	59135.98
553.51	58876.18
553.67	59002.56
553.84	58997.88
554.01	58857.45
554.17	59215.55
554.34	59068.10
554.51	59107.89
554.67	59128.95
554.84	59007.25
555.00	59079.80
555.17	59124.27
555.33	59131.29
555.50	59061.08
555.67	59100.87
555.83	59030.65
556.00	59480.03
556.16	59480.03
556.33	59568.97
556.50	59330.24
556.66	59480.03
556.83	59353.65
556.99	59470.67
557.16	59414.50
557.32	59788.98
557.49	59817.07
557.65	59730.47
557.82	59498.76
557.98	59557.27
558.15	59788.98
558.32	59625.15
558.48	59531.53
558.65	59531.53
558.81	59615.79
558.98	59721.11
559.14	59608.76
559.31	59913.03
559.47	59674.30
559.64	59693.02
559.80	59810.05
559.97	59898.99
560.13	59489.40
560.30	59676.64
560.46	59934.10
560.63	59978.57
560.79	59817.07
560.96	60172.83
561.12	59983.25
561.29	59983.25
561.45	59896.65
561.61	59901.33
561.78	60004.31
561.94	60175.17
562.11	60053.47
562.27	60111.98
562.44	60264.11
562.60	60081.55
562.77	60086.23
562.93	59920.05
563.10	60303.90
563.26	60081.55
563.42	60271.14
563.59	60205.60
563.75	60315.61
563.92	60193.90
564.08	60170.49
564.24	60493.49
564.41	60116.66
564.57	60285.18
564.74	60224.32
564.90	60179.85
565.07	60053.47
565.23	60306.24
565.39	60203.26
565.56	60530.93
565.72	60231.35
565.88	60243.05
566.05	60273.48
566.21	60231.35
566.38	60346.03
566.54	60467.74
566.70	60509.87
566.87	60493.49
567.03	60341.35
567.19	60594.13
567.36	60254.75
567.52	60406.89
567.68	60706.47
567.85	60537.96
568.01	60535.62
568.17	60493.49
568.34	60535.62
568.50	60530.93
568.66	60535.62
568.83	60575.40
568.99	60430.29
569.15	60776.69
569.32	60575.40
569.48	60556.68
569.64	60676.05
569.81	60617.53
569.97	60458.38
570.13	60416.25
570.30	60317.95
570.46	60589.45
570.62	60739.24
570.78	60509.87
570.95	60528.59
571.11	60708.82
571.27	60643.28
571.43	60741.58
571.60	60743.92
571.76	60825.84
571.92	60657.32
572.09	60671.37
572.25	60729.88
572.41	60741.58
572.57	60673.71
572.74	60989.68
572.90	60786.05
573.06	60732.22
573.22	60870.31
573.38	60977.98
573.55	60863.29
573.71	60992.02
573.87	60849.25
574.03	60694.77
574.20	60931.17
574.36	60809.46
574.52	60949.89
574.68	60811.80
574.84	60917.12
575.01	60970.96
575.17	60764.99
575.33	60914.78
575.49	60687.75
575.65	61080.96
575.82	61057.56
575.98	60987.34
576.14	61219.05
576.30	60921.80
576.46	60863.29
576.62	60853.93
576.79	60821.16
576.95	60725.20
577.11	60987.34
577.27	61073.94
577.43	61034.15
577.59	61052.87
577.75	61041.17
577.92	60832.86
578.08	61062.24
578.24	60935.85
578.40	61099.68
578.56	61038.83
578.72	60963.93
578.88	60973.30
579.04	61160.54
579.21	61139.47
579.37	61190.97
579.53	61223.73
579.69	60764.99
579.85	60910.10
580.01	60949.89
580.17	60807.12
580.33	60996.70
580.49	61139.47
580.65	61013.08
580.82	61190.97
580.98	61069.26
581.14	61050.53
581.30	61062.24
581.46	61048.19
581.62	60940.53
581.78	60823.50
581.94	61137.13
582.10	60999.04
582.26	60977.98
582.42	61092.66
582.58	60959.25
582.74	60877.33
582.90	61095.00
583.06	60977.98
583.22	60865.63
583.38	61020.11
583.54	61095.00
583.70	61066.92
583.86	60952.23
584.02	61188.63
584.18	61099.68
584.34	61137.13
584.50	61216.71
584.66	61148.84
584.82	60912.44
584.98	61197.99
585.14	61296.29
585.30	61024.79
585.46	61090.32
585.62	61158.20
585.78	61109.05
585.94	61017.77
586.10	61205.01
586.26	61167.56
586.42	61237.78
586.58	61237.78
586.74	61277.57
586.90	61148.84
587.06	61113.73
587.22	61399.27
587.38	61116.07
587.54	61310.33
587.70	61305.65
587.86	61076.28
588.02	61113.73
588.18	61158.20
588.34	61165.22
588.49	61036.49
588.65	61240.12
588.81	61179.26
588.97	61535.02
589.13	61392.25
589.29	61357.14
589.45	61504.60
589.61	61418.00
589.77	61492.89
589.93	61476.51
590.08	61530.34
590.24	61439.06
590.40	61621.62
590.56	61513.96
590.72	61439.06
590.88	61392.25
591.04	61385.23
591.20	61570.13
591.35	61600.56
591.51	61764.40
591.67	61684.82
591.83	61715.25
591.99	61673.12
592.15	61446.08
592.31	61572.47
592.46	61432.04
592.62	61511.62
592.78	61490.55
592.94	61481.19
593.10	61499.92
593.26	61595.88
593.41	61806.53
593.57	61638.01
593.73	61520.98
593.89	61874.40
594.05	61649.71
594.20	61797.16
594.36	61776.10
594.52	61740.99
594.68	61687.16
594.84	61354.80
594.99	61471.83
595.15	61502.26
595.31	61691.84
595.47	61558.43
595.62	61584.18
595.78	61525.66
595.94	61813.55
596.10	61804.19
596.25	61708.22
596.41	61705.88
596.57	61584.18
596.73	61731.63
596.88	61790.14
597.04	61867.38
597.20	61785.46
597.36	61670.78
597.51	61846.32
597.67	61661.41
597.83	61638.01
597.99	61628.65
598.14	61785.46
598.30	61647.37
598.46	61712.91
598.61	61956.32
598.77	61600.56
598.93	61684.82
599.09	61544.39
599.24	62239.53
599.40	62075.69
599.56	61867.38
599.71	61682.48
599.87	61935.26
600.03	62019.52
600.18	61729.29
600.34	61865.04
600.50	61822.91
600.65	61846.32
600.81	61975.05
600.97	61811.21
601.12	61881.42
601.28	61942.28
601.44	61712.91
601.59	61853.34
601.75	61750.35
601.91	61925.89
602.06	61935.26
602.22	61989.09
602.37	61914.19
602.53	61820.57
602.69	61759.72
602.84	61799.50
603.00	62068.67
603.16	61996.11
603.31	62073.35
603.47	62028.88
603.62	61989.09
603.78	62040.58
603.94	61858.02
604.09	61979.73
604.25	61968.02
604.40	61829.93
604.56	61904.83
604.71	61984.41
604.87	61895.47
605.03	61867.38
605.18	61923.55
605.34	61925.89
605.49	61535.02
605.65	61951.64
605.80	61902.49
605.96	61979.73
606.12	61932.92
606.27	62110.80
606.43	61649.71
606.58	61953.98
606.74	61829.93
606.89	61762.06
607.05	61928.23
607.20	61907.17
607.36	61822.91
607.51	61682.48
607.67	61621.62
607.82	61682.48
607.98	61932.92
608.13	61752.69
608.29	61764.40
608.44	61724.61
608.60	61652.05
608.75	61752.69
608.91	61666.09
609.06	61652.05
609.22	62066.33
609.37	61628.65
609.53	61705.88
609.68	61853.34
609.84	61600.56
609.99	61579.49
610.15	61876.74
610.30	61996.11
610.46	61780.78
610.61	61682.48
610.76	61766.74
610.92	61722.27
611.07	61722.27
611.23	61602.90
611.38	61656.73
611.54	61574.81
611.69	61769.08
611.84	61740.99
612.00	61593.54
612.15	61717.59
612.31	61719.93
612.46	61483.53
612.62	61724.61
612.77	61574.81
612.92	61724.61
613.08	61630.99
613.23	61600.56
613.39	61535.02
613.54	61361.82
613.69	61535.02
613.85	61595.88
614.00	61717.59
614.15	61792.48
614.31	61497.58
614.46	61668.44
614.62	61378.21
614.77	61558.43
614.92	61509.28
615.08	61420.34
615.23	61441.40
615.38	61455.45
615.54	61483.53
615.69	61565.45
615.84	61633.33
616.00	61371.19
616.15	61324.38
616.30	61343.10
616.46	61368.85
616.61	61361.82
616.76	61282.25
616.92	61324.38
617.07	61647.37
617.22	61307.99
617.37	61148.84
617.53	61495.24
617.68	61312.67
617.83	61436.72
617.99	61277.57
618.14	61249.48
618.29	61324.38
618.45	61083.30
618.60	61329.06
618.75	60959.25
618.90	61176.92
619.06	61237.78
619.21	61513.96
619.36	61570.13
619.51	61073.94
619.67	61151.18
619.82	61338.42
619.97	61343.10
620.12	61237.78
620.28	61050.53
620.43	61272.88
620.58	61116.07
620.73	61043.51
620.89	61247.14
621.04	61237.78
621.19	60896.06
621.34	61165.22
621.49	61183.94
621.65	61155.86
621.80	61066.92
621.95	60961.59
622.10	60947.55
622.25	61104.37
622.41	61038.83
622.56	60921.80
622.71	60989.68
622.86	60870.31
623.01	60949.89
623.16	60842.23
623.32	60907.76
623.47	60870.31
623.62	61031.81
623.77	61036.49
623.92	60996.70
624.07	60949.89
624.23	61057.56
624.38	60757.97
624.53	60889.04
624.68	60673.71
624.83	60636.26
624.98	60856.27
625.13	60640.94
625.29	60729.88
625.44	60743.92
625.59	60645.62
625.74	60772.01
625.89	60528.59
626.04	60589.45
626.19	60673.71
626.34	60570.72
626.49	60533.28
626.65	60465.40
626.80	60654.98
626.95	60596.47
627.10	60484.12
627.25	60498.17
627.40	60598.81
627.55	60439.65
627.70	60608.17
627.85	60423.27
628.00	60676.05
628.15	60523.91
628.30	60638.60
628.45	60413.91
628.60	60406.89
628.76	60591.79
628.91	60591.79
629.06	60238.37
629.21	60364.76
629.36	60214.96
629.51	60170.49
629.66	60144.75
629.81	60299.22
629.96	60170.49
630.11	60086.23
630.26	60486.46
630.41	60238.37
630.56	60329.65
630.71	60179.85
630.86	60264.11
631.01	60205.60
631.16	60193.90
631.31	60083.89
631.46	59936.44
631.61	60001.97
631.76	60198.58
631.91	60182.19
632.06	60327.31
632.21	59976.23
632.36	59922.40
632.51	59756.22
632.66	59980.91
632.81	59856.86
632.96	60158.79
633.10	60119.00
633.25	59901.33
633.40	60067.51
633.55	60196.24
633.70	59997.29
633.85	59779.62
634.00	59810.05
634.15	59922.40
634.30	59767.92
634.45	59929.42
634.60	60254.75
634.75	59760.90
634.90	59557.27
635.05	59861.54
635.19	59618.13
635.34	59664.94
635.49	59824.09
635.64	59824.09
635.79	59662.60
635.94	59826.43
636.09	59849.84
636.24	59646.21
636.39	59880.27
636.53	59859.20
636.68	59749.20
636.83	59833.46
636.98	59875.58
637.13	59491.74
637.28	59571.32
637.43	59473.01
637.57	59552.59
637.72	59543.23
637.87	59561.95
638.02	59739.83
638.17	59400.46
638.32	59482.37
638.46	59414.50
638.61	59629.83
638.76	59487.06
638.91	59475.35
639.06	59531.53
639.20	59358.33
639.35	59313.86
639.50	59208.53
639.65	59159.38
639.80	59355.99
639.94	59309.18
640.09	59393.43
640.24	59334.92
640.39	59112.57
640.54	59283.43
640.68	59332.58
640.83	59367.69
640.98	59154.70
641.13	59128.95
641.27	59264.70
641.42	59175.76
641.57	59107.89
641.72	59187.47
641.86	59077.46
642.01	59007.25
642.16	59138.32
642.31	59114.91
642.45	59171.08
642.60	58918.31
642.75	59260.02
642.90	59131.29
643.04	59112.57
643.19	58775.53
643.34	58960.44
643.48	59061.08
643.63	58829.37
643.78	58901.92
643.93	58958.09
644.07	58705.32
644.22	58653.82
644.37	58513.39
644.51	58618.72
644.66	59051.72
644.81	58761.49
644.95	58901.92
645.10	58887.88
645.25	58679.57
645.39	58768.51
645.54	58848.09
645.69	58787.24
645.83	58754.47
645.98	58672.55
646.13	58653.82
646.27	58705.32
646.42	58546.16
646.57	58649.14
646.71	58656.17
646.86	58695.95
647.00	58791.92
647.15	58569.57
647.30	58691.27
647.44	58576.59
647.59	58698.30
647.74	58632.76
647.88	58754.47
648.03	58546.16
648.17	58592.97
648.32	58501.69
648.47	58468.92
648.61	58372.96
648.76	58344.87
648.90	58387.00
649.05	58555.52
649.20	58499.35
649.34	58384.66
649.49	58529.78
649.63	58450.20
649.78	58534.46
649.92	58532.12
650.07	58300.40
650.21	58365.94
650.36	58206.78
650.51	58485.31
650.65	58546.16
650.80	58438.50
650.94	58202.10
651.09	58230.19
651.23	57989.11
651.38	58363.60
651.52	57921.24
651.67	57937.62
651.81	57890.81
651.96	57991.45
652.10	58286.36
652.25	58159.97
652.39	57860.38
652.54	57935.28
652.68	57724.63
652.83	57832.30
652.97	57783.15
653.12	57937.62
653.26	57822.93
653.41	58197.42
653.55	57841.66
653.70	57900.17
653.84	58092.10
653.99	57703.57
654.13	57766.76
654.27	57804.21
654.42	57752.72
654.56	57787.83
654.71	57858.04
654.85	57829.96
655.00	57979.75
655.14	57874.43
655.29	57481.22
655.43	57862.72
655.57	57574.84
655.72	57724.63
655.86	57616.97
656.01	57560.79
656.15	57701.23
656.30	57642.71
656.44	57771.44
656.58	57663.78
656.73	57647.39
656.87	57553.77
657.01	57628.67
657.16	57659.10
657.30	57333.76
657.45	57563.14
657.59	57467.17
657.73	57289.29
657.88	57251.84
658.02	57389.94
658.16	57279.93
658.31	57256.53
658.45	57361.85
658.60	57389.94
658.74	57336.10
658.88	57247.16
659.03	57071.62
659.17	57195.67
659.31	57146.52
659.46	57195.67
659.60	57256.53
659.74	56898.42
659.89	57057.58
660.03	56898.42
660.17	57041.20
660.32	56959.28
660.46	57120.77
660.60	56814.16
660.74	56818.84
660.89	57190.99
661.03	56732.25
661.17	56727.56
661.32	56516.92
661.46	56647.99
661.60	56802.46
661.74	56470.11
661.89	56547.34
662.03	56638.62
662.17	56542.66
662.31	56423.29
662.46	56537.98
662.60	56676.07
662.74	56486.49
662.88	56233.71
663.03	56147.11
663.17	56343.72
663.31	56023.06
663.45	56156.47
663.60	55847.52
663.74	55922.42
663.88	55796.03
664.02	56076.90
664.17	55896.67
664.31	55718.79
664.45	55990.30
664.59	55866.25
664.73	55601.77
664.88	55810.07
665.02	55503.46
665.16	55444.95
665.30	55428.57
665.44	55442.61
665.59	55381.76
665.73	55557.30
665.87	55327.92
666.01	55466.02
666.15	55702.41
666.29	55231.96
666.44	55423.89
666.58	54937.05
666.72	54918.33
666.86	54857.48
667.00	55025.99
667.14	54869.18
667.28	54953.44
667.43	54869.18
667.57	54873.86
667.71	54869.18
667.85	54911.31
667.99	54695.98
668.13	54543.84
668.27	54721.72
668.41	54461.93
668.56	54199.79
668.70	54223.19
668.84	54204.47
668.98	54237.23
669.12	54349.58
669.26	54398.73
669.40	54473.63
669.54	54403.41
669.68	54288.73
669.82	54525.12
669.96	54176.38
670.10	54372.99
670.25	54293.41
670.39	54026.59
670.53	53989.14
670.67	53879.13
670.81	54047.65
670.95	53907.22
671.09	54045.31
671.23	53624.01
671.37	54035.95
671.51	53745.72
671.65	53628.69
671.79	53525.71
671.93	53380.60
672.07	53806.58
672.21	53078.67
672.35	53127.82
672.49	53095.05
672.63	52669.08
672.77	52917.17
672.91	52844.62
673.05	52928.87
673.19	52870.36
673.33	52500.56
673.47	52488.85
673.61	52699.50
673.75	52561.41
673.89	52460.77
674.03	51976.28
674.17	52051.17
674.31	52011.38
674.45	51737.54
674.59	51924.78
674.73	52039.47
674.87	51896.70
675.01	51491.79
675.15	51620.52
675.29	51786.69
675.43	51587.75
675.56	51672.01
675.70	51281.14
675.84	51072.83
675.98	50181.09
676.12	51332.63
676.26	51435.61
676.40	50810.69
676.54	50688.98
676.68	50813.03
676.82	49979.80
676.96	50600.04
677.10	50082.78
677.23	49961.08
677.37	50279.39
677.51	49940.01
677.65	49591.27
677.79	48636.33
677.93	49289.34
678.07	49457.86
678.21	49221.47
678.34	49326.79
678.48	49354.88
678.62	48854.00
678.76	48748.68
678.90	48744.00
679.04	48868.05
679.18	48666.76
679.31	47828.85
679.45	48156.52
679.59	48168.22
679.73	48360.15
679.87	48275.89
680.00	47414.57
680.14	47264.78
680.28	47821.83
680.42	47009.66
680.56	46850.50
680.70	46705.39
680.83	47122.01
680.97	46773.27
681.11	47037.75
681.25	46691.35
681.39	46356.65
681.52	46733.48
681.66	45851.09
681.80	46092.17
681.94	46134.30
682.07	45975.14
682.21	45485.97
682.35	45638.11
682.49	45088.08
682.62	45624.06
682.76	45811.31
682.90	45113.83
683.04	45074.04
683.17	44886.79
683.31	44418.69
683.45	44444.43
683.59	44587.21
683.72	44456.14
683.86	44165.91
684.00	44053.56
684.13	44004.41
684.27	43765.68
684.41	44322.72
684.55	43679.08
684.68	43489.49
684.82	43501.20
684.96	42962.87
685.09	42799.04
685.23	42909.04
685.37	42745.20
685.50	42745.20
685.64	42525.19
685.78	42438.59
685.91	42534.56
686.05	41525.78
686.19	41645.15
686.32	41415.78
686.46	41095.13
686.60	41106.83
686.73	41294.07
686.87	40980.44
687.01	41148.96
687.14	41050.66
687.28	40739.36
687.42	40409.35
687.55	40140.19
687.69	40598.93
687.82	40306.37
687.96	39775.06
688.10	39777.40
688.23	39800.81
688.37	39452.07
688.50	39035.45
688.64	38822.47
688.78	39243.76
688.91	38492.45
689.05	38803.74
689.18	38410.53
689.32	37823.06
689.46	38057.11
689.59	37984.55
689.73	38473.73
689.86	37366.65
690.00	37755.18
690.13	37460.27
690.27	37839.44
690.41	37734.12
690.54	36854.08
690.68	37083.45
690.81	36964.08
690.95	36336.82
691.08	36690.24
691.22	36053.61
691.35	35782.11
691.49	36414.05
691.62	36264.26
691.76	35651.04
691.89	35805.52
692.03	35452.09
692.16	35070.59
692.30	35229.74
692.43	35414.65
692.57	35335.07
692.70	34873.98
692.84	34719.51
692.97	34359.06
693.11	34679.72
693.24	34366.09
693.38	34054.79
693.51	34328.64
693.65	33790.31
693.78	33415.83
693.92	33577.33
694.05	33184.12
694.19	33422.85
694.32	33106.88
694.45	32973.47
694.59	32554.51
694.72	32659.84
694.86	32369.61
694.99	32470.25
695.13	32219.81
695.26	32013.85
695.39	31819.58
695.53	31901.50
695.66	32098.11
695.80	31377.22
695.93	31557.44
696.07	30899.75
696.20	30958.27
696.33	30768.68
696.47	30960.61
696.60	30780.39
696.73	30604.84
696.87	30855.28
697.00	30075.88
697.14	30483.14
697.27	29937.79
697.40	29853.53
697.54	29853.53
697.67	29357.34
697.80	29579.69
697.94	29542.24
698.07	29298.83
698.21	29198.18
698.34	29092.86
698.47	28470.28
698.61	28587.30
698.74	28610.71
698.87	28678.58
699.01	28364.95
699.14	28577.94
699.27	28418.78
699.40	28095.79
699.54	28479.64
699.67	27679.18
699.80	27864.08
699.94	27440.44
700.07	27461.51
700.20	27016.80
700.34	26937.23
700.47	27035.53
700.60	26249.11
700.73	26529.97
700.87	26230.38
701.00	26637.64
701.13	25504.82
701.26	25855.90
701.40	26274.85
701.53	25797.38
701.66	25781.00
701.79	25804.41
701.93	25404.17
702.06	25017.99
702.19	25282.47
702.32	25034.37
702.46	24910.32
702.59	24641.16
702.72	24430.51
702.85	24816.70
702.99	24694.99
703.12	24350.93
703.25	23955.38
703.38	23770.48
703.51	24004.53
703.65	23185.35
703.78	23250.88
703.91	23358.55
704.04	23377.27
704.17	23342.16
704.31	22927.89
704.44	22890.44
704.57	22852.99
704.70	22822.56
704.83	22698.52
704.96	22267.86
705.10	22490.21
705.23	22436.38
>>>>>End Processed Spectral Data<<<<<
