SpectraSuite Data File
++++++++++++++++++++++++++++++++++++
Date: Fri Oct 25 11:22:39 EDT 2013
User: price-jones
Dark Spectrum Present: No
Reference Spectrum Present: No
Number of Sampled Component Spectra: 1
Spectrometers: USB2+H05261
Integration Time (usec): 100000 (USB2+H05261)
Spectra Averaged: 1 (USB2+H05261)
Boxcar Smoothing: 0 (USB2+H05261)
Correct for Electrical Dark: No (USB2+H05261)
Strobe/Lamp Enabled: No (USB2+H05261)
Correct for Detector Non-linearity: No (USB2+H05261)
Correct for Stray Light: No (USB2+H05261)
Number of Pixels in Processed Spectrum: 2048
>>>>>Begin Processed Spectral Data<<<<<
365.73	227.03
365.92	227.03
366.12	227.03
366.32	126.39
366.52	72.56
366.72	126.39
366.91	119.37
367.11	138.09
367.31	91.28
367.51	124.05
367.70	159.16
367.90	180.22
368.10	110.01
368.30	138.09
368.49	102.98
368.69	124.05
368.89	161.50
369.09	140.43
369.28	159.16
369.48	194.26
369.68	175.54
369.87	149.79
370.07	229.37
370.27	280.86
370.47	259.80
370.66	620.24
370.86	594.50
371.06	685.78
371.25	650.67
371.45	641.31
371.65	638.97
371.84	648.33
372.04	627.26
372.24	587.47
372.44	802.80
372.63	720.88
372.83	760.67
373.03	788.76
373.22	699.82
373.42	699.82
373.62	793.44
373.81	821.53
374.01	833.23
374.21	751.31
374.40	772.38
374.60	805.14
374.79	873.02
374.99	866.00
375.19	772.38
375.38	816.85
375.58	891.74
375.78	809.83
375.97	814.51
376.17	858.98
376.37	856.64
376.56	889.40
376.76	875.36
376.95	884.72
377.15	952.60
377.35	896.43
377.54	875.36
377.74	828.55
377.93	973.66
378.13	947.92
378.33	961.96
378.52	901.11
378.72	957.28
378.91	1015.79
379.11	957.28
379.31	1006.43
379.50	866.00
379.70	1027.50
379.89	952.60
380.09	983.02
380.28	929.19
380.48	954.94
380.68	966.64
380.87	950.26
381.07	1018.13
381.26	1050.90
381.46	1043.88
381.65	990.05
381.85	1001.75
382.04	1004.09
382.24	1022.81
382.43	1011.11
382.63	1029.84
382.83	1027.50
383.02	1118.78
383.22	1130.48
383.41	1062.60
383.61	1025.15
383.80	1064.94
384.00	1139.84
384.19	1090.69
384.39	1043.88
384.58	1071.97
384.78	1163.25
384.97	1212.40
385.17	1160.91
385.36	1130.48
385.56	1191.33
385.75	1191.33
385.95	1198.35
386.14	1289.64
386.34	1170.27
386.53	1235.80
386.72	1252.19
386.92	1184.31
387.11	1163.25
387.31	1214.74
387.50	1256.87
387.70	1303.68
387.89	1256.87
388.09	1270.91
388.28	1266.23
388.48	1322.40
388.67	1224.10
388.86	1355.17
389.06	1390.28
389.25	1303.68
389.45	1378.58
389.64	1284.95
389.84	1373.89
390.03	1324.74
390.22	1423.05
390.42	1390.28
390.61	1404.32
390.81	1343.47
391.00	1383.26
391.19	1439.43
391.39	1472.20
391.58	1434.75
391.78	1465.18
391.97	1465.18
392.16	1416.02
392.36	1593.90
392.55	1519.01
392.75	1460.49
392.94	1434.75
393.13	1458.15
393.33	1568.16
393.52	1488.58
393.71	1598.59
393.91	1565.82
394.10	1610.29
394.29	1600.93
394.49	1624.33
394.68	1624.33
394.88	1638.38
395.07	1671.14
395.26	1563.48
395.46	1673.48
395.65	1781.15
395.84	1703.91
396.04	1734.34
396.23	1729.66
396.42	1795.19
396.62	1863.07
396.81	1860.73
397.00	1804.55
397.19	1802.21
397.39	1785.83
397.58	1778.81
397.77	1909.88
397.97	1898.17
398.16	1867.75
398.35	1921.58
398.55	1856.04
398.74	1926.26
398.93	1944.99
399.12	1930.94
399.32	1886.47
399.51	2005.84
399.70	1923.92
399.90	1968.39
400.09	2010.52
400.28	2038.61
400.47	2010.52
400.67	2157.97
400.86	1984.77
401.05	2064.35
401.24	2076.06
401.44	2169.68
401.63	2176.70
401.82	2188.40
402.01	2033.93
402.21	2235.21
402.40	2040.95
402.59	2134.57
402.78	2249.25
402.97	2258.62
403.17	2340.54
403.36	2317.13
403.55	2267.98
403.74	2354.58
403.93	2385.01
404.13	2389.69
404.32	2279.68
404.51	2300.75
404.70	2448.20
404.89	2471.61
405.09	2495.01
405.28	2417.77
405.47	2480.97
405.66	2602.68
405.85	2569.91
406.05	2626.08
406.24	2628.42
406.43	2511.39
406.62	2562.89
406.81	2771.19
407.00	2616.72
407.20	2532.46
407.39	2663.53
407.58	2803.96
407.77	2658.85
407.96	2808.64
408.15	2813.32
408.34	2836.73
408.54	2700.98
408.73	2883.54
408.92	2731.41
409.11	2885.88
409.30	2998.23
409.49	2967.80
409.68	2869.50
409.87	3007.59
410.07	3089.51
410.26	3002.91
410.45	3141.00
410.64	3026.31
410.83	3103.55
411.02	3166.74
411.21	3159.72
411.40	3201.85
411.59	3169.09
411.78	3119.93
411.98	3262.71
412.17	3281.43
412.36	3361.01
412.55	3363.35
412.74	3456.97
412.93	3459.31
413.12	3442.93
413.31	3534.21
413.50	3506.12
413.69	3475.70
413.88	3588.04
414.07	3609.11
414.26	3658.26
414.45	3681.66
414.64	3723.79
414.83	3742.52
415.02	3824.44
415.22	3880.61
415.41	3985.93
415.60	3880.61
415.79	3992.95
415.98	4053.81
416.17	3997.64
416.36	3887.63
416.55	4014.02
416.74	4060.83
416.93	4028.06
417.12	4250.41
417.31	4210.62
417.50	4205.94
417.69	4341.69
417.88	4402.55
418.07	4241.05
418.26	4301.90
418.45	4414.25
418.64	4430.63
418.83	4409.57
419.02	4437.66
419.21	4489.15
419.39	4580.43
419.58	4601.49
419.77	4421.27
419.96	4762.99
420.15	4713.84
420.34	4629.58
420.53	4650.64
420.72	4652.98
420.91	4683.41
421.10	4844.91
421.29	4770.01
421.48	4777.03
421.67	4765.33
421.86	4833.21
422.05	4809.80
422.24	4840.23
422.43	4835.55
422.61	4992.36
422.80	4987.68
422.99	4952.57
423.18	4961.94
423.37	4931.51
423.56	5069.60
423.75	4908.10
423.94	4952.57
424.13	4669.37
424.32	4788.74
424.50	5041.51
424.69	5142.16
424.88	4912.78
425.07	4975.98
425.26	4943.21
425.45	5067.26
425.64	4957.25
425.83	5011.09
426.01	4992.36
426.20	4987.68
426.39	5104.71
426.58	5027.47
426.77	5167.90
426.96	5282.59
427.15	5144.50
427.33	5313.02
427.52	5130.45
427.71	5336.42
427.90	5233.44
428.09	5320.04
428.28	5284.93
428.46	5203.01
428.65	5420.68
428.84	5638.35
429.03	5596.22
429.22	5350.46
429.40	5465.15
429.59	5537.71
429.78	5296.63
429.97	5390.25
430.16	5568.13
430.34	5563.45
430.53	5619.63
430.72	5654.73
430.91	5937.94
431.10	5701.54
431.28	5675.80
431.47	5865.38
431.66	5874.74
431.85	5806.87
432.03	5951.98
432.22	6101.78
432.41	5963.68
432.60	5849.00
432.79	6031.56
432.97	5980.07
433.16	6078.37
433.35	6099.44
433.54	6038.58
433.72	6132.20
433.91	6134.54
434.10	6209.44
434.28	6134.54
434.47	6200.08
434.66	6319.45
434.85	6298.38
435.03	6340.51
435.22	6293.70
435.41	6534.78
435.59	6513.71
435.78	6427.11
435.97	6534.78
436.16	6368.60
436.34	6277.32
436.53	6586.27
436.72	6768.83
436.90	6457.54
437.09	6684.57
437.28	6586.27
437.46	6743.08
437.65	6752.45
437.84	6822.66
438.02	6677.55
438.21	6796.92
438.40	6757.13
438.58	6953.73
438.77	6951.39
438.96	6960.75
439.14	7119.91
439.33	7094.16
439.52	7201.83
439.70	7318.86
439.89	7522.48
440.08	7463.97
440.26	7419.50
440.45	7466.31
440.63	7616.10
440.82	7728.45
441.01	7550.57
441.19	7875.90
441.38	7775.26
441.57	7723.77
441.75	7920.37
441.94	8119.32
442.12	8142.72
442.31	7925.05
442.50	8095.91
442.68	7934.42
442.87	7964.84
443.05	8065.49
443.24	8248.05
443.43	8191.88
443.61	8163.79
443.80	8493.80
443.98	8217.62
444.17	7974.21
444.35	8184.85
444.54	8273.79
444.73	8489.12
444.91	8243.37
445.10	8449.33
445.28	8297.20
445.47	8248.05
445.65	8339.33
445.84	8425.93
446.02	8571.04
446.21	8435.29
446.39	8484.44
446.58	8592.11
446.77	8704.45
446.95	8187.19
447.14	8475.08
447.32	8603.81
447.51	8641.26
447.69	8681.05
447.88	8753.60
448.06	8659.98
448.25	8582.74
448.43	8800.41
448.62	8629.56
448.80	8615.51
448.99	8767.65
449.17	8875.31
449.36	8812.12
449.54	9151.49
449.73	9104.68
449.91	9015.74
450.10	8812.12
450.28	9177.24
450.46	8997.02
450.65	9179.58
450.83	9294.27
451.02	9247.46
451.20	9263.84
451.39	9200.65
451.57	9207.67
451.76	9195.96
451.94	9341.08
452.13	9547.05
452.31	9540.02
452.49	9046.17
452.68	9453.42
452.86	9369.16
453.05	9614.92
453.23	9369.16
453.42	9413.63
453.60	9270.86
453.78	9671.09
453.97	9659.39
454.15	9591.52
454.34	9617.26
454.52	9778.76
454.70	9685.14
454.89	9893.44
455.07	9823.23
455.26	9795.14
455.44	10010.47
455.62	10054.94
455.81	9980.04
455.99	10303.04
456.17	10190.69
456.36	10244.52
456.54	10300.70
456.73	10279.63
456.91	10630.71
457.09	10431.77
457.28	10555.82
457.46	10359.21
457.64	10677.52
457.83	10827.32
458.01	10434.11
458.19	11028.60
458.38	10743.06
458.56	10761.78
458.74	10754.76
458.93	10729.02
459.11	10677.52
459.29	10658.80
459.48	11035.63
459.66	10885.83
459.84	10934.98
460.03	11412.45
460.21	11164.36
460.39	11080.10
460.57	11119.89
460.76	11227.55
460.94	11351.60
461.12	11314.15
461.31	11187.76
461.49	11300.11
461.67	11337.56
461.85	11456.92
462.04	11342.24
462.22	11908.65
462.40	11705.02
462.59	11641.82
462.77	11637.14
462.95	11517.78
463.13	11660.55
463.32	11723.74
463.50	11882.90
463.68	12098.23
463.86	11854.81
464.05	11740.13
464.23	11665.23
464.41	12095.89
464.59	11597.35
464.78	12149.72
464.96	12107.59
465.14	11829.07
465.32	12243.34
465.50	12180.15
465.69	12564.00
465.87	12236.32
466.05	12208.23
466.23	12376.75
466.41	12489.10
466.60	12674.00
466.78	12343.99
466.96	12388.46
467.14	12325.26
467.32	12470.37
467.51	12631.87
467.69	12325.26
467.87	12458.67
468.05	12802.73
468.23	12489.10
468.41	12629.53
468.60	12608.47
468.78	12975.93
468.96	12606.13
469.14	12828.48
469.32	12929.12
469.50	12744.22
469.69	13160.83
469.87	13149.13
470.05	13280.20
470.23	13308.29
470.41	13125.72
470.59	13516.59
470.77	13331.69
470.95	13401.91
471.14	13640.64
471.32	13247.43
471.50	13713.20
471.68	14003.43
471.86	13928.53
472.04	13912.14
472.22	14040.87
472.40	14108.75
472.58	13947.25
472.77	14066.62
472.95	14270.25
473.13	14862.40
473.31	14373.23
473.49	14295.99
473.67	14153.22
473.85	14169.60
474.03	14614.30
474.21	14822.61
474.39	14782.82
474.57	14626.01
474.75	15110.50
474.93	14916.23
475.12	14857.72
475.30	15487.32
475.48	14984.11
475.66	15590.31
475.84	15335.19
476.02	15768.19
476.20	15618.39
476.38	16051.39
476.56	15988.20
476.74	16093.52
476.92	16121.61
477.10	15908.62
477.28	16542.91
477.46	16187.14
477.64	16472.69
477.82	16819.09
478.00	17011.01
478.18	16926.75
478.36	17195.92
478.54	17392.52
478.72	17429.97
478.90	17245.07
479.08	17951.91
479.26	17884.03
479.44	17745.94
479.62	18078.30
479.80	18045.53
479.98	18338.10
480.16	18827.27
480.34	18312.35
480.52	18633.00
480.70	18958.34
480.88	18572.15
481.06	18834.29
481.24	19185.37
481.41	19171.33
481.59	19573.90
481.77	19601.99
481.95	19576.24
482.13	19852.42
482.31	19868.81
482.49	20245.63
482.67	20435.22
482.85	20596.71
483.03	20863.54
483.21	20826.09
483.39	21139.72
483.57	21076.52
483.74	21193.55
483.92	21851.24
484.10	21413.56
484.28	21972.95
484.46	21867.63
484.64	22717.24
484.82	21979.97
485.00	22686.81
485.18	23014.49
485.35	23204.07
485.53	23246.20
485.71	23108.11
485.89	23873.46
486.07	23550.47
486.25	23311.74
486.43	24011.56
486.61	24168.37
486.78	24587.33
486.96	24388.38
487.14	24879.89
487.32	24702.01
487.50	25177.14
487.68	25315.23
487.85	25434.60
488.03	25659.29
488.21	26080.59
488.39	26260.81
488.57	26242.09
488.75	26548.70
488.92	26817.86
489.10	27168.94
489.28	27028.51
489.46	27421.72
489.64	27187.66
489.81	27721.30
489.99	28168.35
490.17	28194.09
490.35	28339.21
490.53	28453.89
490.70	28493.68
490.88	28802.63
491.06	29184.14
491.24	29448.62
491.41	29429.90
491.59	29495.43
491.77	29544.58
491.95	29858.21
492.13	30244.40
492.30	30277.17
492.48	30288.87
492.66	30480.80
492.84	30609.53
493.01	30946.56
493.19	31028.48
493.37	31138.49
493.54	31697.88
493.72	31800.86
493.90	31676.81
494.08	32102.79
494.25	32034.91
494.43	32297.05
494.61	32680.90
494.79	32755.80
494.96	32938.36
495.14	32563.87
495.32	33186.46
495.49	33804.36
495.67	33600.73
495.85	33596.05
496.02	33820.74
496.20	34506.52
496.38	34639.93
496.55	34099.26
496.73	35241.45
496.91	34895.05
497.09	35276.55
497.26	35358.47
497.44	35019.10
497.62	35175.91
497.79	36102.76
497.97	35639.34
498.14	36287.67
498.32	36772.16
498.50	36229.15
498.67	36573.21
498.85	36943.02
499.03	36552.15
499.20	37310.48
499.38	37345.59
499.56	37378.36
499.73	37507.08
499.91	38078.18
500.08	37895.61
500.26	37486.02
500.44	38281.80
500.61	38022.00
500.79	38192.86
500.97	38712.46
501.14	39086.95
501.32	38808.42
501.49	38986.30
501.67	38653.95
501.84	39330.36
502.02	39360.79
502.20	39021.41
502.37	39559.73
502.55	39892.09
502.72	39688.46
502.90	39758.68
503.07	40222.11
503.25	40299.34
503.43	40039.54
503.60	40467.86
503.78	41160.66
503.95	40748.73
504.13	41322.16
504.30	40524.04
504.48	41001.50
504.65	40957.03
504.83	41273.01
505.01	41799.63
505.18	41373.65
505.36	41961.12
505.53	41633.45
505.71	42005.59
505.88	42293.48
506.06	41790.27
506.23	42094.53
506.41	41816.01
506.58	42454.98
506.76	42813.08
506.93	42941.81
507.11	42738.18
507.28	42646.90
507.46	43206.29
507.63	43358.42
507.81	43351.40
507.98	43519.92
508.16	43339.70
508.33	43988.03
508.50	43889.73
508.68	43922.49
508.85	44238.47
509.03	44470.18
509.20	44119.10
509.38	44816.58
509.55	44832.96
509.73	44926.58
509.90	44769.77
510.08	44793.17
510.25	44854.03
510.42	45090.42
510.60	45380.65
510.77	45607.68
510.95	45698.96
511.12	45584.27
511.30	45455.54
511.47	45654.49
511.64	45659.17
511.82	46358.99
511.99	46066.42
512.17	46218.56
512.34	46438.57
512.51	46777.95
512.69	46808.37
512.86	46581.34
513.04	46834.12
513.21	47187.54
513.38	46667.94
513.56	47562.03
513.73	47267.12
513.90	47533.94
514.08	47250.74
514.25	47873.32
514.43	47730.54
514.60	47922.47
514.77	47833.53
514.95	48299.30
515.12	47988.00
515.29	48016.09
515.47	47800.76
515.64	48659.74
515.81	48198.65
515.99	48390.58
516.16	48933.58
516.33	48832.94
516.51	48949.96
516.68	48732.29
516.85	48823.58
517.03	49160.61
517.20	49057.63
517.37	49296.36
517.54	49694.25
517.72	49499.99
517.89	49375.94
518.06	49923.63
518.24	49717.66
518.41	49502.33
518.58	49329.13
518.75	49450.84
518.93	50078.10
519.10	49841.71
519.27	50012.57
519.45	49951.71
519.62	50145.98
519.79	50270.03
519.96	50314.50
520.14	50373.01
520.31	50497.06
520.48	50490.04
520.65	50656.21
520.83	51002.61
521.00	51051.76
521.17	50759.20
521.34	51072.83
521.52	50904.31
521.69	51470.72
521.86	51306.88
522.03	51414.55
522.20	51515.19
522.38	51664.99
522.55	51690.73
522.72	51957.55
522.89	51660.30
523.07	51786.69
523.24	51969.26
523.41	52236.08
523.58	51793.71
523.75	52229.05
523.92	52149.48
524.10	52516.94
524.27	52435.02
524.44	52280.55
524.61	52542.69
524.78	52617.58
524.96	52694.82
525.13	52748.65
525.30	52781.42
525.47	52975.69
525.64	52713.55
525.81	52839.93
525.98	52760.36
526.16	52849.30
526.33	53111.44
526.50	53200.38
526.67	53041.22
526.84	53324.43
527.01	53303.36
527.18	52900.79
527.36	53249.53
527.53	53404.00
527.70	53612.31
527.87	53647.42
528.04	53378.26
528.21	53404.00
528.38	53570.18
528.55	53673.16
528.72	53652.10
528.89	53888.49
529.07	53633.38
529.24	53689.55
529.41	53839.34
529.58	54035.95
529.75	53965.73
529.92	53939.99
530.09	54298.09
530.26	54206.81
530.43	54405.75
530.60	54007.86
530.77	54253.62
530.94	54490.01
531.11	54340.22
531.28	54569.59
531.46	54248.94
531.63	54614.06
531.80	54464.27
531.97	54810.67
532.14	54611.72
532.31	54876.20
532.48	55051.74
532.65	54906.63
532.82	54710.02
532.99	55035.36
533.16	54848.11
533.33	55004.93
533.50	55192.17
533.67	55152.38
533.84	54827.05
534.01	55227.28
534.18	55248.35
534.35	55611.13
534.52	55103.23
534.69	55592.40
534.86	55627.51
535.03	55444.95
535.20	55339.63
535.37	55533.89
535.54	55625.17
535.71	55540.91
535.88	55702.41
536.05	55833.48
536.22	56086.26
536.38	55695.39
536.55	55749.22
536.72	55821.78
536.89	55868.59
537.06	56065.19
537.23	56053.49
537.40	55873.27
537.57	55964.55
537.74	55962.21
537.91	56280.52
538.08	56292.22
538.25	55983.27
538.42	56048.81
538.59	56479.47
538.75	56184.56
538.92	56205.62
539.09	56582.45
539.26	56322.65
539.43	56589.47
539.60	56404.57
539.77	56388.19
539.94	56413.93
540.11	56484.15
540.28	56870.34
540.44	56741.61
540.61	56725.22
540.78	56498.19
540.95	56757.99
541.12	56748.63
541.29	56573.09
541.46	56893.74
541.62	56797.78
541.79	57092.69
541.96	56664.37
542.13	56886.72
542.30	57146.52
542.47	57048.22
542.63	57083.33
542.80	57261.21
542.97	57296.31
543.14	57446.11
543.31	57272.91
543.48	57162.90
543.64	57680.16
543.81	57666.12
543.98	57513.98
544.15	57504.62
544.32	57673.14
544.48	57780.81
544.65	57506.96
544.82	57567.82
544.99	57612.29
545.16	57567.82
545.32	57811.23
545.49	57883.79
545.66	58134.23
545.83	57783.15
546.00	58061.67
546.16	57750.38
546.33	57944.64
546.50	57666.12
546.67	57932.94
546.83	57811.23
547.00	58237.21
547.17	57932.94
547.34	58176.36
547.50	58096.78
547.67	58092.10
547.84	58223.17
548.00	58391.68
548.17	58396.37
548.34	58391.68
548.51	58492.33
548.67	58464.24
548.84	58410.41
549.01	58333.17
549.18	58349.56
549.34	58501.69
549.51	58567.23
549.68	58672.55
549.84	58656.17
550.01	58581.27
550.18	58300.40
550.34	58890.22
550.51	58894.90
550.68	58639.78
550.84	58244.23
551.01	58754.47
551.18	58735.74
551.34	58543.82
551.51	58628.08
551.68	58721.70
551.84	58801.28
552.01	58653.82
552.18	58997.88
552.34	58763.83
552.51	58908.94
552.68	58798.94
552.84	59091.51
553.01	59016.61
553.18	59290.45
553.34	59171.08
553.51	58876.18
553.67	59056.40
553.84	59082.14
554.01	59215.55
554.17	59098.53
554.34	59164.06
554.51	59161.72
554.67	59199.17
554.84	59327.90
555.00	59276.41
555.17	59264.70
555.33	59302.15
555.50	59164.06
555.67	59145.34
555.83	59227.26
556.00	59365.35
556.16	59716.43
556.33	59587.70
556.50	59461.31
556.66	59510.46
556.83	59107.89
556.99	59657.91
557.16	59700.04
557.32	59615.79
557.49	59728.13
557.65	59690.68
557.82	59505.78
557.98	59721.11
558.15	59662.60
558.32	59856.86
558.48	59580.68
558.65	59758.56
558.81	59786.64
558.98	59765.58
559.14	59941.12
559.31	59828.77
559.47	60226.66
559.64	59870.90
559.80	60039.42
559.97	60039.42
560.13	59737.49
560.30	60060.49
560.46	60081.55
560.63	60116.66
560.79	60060.49
560.96	60245.39
561.12	60111.98
561.29	60079.21
561.45	60088.57
561.61	59997.29
561.78	60018.36
561.94	59997.29
562.11	60034.74
562.27	60184.54
562.44	60095.60
562.60	60240.71
562.77	60240.71
562.93	60149.43
563.10	60090.91
563.26	60111.98
563.42	60409.23
563.59	60151.77
563.75	60186.88
563.92	60413.91
564.08	60154.11
564.24	60364.76
564.41	60168.15
564.57	60371.78
564.74	60402.21
564.90	60385.82
565.07	60341.35
565.23	60399.86
565.39	60381.14
565.56	60521.57
565.72	60161.13
565.88	60430.29
566.05	60306.24
566.21	60573.06
566.38	60472.42
566.54	60505.19
566.70	60645.62
566.87	60748.60
567.03	60512.21
567.19	60664.35
567.36	60734.56
567.52	60411.57
567.68	60624.56
567.85	60568.38
568.01	60764.99
568.17	60521.57
568.34	60619.88
568.50	60444.33
568.66	60406.89
568.83	60516.89
568.99	60624.56
569.15	60662.00
569.32	60537.96
569.48	60683.07
569.64	60645.62
569.81	60767.33
569.97	60612.85
570.13	60432.63
570.30	60650.30
570.46	60671.37
570.62	60788.39
570.78	60715.84
570.95	60760.31
571.11	60706.47
571.27	60856.27
571.43	60828.18
571.60	60917.12
571.76	60722.86
571.92	60863.29
572.09	60804.78
572.25	60748.60
572.41	60781.37
572.57	60699.45
572.74	61029.47
572.90	60837.54
573.06	60708.82
573.22	60870.31
573.38	60844.57
573.55	60762.65
573.71	61069.26
573.87	60853.93
574.03	60781.37
574.20	60893.72
574.36	60849.25
574.52	60893.72
574.68	60914.78
574.84	60961.59
575.01	61057.56
575.17	60865.63
575.33	60882.02
575.49	61043.51
575.65	61038.83
575.82	60947.55
575.98	60945.21
576.14	61193.31
576.30	61158.20
576.46	60989.68
576.62	60903.08
576.79	60917.12
576.95	60903.08
577.11	61066.92
577.27	60837.54
577.43	61034.15
577.59	60736.90
577.75	61017.77
577.92	60959.25
578.08	60982.66
578.24	61172.24
578.40	61219.05
578.56	61083.30
578.72	61092.66
578.88	61319.70
579.04	61375.87
579.21	61214.37
579.37	61254.16
579.53	61268.20
579.69	60830.52
579.85	61123.09
580.01	60919.46
580.17	61045.85
580.33	61127.77
580.49	61254.16
580.65	61181.60
580.82	60877.33
580.98	61167.56
581.14	61024.79
581.30	61022.45
581.46	60879.67
581.62	60989.68
581.78	60977.98
581.94	61263.52
582.10	61181.60
582.26	61352.46
582.42	61062.24
582.58	61160.54
582.74	61216.71
582.90	61095.00
583.06	60973.30
583.22	61113.73
583.38	61340.76
583.54	61296.29
583.70	61291.61
583.86	61010.74
584.02	60851.59
584.18	61242.46
584.34	61457.79
584.50	61095.00
584.66	61282.25
584.82	60980.32
584.98	61120.75
585.14	61226.07
585.30	61097.34
585.46	61207.35
585.62	61303.31
585.78	61415.66
585.94	60992.02
586.10	61193.31
586.26	61277.57
586.42	61310.33
586.58	61406.30
586.74	61305.65
586.90	61155.86
587.06	61137.13
587.22	61567.79
587.38	61336.08
587.54	61520.98
587.70	61453.11
587.86	61319.70
588.02	61235.44
588.18	61343.10
588.34	61293.95
588.49	61310.33
588.65	61066.92
588.81	61183.94
588.97	61368.85
589.13	61338.42
589.29	61434.38
589.45	61446.08
589.61	61460.13
589.77	61563.11
589.93	61410.98
590.08	61572.47
590.24	61516.30
590.40	61717.59
590.56	61649.71
590.72	61595.88
590.88	61495.24
591.04	61638.01
591.20	61715.25
591.35	61614.60
591.51	61729.29
591.67	61630.99
591.83	61591.20
591.99	61556.09
592.15	61455.45
592.31	61752.69
592.46	61806.53
592.62	61593.54
592.78	61694.18
592.94	61745.67
593.10	61694.18
593.26	61701.20
593.41	61532.68
593.57	61574.81
593.73	61733.97
593.89	61961.00
594.05	61600.56
594.20	61577.15
594.36	61762.06
594.52	61729.29
594.68	61506.94
594.84	61675.46
594.99	61766.74
595.15	61729.29
595.31	61670.78
595.47	61740.99
595.62	61509.28
595.78	61743.33
595.94	61893.13
596.10	61942.28
596.25	61733.97
596.41	61750.35
596.57	61656.73
596.73	61804.19
596.88	61712.91
597.04	61776.10
597.20	61953.98
597.36	61867.38
597.51	61897.81
597.67	61661.41
597.83	61726.95
597.99	61946.96
598.14	61862.70
598.30	61930.58
598.46	61696.52
598.61	61888.45
598.77	61790.14
598.93	61897.81
599.09	61867.38
599.24	61958.66
599.40	61858.02
599.56	61666.09
599.71	61881.42
599.87	62075.69
600.03	61956.32
600.18	61949.30
600.34	61923.55
600.50	61858.02
600.65	61792.48
600.81	61993.77
600.97	61956.32
601.12	61895.47
601.28	61841.63
601.44	61808.87
601.59	62019.52
601.75	61858.02
601.91	62113.14
602.06	61879.08
602.22	62218.46
602.37	62059.30
602.53	62106.12
602.69	62103.77
602.84	61783.12
603.00	61895.47
603.16	61942.28
603.31	62007.81
603.47	62124.84
603.62	61872.06
603.78	61963.34
603.94	61893.13
604.09	61925.89
604.25	61951.64
604.40	61939.94
604.56	61890.79
604.71	62106.12
604.87	61956.32
605.03	61806.53
605.18	61923.55
605.34	61996.11
605.49	61923.55
605.65	62031.22
605.80	62101.43
605.96	62209.10
606.12	62021.86
606.27	62005.47
606.43	61895.47
606.58	61998.45
606.74	61841.63
606.89	61975.05
607.05	61949.30
607.20	61841.63
607.36	61827.59
607.51	61836.95
607.67	62012.49
607.82	61841.63
607.98	61900.15
608.13	61883.76
608.29	61858.02
608.44	61914.19
608.60	61684.82
608.75	61818.23
608.91	61743.33
609.06	61532.68
609.22	61881.42
609.37	61703.54
609.53	61811.21
609.68	61738.65
609.84	61801.85
609.99	61888.45
610.15	61806.53
610.30	61785.46
610.46	61703.54
610.61	61895.47
610.76	61762.06
610.92	61736.31
611.07	61619.28
611.23	61841.63
611.38	61851.00
611.54	61860.36
611.69	61916.53
611.84	61909.51
612.00	61740.99
612.15	61670.78
612.31	61794.82
612.46	61733.97
612.62	61579.49
612.77	61518.64
612.92	61652.05
613.08	61668.44
613.23	61680.14
613.39	61502.26
613.54	61729.29
613.69	61862.70
613.85	61769.08
614.00	61560.77
614.15	61708.22
614.31	61432.04
614.46	61616.94
614.62	61588.86
614.77	61453.11
614.92	61474.17
615.08	61670.78
615.23	61432.04
615.38	61621.62
615.54	61352.46
615.69	61656.73
615.84	61556.09
616.00	61558.43
616.15	61319.70
616.30	61549.07
616.46	61549.07
616.61	61403.95
616.76	61563.11
616.92	61478.85
617.07	61385.23
617.22	61254.16
617.37	61240.12
617.53	61558.43
617.68	61563.11
617.83	61497.58
617.99	61663.75
618.14	61286.93
618.29	61469.49
618.45	61373.53
618.60	61380.55
618.75	61357.14
618.90	61240.12
619.06	61513.96
619.21	61307.99
619.36	61544.39
619.51	61317.35
619.67	61137.13
619.82	61172.24
619.97	61520.98
620.12	61263.52
620.28	61188.63
620.43	61104.37
620.58	61242.46
620.73	61113.73
620.89	61132.45
621.04	61333.74
621.19	61249.48
621.34	61315.01
621.49	61071.60
621.65	61190.97
621.80	61366.51
621.95	61071.60
622.10	61373.53
622.25	60959.25
622.41	61141.81
622.56	61106.71
622.71	61111.39
622.86	60823.50
623.01	60910.10
623.16	60891.38
623.32	60872.65
623.47	61141.81
623.62	60945.21
623.77	60931.17
623.92	61080.96
624.07	61190.97
624.23	61137.13
624.38	61179.26
624.53	60999.04
624.68	60832.86
624.83	61013.08
624.98	61095.00
625.13	60858.61
625.29	60767.33
625.44	60910.10
625.59	60807.12
625.74	60879.67
625.89	60720.52
626.04	60554.34
626.19	60640.94
626.34	60804.78
626.49	60556.68
626.65	60573.06
626.80	60601.15
626.95	60720.52
627.10	60491.15
627.25	60500.51
627.40	60477.10
627.55	60470.08
627.70	60566.04
627.85	60434.97
628.00	60467.74
628.15	60530.93
628.30	60404.55
628.45	60441.99
628.60	60350.71
628.76	60509.87
628.91	60671.37
629.06	60753.29
629.21	60615.19
629.36	60481.78
629.51	60519.23
629.66	60299.22
629.81	60409.23
629.96	60334.33
630.11	60336.67
630.26	60526.25
630.41	60409.23
630.56	60299.22
630.71	60296.88
630.86	60451.36
631.01	60207.94
631.16	60177.51
631.31	60126.02
631.46	59877.93
631.61	60175.17
631.76	60346.03
631.91	60369.44
632.06	60191.56
632.21	60219.64
632.36	60086.23
632.51	59826.43
632.66	60102.62
632.81	60065.17
632.96	60376.46
633.10	60058.15
633.25	60001.97
633.40	60020.70
633.55	60126.02
633.70	59868.56
633.85	59969.21
634.00	59901.33
634.15	59915.37
634.30	59889.63
634.45	60069.85
634.60	60102.62
634.75	60133.04
634.90	59664.94
635.05	59805.37
635.19	59838.14
635.34	59948.14
635.49	59700.04
635.64	60030.06
635.79	59814.73
635.94	60011.34
636.09	59690.68
636.24	59737.49
636.39	59662.60
636.53	59915.37
636.68	59587.70
636.83	59744.51
636.98	59908.35
637.13	59723.45
637.28	59908.35
637.43	59320.88
637.57	59501.10
637.72	59681.32
637.87	59646.21
638.02	59531.53
638.17	59751.54
638.32	59718.77
638.46	59529.19
638.61	59622.81
638.76	59377.05
638.91	59512.80
639.06	59683.66
639.20	59227.26
639.35	59248.32
639.50	59299.81
639.65	59372.37
639.80	59487.06
639.94	59323.22
640.09	59346.62
640.24	59568.97
640.39	59475.35
640.54	59391.09
640.68	59171.08
640.83	59339.60
640.98	59227.26
641.13	59330.24
641.27	59632.17
641.42	59182.79
641.57	59128.95
641.72	59196.83
641.86	59175.76
642.01	59112.57
642.16	59297.47
642.31	59011.93
642.45	59468.33
642.60	59159.38
642.75	59194.49
642.90	59201.51
643.04	59524.50
643.19	59014.27
643.34	59107.89
643.48	59348.96
643.63	59068.10
643.78	59040.01
643.93	59100.87
644.07	58946.39
644.22	59049.38
644.37	58712.34
644.51	58834.05
644.66	58997.88
644.81	58913.62
644.95	58845.75
645.10	59093.85
645.25	58812.98
645.39	58663.19
645.54	58557.86
645.69	58740.42
645.83	58796.60
645.98	58724.04
646.13	58803.62
646.27	58695.95
646.42	58714.68
646.57	58721.70
646.71	58834.05
646.86	58976.82
647.00	58651.48
647.15	58597.65
647.30	58635.10
647.44	58569.57
647.59	58763.83
647.74	58803.62
647.88	58831.71
648.03	58852.77
648.17	58740.42
648.32	58522.76
648.47	58511.05
648.61	58632.76
648.76	58658.51
648.90	58349.56
649.05	58541.48
649.20	58607.01
649.34	58646.80
649.49	58410.41
649.63	58614.04
649.78	58602.33
649.92	58574.25
650.07	58527.44
650.21	58459.56
650.36	58445.52
650.51	58361.26
650.65	58464.24
650.80	58497.01
650.94	58248.91
651.09	57961.03
651.23	58049.97
651.38	58148.27
651.52	58155.29
651.67	58405.73
651.81	58190.40
651.96	58178.70
652.10	58286.36
652.25	58099.12
652.39	58068.69
652.54	58007.84
652.68	57872.09
652.83	57996.13
652.97	58005.50
653.12	57944.64
653.26	57982.09
653.41	57972.73
653.55	58040.60
653.70	57956.35
653.84	58101.46
653.99	57907.19
654.13	57836.98
654.27	57769.10
654.42	57790.17
654.56	58019.54
654.71	58080.39
654.85	58010.18
655.00	58103.80
655.14	57703.57
655.29	57612.29
655.43	57724.63
655.57	57691.86
655.72	57525.69
655.86	57769.10
656.01	57748.04
656.15	57659.10
656.30	57799.53
656.44	57832.30
656.58	57832.30
656.73	57827.62
656.87	57923.58
657.01	57518.67
657.16	57790.17
657.30	57560.79
657.45	57535.05
657.59	57581.86
657.73	57455.47
657.88	57509.30
658.02	57455.47
658.16	57455.47
658.31	57366.53
658.45	57382.91
658.60	57420.36
658.74	57343.12
658.88	57315.04
659.03	57378.23
659.17	57329.08
659.31	57116.09
659.46	57139.50
659.60	57095.03
659.74	56966.30
659.89	57022.47
660.03	57088.01
660.17	57092.69
660.32	57059.92
660.46	56926.51
660.60	56793.10
660.74	56832.89
660.89	56858.63
661.03	56875.02
661.17	56720.54
661.32	56530.96
661.46	56954.60
661.60	56591.81
661.74	56760.33
661.89	56530.96
662.03	56720.54
662.17	56657.35
662.31	56432.66
662.46	56779.06
662.60	56261.80
662.74	56341.38
662.88	56334.35
663.03	56306.27
663.17	56189.24
663.31	56135.41
663.45	56140.09
663.60	56151.79
663.74	55779.65
663.88	56004.34
664.02	56158.81
664.17	55959.87
664.31	55487.08
664.45	55744.54
664.59	56095.62
664.73	56034.77
664.88	55756.24
665.02	55260.05
665.16	55683.69
665.30	55643.90
665.44	55611.13
665.59	55664.96
665.73	55648.58
665.87	55632.19
666.01	55491.76
666.15	55606.45
666.29	55463.67
666.44	55435.59
666.58	55367.71
666.72	55423.89
666.86	55049.40
667.00	55025.99
667.14	54820.03
667.28	54887.90
667.43	55016.63
667.57	55234.30
667.71	55033.02
667.85	54810.67
667.99	54967.48
668.13	55023.65
668.27	54628.10
668.41	54808.32
668.56	54829.39
668.70	54946.42
668.84	54422.14
668.98	54782.58
669.12	54607.04
669.26	54618.74
669.40	54653.85
669.54	54518.10
669.68	54099.14
669.82	54270.00
669.96	54167.02
670.10	54335.54
670.25	54473.63
670.39	54171.70
670.53	54162.34
670.67	54026.59
670.81	54262.98
670.95	54181.06
671.09	53947.01
671.23	53579.54
671.37	53703.59
671.51	53542.10
671.65	53715.29
671.79	53911.90
671.93	53427.41
672.07	53546.78
672.21	53387.62
672.35	53223.78
672.49	53200.38
672.63	53118.46
672.77	52877.38
672.91	53411.02
673.05	52994.41
673.19	53088.03
673.33	52959.30
673.47	52753.33
673.61	52753.33
673.75	52793.12
673.89	52463.11
674.03	52549.71
674.17	52624.60
674.31	52362.46
674.45	51805.42
674.59	51723.50
674.73	52123.73
674.87	51777.33
675.01	51817.12
675.15	52144.80
675.29	51980.96
675.43	51983.30
675.56	51664.99
675.70	51412.21
675.84	51641.58
675.98	50401.10
676.12	51440.29
676.26	51341.99
676.40	51089.21
676.54	51267.09
676.68	51175.81
676.82	50333.22
676.96	50501.74
677.10	50564.93
677.23	49996.18
677.37	50347.26
677.51	50066.40
677.65	49703.62
677.79	49537.44
677.93	49413.39
678.07	49574.89
678.21	49553.82
678.34	49359.56
678.48	49104.44
678.62	49064.65
678.76	48980.39
678.90	48933.58
679.04	48926.56
679.18	49059.97
679.31	48463.13
679.45	48413.98
679.59	48390.58
679.73	48596.54
679.87	48034.81
680.00	47735.23
680.14	47934.17
680.28	47613.52
680.42	47573.73
680.56	47367.76
680.70	47023.70
680.83	47449.68
680.97	46859.87
681.11	47384.15
681.25	47129.03
681.39	46976.89
681.52	46754.54
681.66	46539.21
681.80	46202.18
681.94	46501.76
682.07	46312.18
682.21	45787.90
682.35	45258.94
682.49	45572.57
682.62	45745.77
682.76	46298.14
682.90	45734.07
683.04	45310.43
683.17	45036.59
683.31	44685.51
683.45	45031.91
683.59	44676.15
683.72	44315.70
683.86	44699.55
684.00	44758.06
684.13	44596.57
684.27	43835.89
684.41	43452.05
684.55	43711.84
684.68	43552.69
684.82	43580.78
684.96	43777.38
685.09	43503.54
685.23	42958.19
685.37	43042.45
685.50	42749.88
685.64	42490.09
685.78	43009.68
685.91	42810.74
686.05	42787.33
686.19	41706.01
686.32	41886.23
686.46	41240.24
686.60	40900.86
686.73	41240.24
686.87	41296.41
687.01	41216.83
687.14	41113.85
687.28	40891.50
687.42	40662.13
687.55	40856.39
687.69	40954.69
687.82	40304.02
687.96	40210.40
688.10	40210.40
688.23	40020.82
688.37	39470.79
688.50	39510.58
688.64	39234.40
688.78	39592.50
688.91	38998.01
689.05	38775.66
689.18	38693.74
689.32	38335.63
689.46	38380.10
689.59	37982.21
689.73	38073.49
689.86	37912.00
690.00	37696.67
690.13	37888.59
690.27	37523.47
690.41	37539.85
690.54	37151.32
690.68	37247.29
690.81	37184.09
690.95	37195.79
691.08	36645.77
691.22	36620.02
691.35	36416.40
691.49	36477.25
691.62	36458.52
691.76	36180.00
691.89	35543.38
692.03	35681.47
692.16	35370.18
692.30	35257.83
692.43	35754.02
692.57	35096.33
692.70	34991.01
692.84	35089.31
692.97	34822.49
693.11	34841.21
693.24	34433.96
693.38	34504.18
693.51	34052.45
693.65	34235.02
693.78	33549.24
693.92	33869.89
694.05	33811.38
694.19	33832.44
694.32	33762.23
694.45	33539.88
694.59	32882.19
694.72	33263.69
694.86	32858.78
694.99	32182.37
695.13	32664.52
695.26	32170.66
695.39	31346.79
695.53	31833.63
695.66	32161.30
695.80	31590.21
695.93	31985.76
696.07	31307.01
696.20	30881.03
696.33	30778.04
696.47	30883.37
696.60	31084.65
696.73	30927.84
696.87	30658.68
697.00	30637.61
697.14	30045.46
697.27	30239.72
697.40	30473.78
697.54	30043.12
697.67	30265.47
697.80	29951.84
697.94	29535.22
698.07	28992.22
698.21	29172.44
698.34	29273.08
698.47	28893.91
698.61	28339.21
698.74	28343.89
698.87	28828.38
699.01	28137.92
699.14	27995.15
699.27	28231.54
699.40	28144.94
699.54	27985.79
699.67	28224.52
699.80	27749.39
699.94	27531.72
700.07	27828.97
700.20	27173.62
700.34	27311.71
700.47	26768.71
700.60	26520.61
700.73	26410.60
700.87	26040.80
701.00	26195.28
701.13	26246.77
701.26	26185.91
701.40	26078.25
701.53	25965.90
701.66	26375.50
701.79	25319.92
701.93	25458.01
702.06	24931.39
702.19	25233.32
702.32	25156.08
702.46	24882.24
702.59	24753.51
702.72	24570.94
702.85	24994.58
702.99	24680.95
703.12	24442.21
703.25	24306.46
703.38	23969.43
703.51	24198.80
703.65	24067.73
703.78	23290.67
703.91	23510.68
704.04	23489.62
704.17	23384.29
704.31	23454.51
704.44	23253.22
704.57	22972.36
704.70	22773.41
704.83	22717.24
704.96	22609.58
705.10	22029.12
705.23	22228.07
>>>>>End Processed Spectral Data<<<<<
