SpectraSuite Data File
++++++++++++++++++++++++++++++++++++
Date: Fri Oct 25 11:33:10 EDT 2013
User: price-jones
Dark Spectrum Present: No
Reference Spectrum Present: No
Number of Sampled Component Spectra: 1
Spectrometers: USB2+H05261
Integration Time (usec): 100000 (USB2+H05261)
Spectra Averaged: 1 (USB2+H05261)
Boxcar Smoothing: 0 (USB2+H05261)
Correct for Electrical Dark: No (USB2+H05261)
Strobe/Lamp Enabled: No (USB2+H05261)
Correct for Detector Non-linearity: No (USB2+H05261)
Correct for Stray Light: No (USB2+H05261)
Number of Pixels in Processed Spectrum: 2048
>>>>>Begin Processed Spectral Data<<<<<
365.73	271.50
365.92	271.50
366.12	271.50
366.32	166.18
366.52	147.45
366.72	191.92
366.91	201.29
367.11	147.45
367.31	86.60
367.51	203.63
367.70	194.26
367.90	215.33
368.10	217.67
368.30	187.24
368.49	119.37
368.69	205.97
368.89	196.60
369.09	234.05
369.28	182.56
369.48	187.24
369.68	205.97
369.87	184.90
370.07	182.56
370.27	297.25
370.47	353.42
370.66	414.27
370.86	517.26
371.06	528.96
371.25	573.43
371.45	552.37
371.65	475.13
371.84	514.92
372.04	533.64
372.24	566.41
372.44	571.09
372.63	629.60
372.83	580.45
373.03	657.69
373.22	622.58
373.42	599.18
373.62	559.39
373.81	601.52
374.01	608.54
374.21	645.99
374.40	589.82
374.60	608.54
374.79	645.99
374.99	634.29
375.19	624.92
375.38	655.35
375.58	589.82
375.78	627.26
375.97	744.29
376.17	713.86
376.37	643.65
376.56	678.76
376.76	643.65
376.95	671.73
377.15	711.52
377.35	690.46
377.54	695.14
377.74	606.20
377.93	667.05
378.13	676.41
378.33	711.52
378.52	667.05
378.72	683.44
378.91	793.44
379.11	704.50
379.31	674.07
379.50	695.14
379.70	732.59
379.89	713.86
380.09	723.23
380.28	758.33
380.48	650.67
380.68	634.29
380.87	671.73
381.07	758.33
381.26	718.54
381.46	683.44
381.65	748.97
381.85	758.33
382.04	713.86
382.24	861.32
382.43	732.59
382.63	727.91
382.83	814.51
383.02	866.00
383.22	800.46
383.41	788.76
383.61	873.02
383.80	915.15
384.00	819.19
384.19	777.06
384.39	755.99
384.58	856.64
384.78	800.46
384.97	781.74
385.17	777.06
385.36	875.36
385.56	851.96
385.75	807.48
385.95	882.38
386.14	868.34
386.34	870.68
386.53	821.53
386.72	875.36
386.92	884.72
387.11	896.43
387.31	898.77
387.50	959.62
387.70	856.64
387.89	938.55
388.09	912.81
388.28	919.83
388.48	866.00
388.67	1015.79
388.86	938.55
389.06	985.37
389.25	938.55
389.45	926.85
389.64	994.73
389.84	1008.77
390.03	1046.22
390.22	966.64
390.42	1006.43
390.61	1036.86
390.81	950.26
391.00	964.30
391.19	999.41
391.39	978.34
391.58	1006.43
391.78	1029.84
391.97	1022.81
392.16	1034.52
392.36	957.28
392.55	1025.15
392.75	1090.69
392.94	1046.22
393.13	1095.37
393.33	1135.16
393.52	1076.65
393.71	1011.11
393.91	1088.35
394.10	1067.28
394.29	1081.33
394.49	1100.05
394.68	1123.46
394.88	1097.71
395.07	1163.25
395.26	1071.97
395.46	1228.78
395.65	1128.14
395.84	1198.35
396.04	1177.29
396.23	1165.59
396.42	1214.74
396.62	1205.38
396.81	1231.12
397.00	1235.80
397.19	1238.14
397.39	1268.57
397.58	1240.48
397.77	1226.44
397.97	1221.76
398.16	1275.59
398.35	1228.78
398.55	1406.66
398.74	1378.58
398.93	1399.64
399.12	1284.95
399.32	1306.02
399.51	1306.02
399.70	1299.00
399.90	1322.40
400.09	1343.47
400.28	1437.09
400.47	1348.15
400.67	1404.32
400.86	1476.88
401.05	1493.26
401.24	1387.94
401.44	1451.13
401.63	1516.67
401.82	1507.30
402.01	1418.36
402.21	1458.15
402.40	1589.22
402.59	1502.62
402.78	1465.18
402.97	1462.83
403.17	1474.54
403.36	1542.41
403.55	1596.25
403.74	1657.10
403.93	1516.67
404.13	1600.93
404.32	1657.10
404.51	1563.48
404.70	1722.63
404.89	1643.06
405.09	1701.57
405.28	1589.22
405.47	1661.78
405.66	1610.29
405.85	1734.34
406.05	1678.16
406.24	1682.85
406.43	1741.36
406.62	1790.51
406.81	1757.74
407.00	1842.00
407.20	1724.97
407.39	1825.62
407.58	1792.85
407.77	1935.62
407.96	1895.83
408.15	1856.04
408.34	1973.07
408.54	1977.75
408.73	1874.77
408.92	1898.17
409.11	1898.17
409.30	2024.56
409.49	2029.24
409.68	2092.44
409.87	1994.14
410.07	2026.90
410.26	2047.97
410.45	2036.27
410.64	2001.16
410.83	2136.91
411.02	2143.93
411.21	2207.13
411.40	2073.71
411.59	2148.61
411.78	2265.64
411.98	2136.91
412.17	2200.10
412.36	2246.91
412.55	2324.15
412.74	2223.51
412.93	2354.58
413.12	2251.60
413.31	2523.10
413.50	2436.50
413.69	2523.10
413.88	2424.80
414.07	2516.08
414.26	2476.29
414.45	2579.27
414.64	2506.71
414.83	2672.89
415.02	2579.27
415.22	2600.34
415.41	2684.59
415.60	2773.53
415.79	2736.09
415.98	2656.51
416.17	2764.17
416.36	2792.26
416.55	2850.77
416.74	2867.16
416.93	2808.64
417.12	3000.57
417.31	2906.95
417.50	2895.24
417.69	3061.42
417.88	2892.90
418.07	2892.90
418.26	2981.84
418.45	3038.02
418.64	2988.86
418.83	3033.33
419.02	3117.59
419.21	3143.34
419.39	3103.55
419.58	3138.66
419.77	3028.65
419.96	3105.89
420.15	3197.17
420.34	3157.38
420.53	3290.79
420.72	3246.32
420.91	3204.19
421.10	3171.43
421.29	3302.50
421.48	3208.87
421.67	3190.15
421.86	3236.96
422.05	3365.69
422.24	3318.88
422.43	3335.26
422.61	3393.78
422.80	3447.61
422.99	3337.60
423.18	3398.46
423.37	3435.91
423.56	3447.61
423.75	3353.99
423.94	3358.67
424.13	3283.77
424.32	3396.12
424.50	3435.91
424.69	3478.04
424.88	3496.76
425.07	3424.20
425.26	3421.86
425.45	3480.38
425.64	3461.65
425.83	3325.90
426.01	3604.42
426.20	3527.19
426.39	3473.36
426.58	3459.31
426.77	3569.32
426.96	3639.53
427.15	3545.91
427.33	3747.20
427.52	3632.51
427.71	3592.72
427.90	3576.34
428.09	3817.41
428.28	3672.30
428.46	3679.32
428.65	3794.01
428.84	3768.26
429.03	3955.51
429.22	3705.07
429.40	3772.94
429.59	3758.90
429.78	3665.28
429.97	3655.92
430.16	3763.58
430.34	3925.08
430.53	4025.72
430.72	3922.74
430.91	3791.67
431.10	3974.23
431.28	4028.06
431.47	3896.99
431.66	4149.77
431.85	3953.16
432.03	4009.34
432.22	4119.34
432.41	3934.44
432.60	4002.32
432.79	4280.84
432.97	4072.53
433.16	4177.86
433.35	4098.28
433.54	4290.20
433.72	4248.07
433.91	4187.22
434.10	4208.28
434.28	4021.04
434.47	4212.96
434.66	4362.76
434.85	4341.69
435.03	4278.50
435.22	4383.82
435.41	4222.33
435.59	4362.76
435.78	4437.66
435.97	4507.87
436.16	4444.68
436.34	4362.76
436.53	4552.34
436.72	4638.94
436.90	4456.38
437.09	4606.17
437.28	4514.89
437.46	4540.64
437.65	4437.66
437.84	4554.68
438.02	4706.82
438.21	4660.01
438.40	4432.97
438.58	4748.95
438.77	4777.03
438.96	4683.41
439.14	4887.04
439.33	4961.94
439.52	4894.06
439.70	4858.95
439.89	5053.22
440.08	4971.30
440.26	5048.54
440.45	4973.64
440.63	5181.95
440.82	5287.27
441.01	5139.82
441.19	5090.67
441.38	5343.44
441.57	5231.10
441.75	5317.70
441.94	5518.98
442.12	5425.36
442.31	5523.66
442.50	5394.93
442.68	5554.09
442.87	5493.24
443.05	5561.11
443.24	5638.35
443.43	5727.29
443.61	5748.36
443.80	5701.54
443.98	5614.95
444.17	5123.43
444.35	5694.52
444.54	5617.29
444.73	5650.05
444.91	5802.19
445.10	5839.64
445.28	5636.01
445.47	5509.62
445.65	5778.78
445.84	5741.33
446.02	5734.31
446.21	5633.67
446.39	5804.53
446.58	5771.76
446.77	5788.14
446.95	5551.75
447.14	5621.97
447.32	5865.38
447.51	5827.93
447.69	5736.65
447.88	5874.74
448.06	5811.55
448.25	5753.04
448.43	5771.76
448.62	5785.80
448.80	5783.46
448.99	5832.62
449.17	6043.26
449.36	5820.91
449.54	6022.20
449.73	6162.63
449.91	6127.52
450.10	6120.50
450.28	6319.45
450.46	6069.01
450.65	6342.85
450.83	6267.95
451.02	6078.37
451.20	6179.01
451.39	6277.32
451.57	6328.81
451.76	6134.54
451.94	6291.36
452.13	6359.24
452.31	6256.25
452.49	6300.72
452.68	6300.72
452.86	6249.23
453.05	6452.86
453.23	6413.07
453.42	6452.86
453.60	6415.41
453.78	6551.16
453.97	6359.24
454.15	6445.84
454.34	6513.71
454.52	6616.69
454.70	6513.71
454.89	6588.61
455.07	6705.63
455.26	6799.26
455.44	6778.19
455.62	6642.44
455.81	6712.66
455.99	6803.94
456.17	6691.59
456.36	6848.41
456.54	6888.20
456.73	6986.50
456.91	7007.56
457.09	7218.21
457.28	7000.54
457.46	6932.67
457.64	7138.63
457.83	7199.49
458.01	7042.67
458.19	7332.90
458.38	7108.21
458.56	7370.35
458.74	7215.87
458.93	7386.73
459.11	7431.20
459.29	7300.13
459.48	7328.22
459.66	7433.54
459.84	7290.77
460.03	7487.37
460.21	7344.60
460.39	7421.84
460.57	7265.02
460.76	7545.89
460.94	7662.91
461.12	7487.37
461.31	7595.04
461.49	7520.14
461.67	7637.17
461.85	7845.48
462.04	7805.69
462.22	8131.02
462.40	7826.75
462.59	7693.34
462.77	7901.65
462.95	7915.69
463.13	7772.92
463.32	7843.14
463.50	7936.76
463.68	7929.74
463.86	8060.80
464.05	7903.99
464.23	7864.20
464.41	7934.42
464.59	7934.42
464.78	8210.60
464.96	8060.80
465.14	8056.12
465.32	8056.12
465.50	8234.00
465.69	8285.50
465.87	8205.92
466.05	8301.88
466.23	8107.62
466.41	8311.24
466.60	8655.30
466.78	8341.67
466.96	8105.28
467.14	8175.49
467.32	8332.31
467.51	8437.63
467.69	8114.64
467.87	8376.78
468.05	8531.25
468.23	8311.24
468.41	8416.57
468.60	8531.25
468.78	8739.56
468.96	8517.21
469.14	8564.02
469.32	8713.81
469.50	8587.43
469.69	8744.24
469.87	8802.75
470.05	8676.37
470.23	8732.54
470.41	8938.51
470.59	8940.85
470.77	8877.65
470.95	9057.87
471.14	9027.45
471.32	8828.50
471.50	9144.47
471.68	9020.42
471.86	9188.94
472.04	9317.67
472.22	9568.11
472.40	9390.23
472.58	9277.88
472.77	9497.89
472.95	9392.57
473.13	9987.07
473.31	9355.12
473.49	9518.96
473.67	9432.36
473.85	9338.74
474.03	9722.59
474.21	9832.59
474.39	9851.31
474.57	9935.57
474.75	9902.81
474.93	10038.56
475.12	10106.43
475.30	10078.35
475.48	10183.67
475.66	10083.03
475.84	10164.95
476.02	10349.85
476.20	10216.44
476.38	10586.24
476.56	10700.93
476.74	10747.74
476.92	10733.70
477.10	10546.45
477.28	10843.70
477.46	10712.63
477.64	10813.28
477.82	10817.96
478.00	11304.79
478.18	11403.09
478.36	11335.21
478.54	11489.69
478.72	11541.18
478.90	11639.48
479.08	11726.08
479.26	11639.48
479.44	11873.54
479.62	11960.14
479.80	11950.78
479.98	12088.87
480.16	12336.96
480.34	12393.14
480.52	12290.15
480.70	12297.17
480.88	12163.76
481.06	12596.76
481.24	12540.59
481.41	12542.93
481.59	12950.18
481.77	13013.38
481.95	12964.23
482.13	13193.60
482.31	13029.76
482.49	13460.42
482.67	13565.74
482.85	13652.34
483.03	13596.17
483.21	13586.81
483.39	13858.31
483.57	13891.08
483.74	14094.71
483.92	14239.82
484.10	14492.60
484.28	14286.63
484.46	14750.06
484.64	14651.75
484.82	14513.66
485.00	14867.08
485.18	15131.56
485.35	15262.63
485.53	15250.93
485.71	15152.63
485.89	15463.92
486.07	15396.04
486.25	15447.54
486.43	15613.71
486.61	15819.68
486.78	16112.25
486.96	15974.16
487.14	16463.33
487.32	16409.50
487.50	16554.61
487.68	16559.29
487.85	16456.31
488.03	16945.48
488.21	17174.85
488.39	17121.02
488.57	17399.54
488.75	17219.32
488.92	17444.01
489.10	17767.01
489.28	17795.09
489.46	17724.88
489.64	17788.07
489.81	18602.58
489.99	18321.71
490.17	18579.17
490.35	18604.92
490.53	18663.43
490.70	19000.47
490.88	18944.30
491.06	18801.52
491.24	19262.61
491.41	19145.58
491.59	19620.71
491.77	19372.61
491.95	19749.44
492.13	20056.05
492.30	19623.05
492.48	19749.44
492.66	19894.55
492.84	19880.51
493.01	20439.90
493.19	20280.74
493.37	20594.37
493.54	20723.10
493.72	20737.15
493.90	20868.22
494.08	20947.79
494.25	21095.25
494.43	21163.12
494.61	21284.83
494.79	21544.63
494.96	21453.35
495.14	21839.54
495.32	21935.50
495.49	21816.13
495.67	21886.35
495.85	22043.17
496.02	22541.70
496.20	22473.82
496.38	22527.66
496.55	22412.97
496.73	23091.73
496.91	22941.93
497.09	22824.90
497.26	23201.73
497.44	23026.19
497.62	23190.03
497.79	23531.75
497.97	23662.82
498.14	24142.63
498.32	23814.95
498.50	23871.12
498.67	24114.54
498.85	24151.99
499.03	24173.05
499.20	24470.30
499.38	24301.78
499.56	24648.18
499.73	24936.07
499.91	24947.77
500.08	25029.69
500.26	24634.14
500.44	24849.47
500.61	25050.75
500.79	24950.11
500.97	25200.55
501.14	25558.65
501.32	25317.57
501.49	25530.56
501.67	25586.74
501.84	25804.41
502.02	25776.32
502.20	25776.32
502.37	26103.99
502.55	26087.61
502.72	25909.73
502.90	26214.00
503.07	25982.29
503.25	26162.51
503.43	26331.03
503.60	26867.01
503.78	26590.83
503.95	26504.23
504.13	26728.92
504.30	26829.56
504.48	26977.01
504.65	27063.61
504.83	27171.28
505.01	27630.02
505.18	27197.02
505.36	27873.44
505.53	27447.46
505.71	27454.48
505.88	27686.20
506.06	27761.09
506.23	27896.85
506.41	28034.94
506.58	28121.54
506.76	28517.09
506.93	28442.19
507.11	28163.67
507.28	28606.03
507.46	28638.80
507.63	28694.97
507.81	28797.95
507.98	28591.98
508.16	28779.23
508.33	29041.37
508.50	28847.10
508.68	28907.96
508.85	29151.37
509.03	29111.58
509.20	29090.52
509.38	29605.44
509.55	29223.93
509.73	29563.31
509.90	29788.00
510.08	29876.94
510.25	29785.66
510.42	29872.26
510.60	29792.68
510.77	30253.76
510.95	30735.92
511.12	30213.98
511.30	30462.07
511.47	30555.69
511.64	30492.50
511.82	30665.70
511.99	30600.16
512.17	30923.16
512.34	30855.28
512.51	31035.50
512.69	31056.57
512.86	31044.87
513.04	31395.95
513.21	31220.41
513.38	31140.83
513.56	31473.18
513.73	31505.95
513.90	31709.58
514.08	31199.34
514.25	31999.80
514.43	32004.49
514.60	32081.72
514.77	32114.49
514.95	32573.24
515.12	31791.50
515.29	31744.69
515.47	32107.47
515.64	32393.01
515.81	32072.36
515.99	32088.74
516.16	32704.31
516.33	32620.05
516.51	32858.78
516.68	32664.52
516.85	32910.27
517.03	33177.09
517.20	33022.62
517.37	32870.48
517.54	32921.98
517.72	32999.21
517.89	33198.16
518.06	33141.99
518.24	33153.69
518.41	33207.52
518.58	33439.23
518.75	33280.08
518.93	33869.89
519.10	33694.35
519.27	33846.49
519.45	33787.97
519.62	34330.98
519.79	34078.20
519.96	33715.42
520.14	34031.39
520.31	33923.72
520.48	34185.86
520.65	34579.07
520.83	34497.16
521.00	34560.35
521.17	34979.31
521.34	34370.77
521.52	34817.81
521.69	35157.19
521.86	35042.50
522.03	35255.49
522.20	35171.23
522.38	35367.84
522.55	35480.18
522.72	35093.99
522.89	34981.65
523.07	35952.97
523.24	35342.09
523.41	35997.44
523.58	35426.35
523.75	36275.96
523.92	35800.83
524.10	35585.50
524.27	35845.30
524.44	35878.07
524.61	36385.97
524.78	35826.58
524.96	36481.93
525.13	36587.25
525.30	36706.62
525.47	36397.67
525.64	36786.20
525.81	36355.54
525.98	36673.85
526.16	36591.94
526.33	36858.76
526.50	37055.36
526.67	36671.51
526.84	37174.73
527.01	36928.97
527.18	36844.71
527.36	36982.80
527.53	37366.65
527.70	37181.75
527.87	37724.75
528.04	37221.54
528.21	37563.26
528.38	37200.47
528.55	37268.35
528.72	37179.41
528.89	37717.73
529.07	37635.81
529.24	37256.65
529.41	37745.82
529.58	37565.60
529.75	37589.00
529.92	38188.18
530.09	38323.93
530.26	38057.11
530.43	38265.42
530.60	38258.40
530.77	37860.51
530.94	38199.88
531.11	37912.00
531.28	38691.40
531.46	38309.89
531.63	38227.97
531.80	38698.42
531.97	39267.17
532.14	39138.44
532.31	38471.39
532.48	38754.59
532.65	39400.58
532.82	38806.08
532.99	39253.12
533.16	38710.12
533.33	38794.38
533.50	39257.81
533.67	38714.80
533.84	38902.04
534.01	39597.18
534.18	39285.89
534.35	39709.53
534.52	39416.96
534.69	39791.45
534.86	39648.68
535.03	39613.57
535.20	39929.54
535.37	39658.04
535.54	39791.45
535.71	39936.56
535.88	39800.81
536.05	40130.83
536.22	40126.14
536.38	40156.57
536.55	40098.06
536.72	39896.77
536.89	40062.95
537.06	40561.48
537.23	40580.21
537.40	40053.59
537.57	40404.67
537.74	39992.73
537.91	40730.00
538.08	40641.06
538.25	40254.87
538.42	40891.50
538.59	41406.42
538.75	40720.64
538.92	40954.69
539.09	40959.38
539.26	40835.33
539.43	40479.57
539.60	41137.26
539.77	41347.90
539.94	41333.86
540.11	41420.46
540.28	40783.83
540.44	41256.62
540.61	40786.18
540.78	40973.42
540.95	41275.35
541.12	41177.04
541.29	41256.62
541.46	41464.93
541.62	41495.36
541.79	41876.86
541.96	41104.49
542.13	41401.74
542.30	41881.55
542.47	41965.81
542.63	42007.94
542.80	42230.29
542.97	42160.07
543.14	42443.27
543.31	42459.66
543.48	42050.06
543.64	42677.33
543.81	42586.05
543.98	42459.66
544.15	42466.68
544.32	42787.33
544.48	42672.65
544.65	42674.99
544.82	42822.44
544.99	42412.85
545.16	42923.08
545.32	42782.65
545.49	43154.80
545.66	42897.34
545.83	43267.14
546.00	43173.52
546.16	42876.27
546.33	43056.50
546.50	42686.69
546.67	43297.57
546.83	42398.80
547.00	42824.78
547.17	43358.42
547.34	42906.70
547.50	43105.65
547.67	43550.35
547.84	43007.34
548.00	43402.89
548.17	43423.96
548.34	43498.86
548.51	43484.81
548.67	43704.82
548.84	43445.02
549.01	43791.42
549.18	43622.90
549.34	43669.72
549.51	43550.35
549.68	43849.94
549.84	43856.96
550.01	44048.88
550.18	43856.96
550.34	43945.90
550.51	43976.33
550.68	44004.41
550.84	44053.56
551.01	44463.16
551.18	43915.47
551.34	44013.77
551.51	44493.58
551.68	44491.24
551.84	44198.68
552.01	44198.68
552.18	44250.17
552.34	44060.58
552.51	44549.76
552.68	43779.72
552.84	44566.14
553.01	44292.30
553.18	44994.46
553.34	45031.91
553.51	44383.58
553.67	44996.80
553.84	44610.61
554.01	44289.96
554.17	44708.91
554.34	45539.80
554.51	44966.37
554.67	44645.72
554.84	45045.95
555.00	45008.50
555.17	44940.63
555.33	45052.97
555.50	45050.63
555.67	45298.73
555.83	45029.57
556.00	45085.74
556.16	45752.79
556.33	45338.52
556.50	44971.05
556.66	45670.87
556.83	45205.11
556.99	45581.93
557.16	45375.97
557.32	45610.02
557.49	45298.73
557.65	45212.13
557.82	45572.57
557.98	45546.82
558.15	45345.54
558.32	45813.65
558.48	45261.28
558.65	45738.75
558.81	45729.39
558.98	45734.07
559.14	45921.31
559.31	45794.92
559.47	45610.02
559.64	45904.93
559.80	45949.40
559.97	45925.99
560.13	45708.32
560.30	45839.39
560.46	46246.65
560.63	46244.30
560.79	46213.88
560.96	46450.27
561.12	46040.68
561.29	45921.31
561.45	46171.75
561.61	45977.48
561.78	46375.37
561.94	46071.10
562.11	46096.85
562.27	46298.14
562.44	46223.24
562.60	46174.09
562.77	45963.44
562.93	46150.68
563.10	46494.74
563.26	46230.26
563.42	46993.28
563.59	46164.73
563.75	46192.81
563.92	46459.63
564.08	46358.99
564.24	46424.53
564.41	46197.49
564.57	46487.72
564.74	46579.00
564.90	46515.81
565.07	46251.33
565.23	46782.63
565.39	46506.44
565.56	46955.83
565.72	46384.74
565.88	46934.76
566.05	46773.27
566.21	46864.55
566.38	46543.89
566.54	46796.67
566.70	46855.18
566.87	46440.91
567.03	46394.10
567.19	46684.33
567.36	46869.23
567.52	46501.76
567.68	47255.42
567.85	47241.37
568.01	46967.53
568.17	46822.42
568.34	46850.50
568.50	47285.84
568.66	46745.18
568.83	46707.73
568.99	46658.58
569.15	46714.75
569.32	46714.75
569.48	46862.21
569.64	47047.11
569.81	47117.32
569.97	46852.84
570.13	47227.33
570.30	47150.09
570.46	46878.59
570.62	46948.81
570.78	46862.21
570.95	46857.52
571.11	47283.50
571.27	47023.70
571.43	46712.41
571.60	47012.00
571.76	47147.75
571.92	47611.18
572.09	47206.26
572.25	47342.02
572.41	46939.44
572.57	47253.08
572.74	47681.39
572.90	47334.99
573.06	47297.55
573.22	47356.06
573.38	47201.58
573.55	47704.80
573.71	47749.27
573.87	47606.50
574.03	47377.12
574.20	47742.25
574.36	47866.30
574.52	46941.78
574.68	47625.22
574.84	47515.22
575.01	47667.35
575.17	47196.90
575.33	47449.68
575.49	47433.30
575.65	47327.97
575.82	47363.08
575.98	47086.90
576.14	47342.02
576.30	47866.30
576.46	47842.89
576.62	47496.49
576.79	47505.85
576.95	47210.95
577.11	47224.99
577.27	47421.59
577.43	47714.16
577.59	47440.32
577.75	47264.78
577.92	47419.25
578.08	47667.35
578.24	47573.73
578.40	47604.16
578.56	47477.77
578.72	47374.78
578.88	47650.97
579.04	47342.02
579.21	47522.24
579.37	47147.75
579.53	47608.84
579.69	47662.67
579.85	47456.70
580.01	47454.36
580.17	47440.32
580.33	47819.49
580.49	47674.37
580.65	47765.65
580.82	47232.01
580.98	47618.20
581.14	47515.22
581.30	47571.39
581.46	47152.43
581.62	46967.53
581.78	47145.41
581.94	47908.43
582.10	47791.40
582.26	47765.65
582.42	47763.31
582.58	47786.72
582.74	47725.86
582.90	47936.51
583.06	47660.33
583.22	47622.88
583.38	47870.98
583.54	47489.47
583.70	48025.45
583.86	47695.44
584.02	47917.79
584.18	48044.18
584.34	48105.03
584.50	47931.83
584.66	47971.62
584.82	47686.07
584.98	47782.04
585.14	47756.29
585.30	48072.26
585.46	47590.11
585.62	47775.02
585.78	48030.13
585.94	47325.63
586.10	47344.36
586.26	47859.27
586.42	47601.82
586.58	48020.77
586.74	48079.28
586.90	47636.92
587.06	47800.76
587.22	48100.35
587.38	47618.20
587.54	47880.34
587.70	48079.28
587.86	47882.68
588.02	47964.60
588.18	47985.66
588.34	47615.86
588.49	47899.06
588.65	47812.46
588.81	48090.99
588.97	47777.36
589.13	48083.97
589.29	47964.60
589.45	47999.71
589.61	48191.63
589.77	48292.27
589.93	47927.15
590.08	48329.72
590.24	48343.77
590.40	48442.07
590.56	48765.06
590.72	48121.41
590.88	48069.92
591.04	48245.46
591.20	48147.16
591.35	48622.29
591.51	48725.27
591.67	48406.96
591.83	48411.64
591.99	48339.08
592.15	48371.85
592.31	48369.51
592.46	48121.41
592.62	48552.07
592.78	48638.67
592.94	48374.19
593.10	48416.32
593.26	48470.15
593.41	48821.23
593.57	48329.72
593.73	48339.08
593.89	48311.00
594.05	48914.86
594.20	48678.46
594.36	49109.12
594.52	48563.78
594.68	48858.68
594.84	48577.82
594.99	48559.09
595.15	48744.00
595.31	48493.56
595.47	48624.63
595.62	48816.55
595.78	48376.53
595.94	48584.84
596.10	48729.95
596.25	48631.65
596.41	48687.82
596.57	48182.27
596.73	48741.66
596.88	48914.86
597.04	48657.40
597.20	48755.70
597.36	49076.35
597.51	48568.46
597.67	48076.94
597.83	48376.53
597.99	48643.35
598.14	48409.30
598.30	48573.14
598.46	48641.01
598.61	48931.24
598.77	48456.11
598.93	48554.41
599.09	48472.49
599.24	48697.19
599.40	48758.04
599.56	48786.13
599.71	49216.78
599.87	49085.72
600.03	48685.48
600.18	48563.78
600.34	48711.23
600.50	48835.28
600.65	48687.82
600.81	49081.03
600.97	48769.74
601.12	48985.07
601.28	48694.85
601.44	48629.31
601.59	48498.24
601.75	48566.12
601.91	48907.83
602.06	48432.71
602.22	48762.72
602.37	48605.91
602.53	48790.81
602.69	48945.28
602.84	48582.50
603.00	48388.24
603.16	48474.84
603.31	48509.94
603.47	49111.46
603.62	48910.17
603.78	48854.00
603.94	48832.94
604.09	48767.40
604.25	48523.99
604.40	48376.53
604.56	48765.06
604.71	48928.90
604.87	48301.64
605.03	48500.58
605.18	48933.58
605.34	48636.33
605.49	48348.45
605.65	48882.09
605.80	48446.75
605.96	48769.74
606.12	48505.26
606.27	48587.18
606.43	48280.57
606.58	49048.27
606.74	48736.98
606.89	48708.89
607.05	49055.29
607.20	48980.39
607.36	48697.19
607.51	48830.60
607.67	48465.47
607.82	48589.52
607.98	48947.62
608.13	48680.80
608.29	48346.11
608.44	48591.86
608.60	48612.93
608.75	48802.51
608.91	48418.66
609.06	48273.55
609.22	48692.50
609.37	48531.01
609.53	48648.03
609.68	48432.71
609.84	48121.41
609.99	48896.13
610.15	48685.48
610.30	48383.55
610.46	48563.78
610.61	48479.52
610.76	48421.00
610.92	48444.41
611.07	48502.92
611.23	47910.77
611.38	48226.74
611.54	48039.50
611.69	48528.67
611.84	48491.22
612.00	48484.20
612.15	48009.07
612.31	48247.80
612.46	48320.36
612.62	48025.45
612.77	48184.61
612.92	48465.47
613.08	48055.88
613.23	48156.52
613.39	47817.14
613.54	47765.65
613.69	48505.26
613.85	48165.88
614.00	48069.92
614.15	48060.56
614.31	47648.63
614.46	47817.14
614.62	47861.61
614.77	48116.73
614.92	47800.76
615.08	47814.80
615.23	48179.93
615.38	48114.39
615.54	47702.46
615.69	48266.53
615.84	47887.36
616.00	48083.97
616.15	48200.99
616.30	47948.21
616.46	48058.22
616.61	47903.74
616.76	48090.99
616.92	47667.35
617.07	48163.54
617.22	47969.28
617.37	47220.31
617.53	47779.70
617.68	47377.12
617.83	47880.34
617.99	47494.15
618.14	47779.70
618.29	47828.85
618.45	47519.90
618.60	47732.89
618.75	47103.28
618.90	47096.26
619.06	47409.89
619.21	47519.90
619.36	47650.97
619.51	47636.92
619.67	47641.60
619.82	47585.43
619.97	47529.26
620.12	47522.24
620.28	47681.39
620.43	47611.18
620.58	47709.48
620.73	47686.07
620.89	47388.83
621.04	47419.25
621.19	47505.85
621.34	47524.58
621.49	47178.18
621.65	47098.60
621.80	47728.20
621.95	47232.01
622.10	47145.41
622.25	47213.29
622.41	46663.26
622.56	47222.65
622.71	47082.22
622.86	47660.33
623.01	47112.64
623.16	47070.51
623.32	47002.64
623.47	46983.91
623.62	46693.69
623.77	47117.32
623.92	47140.73
624.07	47129.03
624.23	46946.47
624.38	47140.73
624.53	47079.88
624.68	46728.80
624.83	46962.85
624.98	46728.80
625.13	46244.30
625.29	46607.09
625.44	46897.31
625.59	46529.85
625.74	46157.70
625.89	46740.50
626.04	46674.96
626.19	46770.93
626.34	46450.27
626.49	46618.79
626.65	46244.30
626.80	46553.26
626.95	46394.10
627.10	46471.34
627.25	46309.84
627.40	46167.07
627.55	46258.35
627.70	46417.50
627.85	46831.78
628.00	46766.24
628.15	46293.46
628.30	45556.19
628.45	45757.47
628.60	46092.17
628.76	46160.05
628.91	46452.61
629.06	46000.89
629.21	46263.03
629.36	45832.37
629.51	46396.44
629.66	46801.35
629.81	46057.06
629.96	45940.04
630.11	46300.48
630.26	45883.86
630.41	46174.09
630.56	45460.23
630.71	45787.90
630.86	45743.43
631.01	45904.93
631.16	45397.03
631.31	45691.94
631.46	45787.90
631.61	46129.62
631.76	45860.46
631.91	46300.48
632.06	45853.44
632.21	46277.07
632.36	45729.39
632.51	45368.94
632.66	45998.55
632.81	45848.75
632.96	45485.97
633.10	45478.95
633.25	45673.21
633.40	45832.37
633.55	45464.91
633.70	45364.26
633.85	45235.53
634.00	44832.96
634.15	45418.10
634.30	45251.92
634.45	45221.49
634.60	45399.37
634.75	45329.16
634.90	44975.73
635.05	45305.75
635.19	45324.47
635.34	45404.05
635.49	44839.98
635.64	45034.25
635.79	45406.39
635.94	44952.33
636.09	45478.95
636.24	45312.77
636.39	44879.77
636.53	44924.24
636.68	44362.51
636.83	44823.60
636.98	44481.88
637.13	44465.50
637.28	44807.22
637.43	44797.85
637.57	45003.82
637.72	44589.55
637.87	44907.86
638.02	44713.59
638.17	44680.83
638.32	44456.14
638.46	44573.16
638.61	44421.03
638.76	44137.82
638.91	44851.69
639.06	44074.63
639.20	44498.26
639.35	44212.72
639.50	44030.16
639.65	44133.14
639.80	44711.25
639.94	44655.08
640.09	44383.58
640.24	44421.03
640.39	43910.79
640.54	43847.60
640.68	44332.09
640.83	44832.96
640.98	43950.58
641.13	43728.23
641.27	44264.21
641.42	44418.69
641.57	44463.16
641.72	44268.89
641.86	43812.49
642.01	43643.97
642.16	44201.02
642.31	43667.37
642.45	43957.60
642.60	43922.49
642.75	43643.97
642.90	44072.29
643.04	43667.37
643.19	43702.48
643.34	43732.91
643.48	43421.62
643.63	43646.31
643.78	43454.39
643.93	43777.38
644.07	43978.67
644.22	43718.87
644.37	43489.49
644.51	43391.19
644.66	43854.62
644.81	43260.12
644.95	43658.01
645.10	43583.12
645.25	43611.20
645.39	43302.25
645.54	43346.72
645.69	43189.91
645.83	42990.96
645.98	43117.35
646.13	43421.62
646.27	43405.23
646.42	43194.59
646.57	43129.05
646.71	43409.92
646.86	43264.80
647.00	43255.44
647.15	43377.15
647.30	43674.40
647.44	43302.25
647.59	43325.66
647.74	43330.34
647.88	43166.50
648.03	43435.66
648.17	43512.90
648.32	43573.75
648.47	43449.70
648.61	43089.26
648.76	42892.66
648.90	42738.18
649.05	42885.64
649.20	42665.63
649.34	43290.55
649.49	43012.02
649.63	42749.88
649.78	42939.47
649.92	42677.33
650.07	43576.09
650.21	43086.92
650.36	42815.42
650.51	42628.18
650.65	43100.97
650.80	42974.58
650.94	42749.88
651.09	42817.76
651.23	42110.92
651.38	42518.17
651.52	42171.77
651.67	42632.86
651.81	42649.24
651.96	41975.17
652.10	42646.90
652.25	41942.40
652.39	42040.70
652.54	42171.77
652.68	42340.29
652.83	41787.92
652.97	42506.47
653.12	42181.13
653.26	42160.07
653.41	42731.16
653.55	41918.99
653.70	42499.45
653.84	42775.63
653.99	42359.02
654.13	42621.16
654.27	42071.13
654.42	41825.37
654.56	42284.12
654.71	42211.56
654.85	42270.08
655.00	42099.22
655.14	42359.02
655.29	42047.72
655.43	41907.29
655.57	41422.80
655.72	41467.27
655.86	41488.34
656.01	41429.82
656.15	41179.39
656.30	41645.15
656.44	41869.84
656.58	42087.51
656.73	42080.49
656.87	41352.58
657.01	41474.29
657.16	41371.31
657.30	41816.01
657.45	41511.74
657.59	41289.39
657.73	41443.87
657.88	41422.80
658.02	41647.49
658.16	41940.06
658.31	41261.30
658.45	41486.00
658.60	40793.20
658.74	41338.54
658.88	41003.85
659.03	40556.80
659.17	41219.17
659.31	40495.95
659.46	40612.98
659.60	40875.12
659.74	40650.42
659.89	40641.06
660.03	40093.38
660.17	40275.94
660.32	40421.05
660.46	40301.68
660.60	40266.58
660.74	40449.14
660.89	40692.55
661.03	40041.88
661.17	39903.79
661.32	39976.35
661.46	40168.27
661.60	40165.93
661.74	40128.48
661.89	39625.27
662.03	40198.70
662.17	39583.14
662.31	39964.65
662.46	40198.70
662.60	40107.42
662.74	39452.07
662.88	39695.49
663.03	39124.40
663.17	39477.82
663.31	39440.37
663.45	39349.09
663.60	39405.26
663.74	39597.18
663.88	39440.37
664.02	39311.64
664.17	39590.16
664.31	39335.04
664.45	39447.39
664.59	38979.28
664.73	39007.37
664.88	39096.31
665.02	38539.26
665.16	38888.00
665.30	39166.52
665.44	38721.82
665.59	38490.11
665.73	38651.61
665.87	38155.41
666.01	38754.59
666.15	38920.77
666.29	38239.67
666.44	38323.93
666.58	38525.22
666.72	37989.24
666.86	37923.70
667.00	38279.46
667.14	37900.29
667.28	38010.30
667.43	38188.18
667.57	38457.34
667.71	38232.65
667.85	38134.35
667.99	37883.91
668.13	37668.58
668.27	37439.21
668.41	37146.64
668.56	37074.09
668.70	37310.48
668.84	36868.12
668.98	37015.57
669.12	37329.20
669.26	37427.51
669.40	37338.57
669.54	37174.73
669.68	36907.91
669.82	36861.10
669.96	36292.35
670.10	36596.62
670.25	36842.37
670.39	36587.25
670.53	37015.57
670.67	36273.62
670.81	37074.09
670.95	36669.17
671.09	36421.08
671.23	36336.82
671.37	36357.88
671.51	36261.92
671.65	36180.00
671.79	36074.68
671.93	36187.02
672.07	36346.18
672.21	35723.60
672.35	35557.42
672.49	35292.94
672.63	35821.90
672.77	35620.61
672.91	35498.91
673.05	35311.66
673.19	35344.43
673.33	34843.56
673.47	34995.69
673.61	34778.02
673.75	34855.26
673.89	35005.05
674.03	34696.10
674.17	34621.20
674.31	34047.77
674.45	34508.86
674.59	34761.64
674.73	33928.41
674.87	34242.04
675.01	34216.29
675.15	34031.39
675.29	33703.71
675.43	33947.13
675.56	33935.43
675.70	33738.82
675.84	33364.34
675.98	32414.08
676.12	33717.76
676.26	33872.23
676.40	33170.07
676.54	33001.55
676.68	33376.04
676.82	32980.49
676.96	33130.28
677.10	33343.27
677.23	32802.61
677.37	32980.49
677.51	32624.73
677.65	32542.81
677.79	32615.37
677.93	32212.79
678.07	32610.68
678.21	31679.15
678.34	31941.29
678.48	32238.54
678.62	31927.25
678.76	31807.88
678.90	31541.06
679.04	31655.75
679.18	32009.17
679.31	31566.81
679.45	31419.35
679.59	31136.15
679.73	31407.65
679.87	30944.22
680.00	30845.92
680.14	31150.19
680.28	30593.14
680.42	31087.00
680.56	30925.50
680.70	30476.12
680.83	30225.68
680.97	29961.20
681.11	30110.99
681.25	29696.72
681.39	29539.90
681.52	29942.47
681.66	29249.67
681.80	29266.06
681.94	29184.14
682.07	28952.43
682.21	28957.11
682.35	29198.18
682.49	28947.75
682.62	29055.41
682.76	29268.40
682.90	28907.96
683.04	28870.51
683.17	28849.44
683.31	28346.23
683.45	28493.68
683.59	28404.74
683.72	28320.48
683.86	28336.87
684.00	27756.41
684.13	27840.67
684.27	27873.44
684.41	27948.34
684.55	27922.59
684.68	27618.32
684.82	27051.91
684.96	27314.05
685.09	27400.65
685.23	27796.20
685.37	27573.85
685.50	27852.38
685.64	27208.73
685.78	27019.14
685.91	26567.42
686.05	26370.82
686.19	26071.23
686.32	26450.39
686.46	26017.40
686.60	25769.30
686.73	25914.41
686.87	25937.82
687.01	26174.21
687.14	25928.45
687.28	25766.96
687.42	25448.64
687.55	25685.04
687.69	25170.12
687.82	25411.20
687.96	25357.36
688.10	25069.48
688.23	25153.74
688.37	25439.28
688.50	25621.84
688.64	24718.40
688.78	24961.81
688.91	24594.35
689.05	24737.12
689.18	23999.85
689.32	23683.88
689.46	24056.03
689.59	24479.66
689.73	24463.28
689.86	23978.79
690.00	23843.04
690.13	24308.80
690.27	23838.36
690.41	23508.34
690.54	23297.69
690.68	23122.15
690.81	23309.40
690.95	23253.22
691.08	23412.38
691.22	22925.55
691.35	23000.44
691.49	23133.86
691.62	22852.99
691.76	22300.62
691.89	22663.41
692.03	22139.13
692.16	22232.75
692.30	22237.43
692.43	22309.99
692.57	22080.61
692.70	21830.18
692.84	22036.14
692.97	21802.09
693.11	21846.56
693.24	21092.91
693.38	21261.43
693.51	21160.78
693.65	21020.35
693.78	21238.02
693.92	20716.08
694.05	20947.79
694.19	21097.59
694.32	21067.16
694.45	21167.80
694.59	20994.61
694.72	20570.97
694.86	20711.40
694.99	20615.44
695.13	20313.51
695.26	20032.65
695.39	20056.05
695.53	19995.20
695.66	20037.33
695.80	19829.02
695.93	20009.24
696.07	19475.60
696.20	19379.64
696.33	19374.95
696.47	19232.18
696.60	19131.54
696.73	19328.14
696.87	19337.51
697.00	18948.98
697.14	18810.89
697.27	18752.37
697.40	18616.62
697.54	18960.68
697.67	18663.43
697.80	18417.68
697.94	18546.40
698.07	18501.93
698.21	18150.85
698.34	18628.32
698.47	18111.07
698.61	17640.62
698.74	18057.23
698.87	17914.46
699.01	17958.93
699.14	17774.03
699.27	17584.44
699.40	17689.77
699.54	17486.14
699.67	17233.36
699.80	17582.10
699.94	17146.76
700.07	17397.20
700.20	16994.63
700.34	17118.68
700.47	17085.91
700.60	17261.45
700.73	16746.53
700.87	16563.97
701.00	16500.78
701.13	16397.79
701.26	16168.42
701.40	16545.25
701.53	16372.05
701.66	16489.07
701.79	16027.99
701.93	15943.73
702.06	15896.92
702.19	15602.01
702.32	15751.81
702.46	15637.12
702.59	15737.76
702.72	15580.95
702.85	15726.06
702.99	15499.03
703.12	15147.95
703.25	15309.44
703.38	15098.80
703.51	15257.95
703.65	14831.97
703.78	14663.46
703.91	14670.48
704.04	14909.21
704.17	14761.76
704.31	14857.72
704.44	14750.06
704.57	14541.75
704.70	14590.90
704.83	14356.85
704.96	14314.72
705.10	14267.91
705.23	14204.71
>>>>>End Processed Spectral Data<<<<<
