SpectraSuite Data File
++++++++++++++++++++++++++++++++++++
Date: Fri Oct 25 11:26:03 EDT 2013
User: price-jones
Dark Spectrum Present: No
Reference Spectrum Present: No
Number of Sampled Component Spectra: 1
Spectrometers: USB2+H05261
Integration Time (usec): 100000 (USB2+H05261)
Spectra Averaged: 1 (USB2+H05261)
Boxcar Smoothing: 0 (USB2+H05261)
Correct for Electrical Dark: No (USB2+H05261)
Strobe/Lamp Enabled: No (USB2+H05261)
Correct for Detector Non-linearity: No (USB2+H05261)
Correct for Stray Light: No (USB2+H05261)
Number of Pixels in Processed Spectrum: 2048
>>>>>Begin Processed Spectral Data<<<<<
365.73	276.18
365.92	276.18
366.12	276.18
366.32	121.71
366.52	110.01
366.72	154.48
366.91	149.79
367.11	72.56
367.31	156.82
367.51	191.92
367.70	81.92
367.90	152.13
368.10	126.39
368.30	145.11
368.49	84.26
368.69	187.24
368.89	180.22
369.09	180.22
369.28	177.88
369.48	102.98
369.68	208.31
369.87	227.03
370.07	203.63
370.27	234.05
370.47	353.42
370.66	641.31
370.86	657.69
371.06	657.69
371.25	704.50
371.45	629.60
371.65	655.35
371.84	692.80
372.04	645.99
372.24	706.84
372.44	732.59
372.63	784.08
372.83	678.76
373.03	676.41
373.22	760.67
373.42	748.97
373.62	805.14
373.81	833.23
374.01	826.21
374.21	791.10
374.40	767.70
374.60	844.93
374.79	833.23
374.99	821.53
375.19	791.10
375.38	830.89
375.58	851.96
375.78	849.61
375.97	807.48
376.17	828.55
376.37	910.47
376.56	819.19
376.76	910.47
376.95	896.43
377.15	964.30
377.35	854.30
377.54	891.74
377.74	919.83
377.93	887.06
378.13	875.36
378.33	947.92
378.52	896.43
378.72	1013.45
378.91	961.96
379.11	968.98
379.31	931.53
379.50	959.62
379.70	1001.75
379.89	959.62
380.09	1076.65
380.28	999.41
380.48	954.94
380.68	1029.84
380.87	1029.84
381.07	1067.28
381.26	1046.22
381.46	901.11
381.65	1022.81
381.85	1022.81
382.04	1142.18
382.24	1144.52
382.43	1060.26
382.63	1090.69
382.83	1041.54
383.02	1125.80
383.22	1132.82
383.41	1132.82
383.61	1118.78
383.80	1135.16
384.00	1160.91
384.19	1156.22
384.39	1203.04
384.58	1104.73
384.78	1191.33
384.97	1095.37
385.17	1095.37
385.36	1128.14
385.56	1170.27
385.75	1210.06
385.95	1235.80
386.14	1167.93
386.34	1130.48
386.53	1247.51
386.72	1200.69
386.92	1270.91
387.11	1348.15
387.31	1266.23
387.50	1184.31
387.70	1256.87
387.89	1277.93
388.09	1238.14
388.28	1247.51
388.48	1287.29
388.67	1303.68
388.86	1383.26
389.06	1256.87
389.25	1306.02
389.45	1273.25
389.64	1254.53
389.84	1401.98
390.03	1291.98
390.22	1369.21
390.42	1401.98
390.61	1341.13
390.81	1401.98
391.00	1364.53
391.19	1476.88
391.39	1437.09
391.58	1481.56
391.78	1453.47
391.97	1472.20
392.16	1540.07
392.36	1500.28
392.55	1462.83
392.75	1509.65
392.94	1547.09
393.13	1535.39
393.33	1514.33
393.52	1535.39
393.71	1568.16
393.91	1530.71
394.10	1577.52
394.29	1596.25
394.49	1565.82
394.68	1563.48
394.88	1600.93
395.07	1673.48
395.26	1689.87
395.46	1706.25
395.65	1755.40
395.84	1703.91
396.04	1746.04
396.23	1699.23
396.42	1729.66
396.62	1717.95
396.81	1790.51
397.00	1783.49
397.19	1755.40
397.39	1842.00
397.58	1839.66
397.77	1732.00
397.97	1916.90
398.16	1753.06
398.35	1757.74
398.55	1820.94
398.74	1954.35
398.93	1928.60
399.12	1933.28
399.32	1912.22
399.51	1900.52
399.70	2022.22
399.90	2012.86
400.09	2059.67
400.28	2008.18
400.47	2010.52
400.67	2094.78
400.86	2064.35
401.05	2008.18
401.24	2090.10
401.44	2118.18
401.63	2225.85
401.82	2181.38
402.01	2146.27
402.21	2165.00
402.40	2111.16
402.59	2209.47
402.78	2260.96
402.97	2230.53
403.17	2249.25
403.36	2253.94
403.55	2272.66
403.74	2387.35
403.93	2333.51
404.13	2352.24
404.32	2331.17
404.51	2296.07
404.70	2473.95
404.89	2368.62
405.09	2534.80
405.28	2506.71
405.47	2441.18
405.66	2583.95
405.85	2572.25
406.05	2586.29
406.24	2518.42
406.43	2509.05
406.62	2628.42
406.81	2597.99
407.00	2651.83
407.20	2576.93
407.39	2686.94
407.58	2806.30
407.77	2651.83
407.96	2656.51
408.15	2787.58
408.34	2630.76
408.54	2815.66
408.73	2787.58
408.92	2857.79
409.11	2862.48
409.30	2843.75
409.49	2920.99
409.68	2897.58
409.87	2965.46
410.07	2925.67
410.26	3016.95
410.45	3068.44
410.64	3080.14
410.83	2930.35
411.02	3187.81
411.21	3084.83
411.40	3098.87
411.59	3201.85
411.78	3169.09
411.98	3192.49
412.17	3243.98
412.36	3314.20
412.55	3323.56
412.74	3349.31
412.93	3365.69
413.12	3251.00
413.31	3473.36
413.50	3435.91
413.69	3508.46
413.88	3637.19
414.07	3733.15
414.26	3698.05
414.45	3604.42
414.64	3674.64
414.83	3679.32
415.02	3735.50
415.22	3859.54
415.41	3861.88
415.60	3836.14
415.79	3950.82
415.98	4102.96
416.17	4025.72
416.36	3955.51
416.55	3983.59
416.74	4182.54
416.93	4166.15
417.12	4170.83
417.31	4189.56
417.50	4077.21
417.69	4311.27
417.88	4287.86
418.07	4241.05
418.26	4187.22
418.45	4341.69
418.64	4376.80
418.83	4388.50
419.02	4318.29
419.21	4444.68
419.39	4667.03
419.58	4596.81
419.77	4550.00
419.96	4479.79
420.15	4655.33
420.34	4531.28
420.53	4594.47
420.72	4678.73
420.91	4781.71
421.10	4683.41
421.29	4858.95
421.48	4856.61
421.67	4760.65
421.86	4627.24
422.05	4968.96
422.24	5013.43
422.43	4786.40
422.61	4945.55
422.80	4744.27
422.99	4873.00
423.18	5062.58
423.37	4999.38
423.56	4833.21
423.75	4812.14
423.94	4903.42
424.13	4587.45
424.32	4711.50
424.50	4943.21
424.69	4994.70
424.88	5231.10
425.07	4964.28
425.26	5041.51
425.45	4784.06
425.64	5011.09
425.83	5055.56
426.01	4999.38
426.20	4975.98
426.39	5163.22
426.58	5085.98
426.77	4961.94
426.96	5158.54
427.15	5144.50
427.33	5104.71
427.52	5254.50
427.71	5174.92
427.90	5317.70
428.09	5212.37
428.28	5341.10
428.46	5399.62
428.65	5289.61
428.84	5533.03
429.03	5528.35
429.22	5373.87
429.40	5509.62
429.59	5425.36
429.78	5376.21
429.97	5270.89
430.16	5493.24
430.34	5593.88
430.53	5713.25
430.72	5722.61
430.91	5703.89
431.10	5638.35
431.28	5631.33
431.47	5771.76
431.66	5792.83
431.85	5671.12
432.03	6001.13
432.22	5989.43
432.41	5954.32
432.60	5900.49
432.79	5961.34
432.97	5937.94
433.16	6094.76
433.35	6054.97
433.54	6150.93
433.72	6054.97
433.91	6146.25
434.10	6202.42
434.28	6026.88
434.47	6160.29
434.66	6270.30
434.85	6321.79
435.03	6296.04
435.22	6260.93
435.41	6361.58
435.59	6396.68
435.78	6492.65
435.97	6361.58
436.16	6471.58
436.34	6370.94
436.53	6490.31
436.72	6698.61
436.90	6537.12
437.09	6750.10
437.28	6429.45
437.46	6525.41
437.65	6696.27
437.84	6796.92
438.02	6663.51
438.21	6789.89
438.40	6633.08
438.58	6841.39
438.77	7000.54
438.96	7002.88
439.14	6927.99
439.33	7178.42
439.52	7173.74
439.70	7185.44
439.89	7431.20
440.08	7344.60
440.26	7185.44
440.45	7258.00
440.63	7499.08
440.82	7625.47
441.01	7585.68
441.19	7499.08
441.38	7702.70
441.57	7672.28
441.75	7805.69
441.94	7911.01
442.12	7992.93
442.31	7988.25
442.50	8234.00
442.68	7833.77
442.87	7899.31
443.05	7999.95
443.24	8156.77
443.43	8021.02
443.61	8365.07
443.80	8500.83
443.98	8182.51
444.17	7815.05
444.35	8245.71
444.54	8425.93
444.73	8397.84
444.91	8163.79
445.10	8224.64
445.28	8114.64
445.47	8332.31
445.65	8222.30
445.84	8510.19
446.02	8439.97
446.21	8327.63
446.39	8439.97
446.58	8465.72
446.77	8472.74
446.95	8226.98
447.14	8400.18
447.32	8617.85
447.51	8554.66
447.69	8479.76
447.88	8456.36
448.06	8423.59
448.25	8376.78
448.43	8524.23
448.62	8336.99
448.80	8557.00
448.99	8648.28
449.17	8638.92
449.36	8564.02
449.54	8840.20
449.73	8987.66
449.91	8929.14
450.10	8975.95
450.28	8929.14
450.46	9242.78
450.65	9092.98
450.83	9139.79
451.02	9004.04
451.20	9104.68
451.39	9254.48
451.57	9158.52
451.76	8950.21
451.94	9165.54
452.13	9476.83
452.31	9224.05
452.49	9111.71
452.68	9357.46
452.86	9371.50
453.05	9430.02
453.23	9380.87
453.42	9195.96
453.60	9418.32
453.78	9607.90
453.97	9380.87
454.15	9556.41
454.34	9493.21
454.52	9549.39
454.70	9547.05
454.89	9650.03
455.07	9547.05
455.26	9624.28
455.44	9760.03
455.62	9900.47
455.81	9760.03
455.99	10022.17
456.17	9863.02
456.36	9968.34
456.54	10143.88
456.73	10188.35
456.91	10675.18
457.09	10312.40
457.28	10518.37
457.46	10305.38
457.64	10342.83
457.83	10338.15
458.01	10286.65
458.19	10789.87
458.38	10445.81
458.56	10651.78
458.74	10733.70
458.93	10682.20
459.11	10839.02
459.29	10731.36
459.48	10799.23
459.66	10944.34
459.84	10916.26
460.03	10977.11
460.21	10860.09
460.39	10991.16
460.57	10965.41
460.76	11204.14
460.94	11314.15
461.12	11026.26
461.31	11082.44
461.49	11112.86
461.67	11119.89
461.85	11459.26
462.04	11157.33
462.22	11763.53
462.40	11632.46
462.59	11651.19
462.77	11372.66
462.95	11620.76
463.13	11580.97
463.32	11424.15
463.50	11651.19
463.68	11651.19
463.86	11953.12
464.05	11595.01
464.23	11592.67
464.41	11751.83
464.59	11585.65
464.78	12287.81
464.96	12273.77
465.14	11740.13
465.32	11866.52
465.50	11967.16
465.69	12011.63
465.87	12051.42
466.05	12032.69
466.23	12297.17
466.41	12334.62
466.60	12437.61
466.78	12283.13
466.96	12114.61
467.14	12388.46
467.32	12273.77
467.51	12477.40
467.69	12336.96
467.87	12325.26
468.05	12456.33
468.23	12472.71
468.41	12468.03
468.60	12851.88
468.78	12678.68
468.96	12587.40
469.14	12737.20
469.32	12959.55
469.50	12723.15
469.69	12957.21
469.87	13109.34
470.05	13160.83
470.23	13085.94
470.41	12910.40
470.59	13167.85
470.77	13238.07
470.95	13429.99
471.14	13336.37
471.32	13055.51
471.50	13549.36
471.68	13394.89
471.86	13757.67
472.04	13532.98
472.22	14083.00
472.40	13476.80
472.58	13989.38
472.77	13834.91
472.95	13965.98
473.13	14649.41
473.31	13804.48
473.49	14225.78
473.67	14373.23
473.85	14169.60
474.03	14649.41
474.21	14487.92
474.39	14600.26
474.57	14537.07
474.75	14691.54
474.93	14731.33
475.12	14916.23
475.30	15051.99
475.48	14869.42
475.66	15176.03
475.84	15115.18
476.02	15300.08
476.20	15552.86
476.38	15789.25
476.56	16126.29
476.74	16006.92
476.92	15845.43
477.10	15695.63
477.28	15707.34
477.46	16046.71
477.64	16411.84
477.82	16568.65
478.00	16938.46
478.18	16671.64
478.36	17039.10
478.54	17186.55
478.72	17235.70
478.90	17132.72
479.08	17425.29
479.26	17572.74
479.44	17671.04
479.62	17841.90
479.80	17989.36
479.98	18185.96
480.16	18424.70
480.34	18082.98
480.52	18609.60
480.70	18677.48
480.88	18466.83
481.06	18677.48
481.24	18801.52
481.41	18984.09
481.59	19314.10
481.77	19260.27
481.95	19646.46
482.13	19676.88
482.31	19747.10
482.49	20182.44
482.67	20112.22
482.85	20425.86
483.03	20528.84
483.21	20659.91
483.39	21064.82
483.57	21216.96
483.74	21055.46
483.92	21046.10
484.10	21172.49
484.28	21476.76
484.46	21986.99
484.64	22354.46
484.82	21994.01
485.00	22218.71
485.18	22555.74
485.35	22754.69
485.53	22862.35
485.71	23094.07
485.89	23330.46
486.07	23264.92
486.25	23225.14
486.43	23494.30
486.61	24006.87
486.78	24353.27
486.96	23871.12
487.14	24395.40
487.32	24734.78
487.50	24812.02
487.68	24797.98
487.85	25238.00
488.03	25722.49
488.21	25912.07
488.39	25558.65
488.57	26148.46
488.75	26190.59
488.92	26469.12
489.10	26693.81
489.28	26558.06
489.46	27257.88
489.64	26965.31
489.81	27681.52
489.99	27742.37
490.17	27302.35
490.35	27990.47
490.53	27777.48
490.70	28243.24
490.88	28034.94
491.06	28819.02
491.24	28802.63
491.41	28886.89
491.59	29397.13
491.77	28975.83
491.95	29439.26
492.13	29694.38
492.30	30192.91
492.48	29699.06
492.66	29996.31
492.84	30059.50
493.01	30881.03
493.19	30342.70
493.37	31005.08
493.54	30962.95
493.72	31817.24
493.90	31442.76
494.08	31964.70
494.25	32023.21
494.43	31562.12
494.61	32257.26
494.79	32694.94
494.96	32610.68
495.14	32617.71
495.32	33324.55
495.49	32975.81
495.67	33331.57
495.85	33420.51
496.02	33881.60
496.20	34272.46
496.38	33956.49
496.55	33862.87
496.73	34637.59
496.91	34665.67
497.09	34541.63
497.26	34492.47
497.44	34532.26
497.62	35232.08
497.79	36130.85
497.97	35356.13
498.14	35559.76
498.32	36006.80
498.50	36002.12
498.67	36498.31
498.85	36711.30
499.03	36540.44
499.20	36027.87
499.38	36840.03
499.56	37219.20
499.73	36952.38
499.91	37256.65
500.08	37626.45
500.26	37626.45
500.44	37385.38
500.61	37748.16
500.79	37649.86
500.97	37972.85
501.14	38796.72
501.32	38424.57
501.49	38569.69
501.67	38543.94
501.84	39119.71
502.02	39161.84
502.20	39175.89
502.37	39180.57
502.55	39232.06
502.72	39817.19
502.90	39295.25
503.07	39257.81
503.25	39744.64
503.43	39487.18
503.60	39730.59
503.78	39976.35
503.95	40334.45
504.13	40526.38
504.30	40568.51
504.48	40091.04
504.65	40329.77
504.83	40851.71
505.01	41282.37
505.18	40746.39
505.36	41071.72
505.53	41024.91
505.71	41212.15
505.88	41748.14
506.06	41378.33
506.23	41928.36
506.41	41916.65
506.58	42195.18
506.76	42164.75
506.93	42529.87
507.11	42721.80
507.28	42249.01
507.46	42625.84
507.63	42698.39
507.81	43210.97
507.98	43229.69
508.16	43309.27
508.33	43295.23
508.50	43482.47
508.68	43693.12
508.85	43821.85
509.03	43550.35
509.20	43594.82
509.38	44172.93
509.55	44154.21
509.73	44631.68
509.90	44975.73
510.08	44201.02
510.25	44343.79
510.42	44673.81
510.60	44884.45
510.77	45291.71
510.95	45184.04
511.12	44961.69
511.30	44987.44
511.47	45507.04
511.64	45059.99
511.82	45865.14
511.99	45647.47
512.17	45748.11
512.34	45734.07
512.51	46075.79
512.69	46452.61
512.86	46014.93
513.04	46646.88
513.21	46639.86
513.38	46543.89
513.56	46646.88
513.73	46494.74
513.90	47009.66
514.08	46693.69
514.25	47187.54
514.43	47213.29
514.60	47379.46
514.77	47133.71
514.95	47110.30
515.12	47264.78
515.29	47131.37
515.47	47653.31
515.64	47943.53
515.81	48039.50
515.99	48186.95
516.16	48158.86
516.33	48231.42
516.51	48453.77
516.68	48172.91
516.85	48189.29
517.03	48797.83
517.20	48678.46
517.37	48704.21
517.54	48765.06
517.72	48994.43
517.89	49015.50
518.06	49392.33
518.24	49223.81
518.41	48612.93
518.58	48987.41
518.75	49216.78
518.93	49731.70
519.10	49169.97
519.27	49928.31
519.45	49462.54
519.62	49687.23
519.79	49724.68
519.96	49923.63
520.14	50094.49
520.31	49869.79
520.48	50387.05
520.65	50298.11
520.83	50391.73
521.00	50520.46
521.17	50712.39
521.34	50515.78
521.52	50684.30
521.69	50869.20
521.86	50789.62
522.03	50918.35
522.20	51199.22
522.38	51332.63
522.55	51243.69
522.72	51229.65
522.89	51433.27
523.07	51405.19
523.24	51236.67
523.41	51639.24
523.58	51276.46
523.75	51782.01
523.92	51817.12
524.10	51491.79
524.27	51873.29
524.44	51896.70
524.61	51955.21
524.78	51966.91
524.96	52196.29
525.13	51969.26
525.30	52090.96
525.47	52624.60
525.64	52472.47
525.81	52355.44
525.98	52406.94
526.16	52458.43
526.33	52542.69
526.50	52760.36
526.67	52664.39
526.84	52816.53
527.01	52781.42
527.18	52765.04
527.36	53191.01
527.53	52926.53
527.70	53186.33
527.87	53422.73
528.04	53216.76
528.21	53387.62
528.38	53310.38
528.55	53345.49
528.72	53193.36
528.89	53471.88
529.07	53518.69
529.24	53315.06
529.41	53595.93
529.58	53474.22
529.75	53668.48
529.92	53794.87
530.09	53691.89
530.26	53687.21
530.43	54145.95
530.60	53631.04
530.77	53595.93
530.94	53951.69
531.11	54178.72
531.28	54255.96
531.46	54075.74
531.63	54302.77
531.80	54248.94
531.97	54361.28
532.14	54356.60
532.31	54213.83
532.48	54560.23
532.65	54658.53
532.82	54513.42
532.99	54803.64
533.16	54450.22
533.33	54775.56
533.50	54873.86
533.67	54901.95
533.84	54625.76
534.01	54719.38
534.18	54848.11
534.35	55126.64
534.52	55065.78
534.69	54976.84
534.86	55075.15
535.03	55016.63
535.20	54871.52
535.37	55208.56
535.54	55381.76
535.71	55089.19
535.88	55196.85
536.05	55370.05
536.22	55512.83
536.38	55229.62
536.55	55360.69
536.72	55482.40
536.89	55515.17
537.06	55295.16
537.23	55861.57
537.40	55356.01
537.57	55810.07
537.74	55625.17
537.91	55796.03
538.08	55767.94
538.25	55597.09
538.42	55962.21
538.59	56214.99
538.75	55997.32
538.92	55770.28
539.09	56212.65
539.26	56308.61
539.43	55992.64
539.60	56296.91
539.77	56294.56
539.94	56498.19
540.11	56388.19
540.28	56301.59
540.44	56289.88
540.61	56254.78
540.78	56093.28
540.95	56545.00
541.12	56381.16
541.29	56411.59
541.46	56470.11
541.62	56505.21
541.79	56694.80
541.96	56217.33
542.13	56563.73
542.30	56535.64
542.47	56556.70
542.63	56921.83
542.80	56919.49
542.97	56959.28
543.14	57331.42
543.31	56963.96
543.48	57059.92
543.64	57408.66
543.81	57469.51
543.98	57485.90
544.15	57202.69
544.32	57350.15
544.48	57427.38
544.65	57256.53
544.82	57343.12
544.99	57354.83
545.16	57513.98
545.32	57368.87
545.49	57698.89
545.66	57453.13
545.83	57708.25
546.00	57797.19
546.16	57691.86
546.33	57413.34
546.50	57474.20
546.67	57677.82
546.83	57345.47
547.00	57499.94
547.17	57579.52
547.34	57792.51
547.50	57874.43
547.67	57846.34
547.84	57925.92
548.00	57921.24
548.17	58047.63
548.34	57738.68
548.51	58054.65
548.67	58211.46
548.84	58033.58
549.01	57982.09
549.18	58082.73
549.34	58122.52
549.51	58309.77
549.68	58059.33
549.84	58372.96
550.01	58218.49
550.18	58279.34
550.34	58412.75
550.51	58232.53
550.68	58178.70
550.84	58281.68
551.01	58562.54
551.18	58468.92
551.34	58429.13
551.51	58466.58
551.68	58401.05
551.84	58375.30
552.01	58485.31
552.18	58597.65
552.34	58529.78
552.51	58693.61
552.68	58597.65
552.84	58468.92
553.01	58677.23
553.18	58728.72
553.34	58824.68
553.51	58609.35
553.67	58901.92
553.84	58812.98
554.01	59040.01
554.17	58749.79
554.34	59023.63
554.51	58969.80
554.67	58997.88
554.84	59100.87
555.00	58843.41
555.17	58944.05
555.33	58969.80
555.50	58782.55
555.67	58878.52
555.83	59000.22
556.00	59100.87
556.16	59327.90
556.33	59295.13
556.50	59407.48
556.66	59407.48
556.83	59110.23
556.99	59320.88
557.16	59379.39
557.32	59365.35
557.49	59526.84
557.65	59332.58
557.82	59561.95
557.98	59297.47
558.15	59269.39
558.32	59379.39
558.48	59119.59
558.65	59470.67
558.81	59529.19
558.98	59257.68
559.14	59508.12
559.31	59590.04
559.47	59554.93
559.64	59601.74
559.80	59681.32
559.97	59964.52
560.13	59437.90
560.30	59597.06
560.46	59770.26
560.63	59898.99
560.79	59732.81
560.96	59849.84
561.12	59681.32
561.29	59531.53
561.45	59718.77
561.61	59655.57
561.78	59952.82
561.94	59711.75
562.11	59590.04
562.27	59817.07
562.44	59718.77
562.60	60156.45
562.77	60069.85
562.93	59627.49
563.10	59863.88
563.26	59962.18
563.42	60034.74
563.59	59870.90
563.75	59898.99
563.92	59863.88
564.08	59913.03
564.24	60072.19
564.41	60168.15
564.57	59936.44
564.74	59980.91
564.90	60004.31
565.07	60090.91
565.23	60130.70
565.39	59999.63
565.56	60392.84
565.72	60053.47
565.88	60161.13
566.05	60069.85
566.21	60095.60
566.38	60034.74
566.54	60238.37
566.70	60320.29
566.87	60339.01
567.03	59992.61
567.19	60320.29
567.36	60083.89
567.52	60224.32
567.68	60289.86
567.85	60289.86
568.01	60273.48
568.17	60334.33
568.34	60477.10
568.50	60289.86
568.66	60395.18
568.83	60378.80
568.99	60303.90
569.15	60453.70
569.32	60310.92
569.48	60327.31
569.64	60210.28
569.81	60388.16
569.97	60369.44
570.13	60477.10
570.30	60053.47
570.46	60083.89
570.62	60259.43
570.78	60353.05
570.95	60444.33
571.11	60423.27
571.27	60374.12
571.43	60420.93
571.60	60589.45
571.76	60566.04
571.92	60687.75
572.09	60505.19
572.25	60498.17
572.41	60568.38
572.57	60727.54
572.74	60818.82
572.90	60477.10
573.06	60388.16
573.22	60514.55
573.38	60598.81
573.55	60566.04
573.71	60734.56
573.87	60584.77
574.03	60610.51
574.20	60748.60
574.36	60477.10
574.52	60615.19
574.68	60671.37
574.84	60650.30
575.01	60582.43
575.17	60617.53
575.33	60559.02
575.49	60605.83
575.65	60589.45
575.82	60877.33
575.98	60818.82
576.14	60846.91
576.30	60809.46
576.46	60640.94
576.62	60720.52
576.79	60786.05
576.95	60523.91
577.11	60797.76
577.27	60821.16
577.43	60748.60
577.59	60650.30
577.75	60680.73
577.92	60533.28
578.08	60580.09
578.24	60764.99
578.40	60809.46
578.56	60886.70
578.72	60683.07
578.88	60842.23
579.04	60919.46
579.21	60666.69
579.37	60966.27
579.53	60701.79
579.69	60772.01
579.85	60587.11
580.01	60774.35
580.17	60870.31
580.33	60774.35
580.49	60919.46
580.65	60774.35
580.82	60786.05
580.98	60626.90
581.14	60753.29
581.30	61174.58
581.46	60640.94
581.62	60912.44
581.78	60786.05
581.94	60933.51
582.10	60720.52
582.26	60767.33
582.42	60814.14
582.58	61123.09
582.74	60608.17
582.90	60790.73
583.06	61034.15
583.22	60722.86
583.38	60921.80
583.54	60626.90
583.70	60865.63
583.86	60928.83
584.02	60804.78
584.18	60966.27
584.34	60882.02
584.50	60891.38
584.66	60947.55
584.82	60781.37
584.98	60973.30
585.14	60952.23
585.30	60931.17
585.46	60985.00
585.62	60928.83
585.78	61001.38
585.94	60711.16
586.10	61001.38
586.26	60795.42
586.42	60982.66
586.58	61048.19
586.74	61071.60
586.90	60884.36
587.06	60685.41
587.22	61057.56
587.38	60956.91
587.54	61130.11
587.70	61160.54
587.86	60947.55
588.02	61015.43
588.18	61059.90
588.34	60989.68
588.49	60968.61
588.65	61038.83
588.81	61212.03
588.97	61268.20
589.13	61043.51
589.29	61034.15
589.45	61162.88
589.61	61118.41
589.77	61202.67
589.93	61146.50
590.08	61364.17
590.24	61277.57
590.40	61504.60
590.56	61513.96
590.72	61415.66
590.88	61216.71
591.04	61329.06
591.20	61364.17
591.35	61265.86
591.51	61544.39
591.67	61324.38
591.83	61443.74
591.99	61333.74
592.15	61195.65
592.31	61354.80
592.46	61251.82
592.62	61324.38
592.78	61237.78
592.94	61322.04
593.10	61525.66
593.26	61558.43
593.41	61256.50
593.57	61322.04
593.73	61357.14
593.89	61694.18
594.05	61736.31
594.20	61450.77
594.36	61591.20
594.52	61394.59
594.68	61441.40
594.84	61361.82
594.99	61495.24
595.15	61385.23
595.31	61457.79
595.47	61432.04
595.62	61373.53
595.78	61410.98
595.94	61499.92
596.10	61616.94
596.25	61581.84
596.41	61549.07
596.57	61572.47
596.73	61467.15
596.88	61628.65
597.04	61645.03
597.20	61509.28
597.36	61586.52
597.51	61696.52
597.67	61535.02
597.83	61410.98
597.99	61553.75
598.14	61518.64
598.30	61490.55
598.46	61586.52
598.61	61776.10
598.77	61593.54
598.93	61829.93
599.09	61579.49
599.24	61979.73
599.40	61771.42
599.56	61708.22
599.71	61928.23
599.87	61813.55
600.03	61659.07
600.18	61567.79
600.34	61525.66
600.50	61635.67
600.65	61605.24
600.81	61724.61
600.97	61851.00
601.12	61736.31
601.28	61588.86
601.44	61432.04
601.59	61780.78
601.75	61558.43
601.91	61731.63
602.06	61911.85
602.22	61815.89
602.37	61928.23
602.53	61645.03
602.69	61598.22
602.84	61579.49
603.00	61675.46
603.16	61755.03
603.31	61801.85
603.47	61729.29
603.62	61745.67
603.78	61799.50
603.94	61614.60
604.09	61797.16
604.25	61661.41
604.40	61703.54
604.56	61645.03
604.71	61687.16
604.87	61757.38
605.03	61577.15
605.18	61642.69
605.34	61701.20
605.49	61743.33
605.65	61879.08
605.80	61645.03
605.96	61806.53
606.12	61834.61
606.27	61680.14
606.43	61544.39
606.58	61804.19
606.74	61556.09
606.89	61647.37
607.05	61668.44
607.20	61822.91
607.36	61677.80
607.51	61577.15
607.67	61471.83
607.82	61535.02
607.98	61626.31
608.13	61530.34
608.29	61705.88
608.44	61563.11
608.60	61345.44
608.75	61750.35
608.91	61593.54
609.06	61457.79
609.22	61783.12
609.37	61399.27
609.53	61595.88
609.68	61415.66
609.84	61509.28
609.99	61497.58
610.15	61740.99
610.30	61546.73
610.46	61329.06
610.61	61528.00
610.76	61609.92
610.92	61352.46
611.07	61492.89
611.23	61525.66
611.38	61525.66
611.54	61406.30
611.69	61401.61
611.84	61535.02
612.00	61233.10
612.15	61394.59
612.31	61467.15
612.46	61305.65
612.62	61492.89
612.77	61310.33
612.92	61614.60
613.08	61282.25
613.23	61640.35
613.39	61338.42
613.54	61261.18
613.69	61439.06
613.85	61406.30
614.00	61403.95
614.15	61570.13
614.31	61265.86
614.46	61443.74
614.62	61284.59
614.77	61326.72
614.92	61375.87
615.08	61509.28
615.23	61233.10
615.38	61179.26
615.54	61366.51
615.69	61169.90
615.84	61289.27
616.00	61322.04
616.15	61104.37
616.30	61329.06
616.46	61186.28
616.61	60999.04
616.76	61137.13
616.92	61076.28
617.07	61296.29
617.22	61099.68
617.37	61228.41
617.53	61305.65
617.68	61087.98
617.83	61502.26
617.99	61310.33
618.14	60961.59
618.29	61181.60
618.45	61006.06
618.60	61139.47
618.75	60968.61
618.90	60931.17
619.06	61123.09
619.21	61066.92
619.36	61329.06
619.51	61148.84
619.67	60809.46
619.82	61078.62
619.97	61036.49
620.12	61031.81
620.28	60921.80
620.43	61116.07
620.58	61104.37
620.73	60734.56
620.89	61099.68
621.04	61083.30
621.19	60935.85
621.34	60811.80
621.49	60851.59
621.65	60917.12
621.80	60989.68
621.95	60856.27
622.10	60867.97
622.25	60662.00
622.41	60760.31
622.56	60722.86
622.71	60816.48
622.86	60767.33
623.01	60767.33
623.16	60603.49
623.32	60652.64
623.47	60804.78
623.62	60732.22
623.77	60720.52
623.92	60921.80
624.07	60764.99
624.23	60774.35
624.38	60601.15
624.53	60654.98
624.68	60530.93
624.83	60797.76
624.98	60697.11
625.13	60411.57
625.29	60612.85
625.44	60575.40
625.59	60554.34
625.74	60605.83
625.89	60491.15
626.04	60313.26
626.19	60500.51
626.34	60406.89
626.49	60362.42
626.65	60273.48
626.80	60528.59
626.95	60449.02
627.10	60236.03
627.25	60289.86
627.40	60055.81
627.55	60137.72
627.70	60196.24
627.85	60362.42
628.00	60388.16
628.15	60317.95
628.30	60317.95
628.45	60137.72
628.60	60238.37
628.76	60287.52
628.91	60149.43
629.06	60189.22
629.21	60313.26
629.36	60006.65
629.51	60170.49
629.66	59959.84
629.81	59817.07
629.96	59763.24
630.11	60032.40
630.26	60011.34
630.41	60100.28
630.56	60163.47
630.71	60079.21
630.86	59798.35
631.01	59891.97
631.16	59985.59
631.31	59716.43
631.46	59547.91
631.61	59896.65
631.76	60009.00
631.91	59990.27
632.06	60044.10
632.21	59920.05
632.36	59959.84
632.51	59372.37
632.66	59948.14
632.81	59856.86
632.96	59868.56
633.10	59891.97
633.25	59870.90
633.40	59898.99
633.55	59704.73
633.70	59824.09
633.85	59620.47
634.00	59444.93
634.15	59550.25
634.30	59456.63
634.45	59559.61
634.60	59674.30
634.75	59718.77
634.90	59330.24
635.05	59590.04
635.19	59655.57
635.34	59739.83
635.49	59613.44
635.64	59391.09
635.79	59725.79
635.94	59480.03
636.09	59468.33
636.24	59561.95
636.39	59374.71
636.53	59393.43
636.68	59465.99
636.83	59491.74
636.98	59671.96
637.13	59295.13
637.28	59334.92
637.43	59402.80
637.57	59379.39
637.72	59208.53
637.87	59175.76
638.02	59470.67
638.17	59449.61
638.32	59372.37
638.46	59416.84
638.61	59164.06
638.76	59288.11
638.91	59386.41
639.06	59365.35
639.20	59016.61
639.35	59035.33
639.50	59107.89
639.65	59154.70
639.80	59143.00
639.94	59014.27
640.09	59339.60
640.24	59047.04
640.39	59145.34
640.54	58904.26
640.68	59021.29
640.83	59222.58
640.98	58831.71
641.13	58904.26
641.27	59496.42
641.42	58801.28
641.57	58897.24
641.72	58974.48
641.86	58836.39
642.01	58679.57
642.16	58901.92
642.31	58768.51
642.45	59084.48
642.60	58836.39
642.75	58997.88
642.90	59004.91
643.04	58852.77
643.19	58698.30
643.34	58639.78
643.48	58789.58
643.63	58738.08
643.78	58576.59
643.93	58773.19
644.07	58890.22
644.22	58700.64
644.37	58295.72
644.51	58637.44
644.66	58511.05
644.81	58436.16
644.95	58541.48
645.10	58630.42
645.25	58504.03
645.39	58499.35
645.54	58417.43
645.69	58499.35
645.83	58667.87
645.98	58473.60
646.13	58656.17
646.27	58637.44
646.42	58422.11
646.57	58258.27
646.71	58508.71
646.86	58642.12
647.00	58398.71
647.15	58274.66
647.30	58134.23
647.44	58377.64
647.59	58564.88
647.74	58569.57
647.88	58518.07
648.03	58447.86
648.17	58487.65
648.32	58192.74
648.47	58239.55
648.61	58349.56
648.76	58309.77
648.90	58145.93
649.05	58309.77
649.20	58178.70
649.34	58073.37
649.49	58068.69
649.63	58211.46
649.78	58728.72
649.92	58209.12
650.07	58370.62
650.21	58000.82
650.36	58171.67
650.51	58209.12
650.65	58307.43
650.80	58089.76
650.94	57918.90
651.09	57846.34
651.23	57698.89
651.38	57984.43
651.52	57783.15
651.67	57865.06
651.81	58003.16
651.96	57752.72
652.10	57923.58
652.25	57897.83
652.39	57708.25
652.54	57701.23
652.68	57783.15
652.83	57481.22
652.97	57794.85
653.12	57656.76
653.26	57822.93
653.41	57975.07
653.55	57574.84
653.70	57778.46
653.84	57780.81
653.99	57549.09
654.13	57738.68
654.27	57614.63
654.42	57326.74
654.56	57565.48
654.71	57680.16
654.85	57631.01
655.00	57523.35
655.14	57490.58
655.29	57560.79
655.43	57361.85
655.57	57324.40
655.72	57652.08
655.86	57368.87
656.01	57579.52
656.15	57492.92
656.30	57584.20
656.44	57542.07
656.58	57492.92
656.73	57305.68
656.87	57249.50
657.01	57261.21
657.16	57418.02
657.30	57169.93
657.45	57169.93
657.59	57176.95
657.73	57134.82
657.88	56956.94
658.02	57176.95
658.16	57095.03
658.31	56875.02
658.45	56956.94
658.60	57277.59
658.74	56994.39
658.88	57097.37
659.03	57118.43
659.17	56940.55
659.31	56830.55
659.46	57160.56
659.60	56879.70
659.74	56678.41
659.89	56774.37
660.03	56865.66
660.17	56968.64
660.32	56783.74
660.46	56605.86
660.60	56683.09
660.74	56924.17
660.89	56814.16
661.03	56406.91
661.17	56334.35
661.32	56357.76
661.46	56367.12
661.60	56573.09
661.74	56472.45
661.89	56261.80
662.03	56058.17
662.17	56023.06
662.31	56236.05
662.46	56435.00
662.60	56069.87
662.74	56381.16
662.88	55964.55
663.03	55959.87
663.17	56196.26
663.31	55784.33
663.45	55767.94
663.60	55805.39
663.74	55646.24
663.88	55648.58
664.02	55730.50
664.17	55756.24
664.31	55508.14
664.45	55505.80
664.59	55501.12
664.73	55442.61
664.88	55536.23
665.02	55400.48
665.16	55407.50
665.30	55407.50
665.44	55386.44
665.59	55234.30
665.73	55365.37
665.87	55040.04
666.01	55313.88
666.15	55126.64
666.29	55360.69
666.44	55264.73
666.58	54986.21
666.72	54932.37
666.86	54719.38
667.00	54700.66
667.14	54635.13
667.28	54927.69
667.43	54890.24
667.57	54637.47
667.71	54756.83
667.85	54459.58
667.99	54590.66
668.13	54501.71
668.27	54328.52
668.41	54272.34
668.56	53649.76
668.70	53918.92
668.84	54057.01
668.98	54052.33
669.12	54204.47
669.26	54131.91
669.40	54141.27
669.54	54459.58
669.68	54195.10
669.82	53825.30
669.96	54005.52
670.10	53848.71
670.25	54138.93
670.39	53698.91
670.53	53680.19
670.67	53825.30
670.81	53867.43
670.95	53415.71
671.09	53385.28
671.23	53389.96
671.37	53654.44
671.51	53556.14
671.65	53361.87
671.79	53198.04
671.93	53148.88
672.07	53205.06
672.21	53146.54
672.35	52718.23
672.49	52563.75
672.63	52666.73
672.77	52786.10
672.91	52500.56
673.05	52615.24
673.19	52423.32
673.33	52341.40
673.47	52521.62
673.61	52420.98
673.75	52163.52
673.89	52156.50
674.03	51800.74
674.17	51863.93
674.31	51695.41
674.45	51587.75
674.59	51753.93
674.73	51732.86
674.87	51391.14
675.01	51454.34
675.15	51414.55
675.29	51430.93
675.43	51182.84
675.56	51332.63
675.70	50901.97
675.84	50567.27
675.98	50153.00
676.12	50899.63
676.26	50981.55
676.40	50569.61
676.54	50890.27
676.68	50813.03
676.82	49762.13
676.96	50459.61
677.10	49624.04
677.23	49958.73
677.37	49954.05
677.51	49720.00
677.65	49422.75
677.79	48643.35
677.93	49277.64
678.07	49003.80
678.21	49134.87
678.34	48844.64
678.48	48809.53
678.62	48299.30
678.76	48900.81
678.90	48343.77
679.04	48554.41
679.18	48523.99
679.31	47915.45
679.45	47910.77
679.59	47594.79
679.73	47903.74
679.87	47662.67
680.00	47248.39
680.14	47023.70
680.28	47545.64
680.42	47000.30
680.56	46642.20
680.70	46862.21
680.83	46789.65
680.97	46773.27
681.11	46672.62
681.25	46190.47
681.39	46656.24
681.52	46263.03
681.66	46522.83
681.80	46190.47
681.94	45799.60
682.07	45668.53
682.21	45537.46
682.35	45174.68
682.49	45329.16
682.62	44821.26
682.76	45099.78
682.90	44975.73
683.04	44603.59
683.17	44364.85
683.31	44123.78
683.45	44268.89
683.59	43910.79
683.72	43908.45
683.86	43793.76
684.00	43587.80
684.13	43985.69
684.27	43770.36
684.41	43868.66
684.55	43171.18
684.68	43625.25
684.82	43093.94
684.96	42761.59
685.09	42897.34
685.23	42576.69
685.37	42206.88
685.50	42426.89
685.64	42546.26
685.78	42298.16
685.91	42085.17
686.05	42066.45
686.19	41593.66
686.32	41394.71
686.46	40720.64
686.60	40584.89
686.73	40861.07
686.87	40739.36
687.01	40924.27
687.14	40673.83
687.28	40065.29
687.42	40252.53
687.55	39981.03
687.69	40238.49
687.82	39519.95
687.96	39257.81
688.10	39225.04
688.23	40020.82
688.37	39150.14
688.50	39079.92
688.64	38862.26
688.78	38625.86
688.91	38529.90
689.05	38249.03
689.18	38466.70
689.32	37743.48
689.46	37736.46
689.59	37268.35
689.73	37584.32
689.86	37371.33
690.00	37371.33
690.13	37551.56
690.27	37163.03
690.41	37331.54
690.54	36849.39
690.68	36854.08
690.81	36470.23
690.95	36397.67
691.08	36142.55
691.22	35861.69
691.35	35997.44
691.49	35906.16
691.62	36158.94
691.76	35323.36
691.89	35512.95
692.03	35349.11
692.16	35433.37
692.30	34925.47
692.43	35271.87
692.57	34904.41
692.70	34562.69
692.84	34443.32
692.97	34682.06
693.11	34059.48
693.24	33769.25
693.38	33984.58
693.51	33858.19
693.65	33647.54
693.78	33289.44
693.92	33628.82
694.05	33132.62
694.19	33053.05
694.32	32931.34
694.45	32463.23
694.59	32900.91
694.72	32105.13
694.86	32266.63
694.99	32081.72
695.13	31625.32
695.26	31798.52
695.39	31569.15
695.53	32170.66
695.66	31632.34
695.80	31545.74
695.93	31218.07
696.07	30878.69
696.20	30689.10
696.33	30595.48
696.47	30951.24
696.60	30749.96
696.73	30487.82
696.87	30005.67
697.00	30057.16
697.14	30153.12
697.27	30146.10
697.40	29799.70
697.54	29722.46
697.67	29462.66
697.80	29130.31
697.94	29315.21
698.07	29191.16
698.21	29006.26
698.34	29223.93
698.47	28460.91
698.61	28243.24
698.74	28386.02
698.87	28315.80
699.01	27934.29
699.14	28381.34
699.27	27864.08
699.40	27857.06
699.54	28023.23
699.67	27454.48
699.80	27608.96
699.94	27351.50
700.07	27337.46
700.20	26803.82
700.34	26504.23
700.47	26162.51
700.60	26593.17
700.73	26019.74
700.87	26277.19
701.00	26010.37
701.13	25820.79
701.26	25781.00
701.40	25692.06
701.53	25631.21
701.66	25907.39
701.79	25118.63
701.93	24999.26
702.06	24847.13
702.19	24954.79
702.32	25083.52
702.46	24863.51
702.59	24699.67
702.72	24702.01
702.85	24276.04
702.99	24081.77
703.12	24219.86
703.25	23831.33
703.38	23723.67
703.51	23618.35
703.65	23297.69
703.78	22951.29
703.91	23302.37
704.04	23435.78
704.17	23257.90
704.31	22857.67
704.44	22764.05
704.57	22625.96
704.70	22471.48
704.83	22424.67
704.96	22160.19
705.10	22326.37
705.23	22244.45
>>>>>End Processed Spectral Data<<<<<
