SpectraSuite Data File
++++++++++++++++++++++++++++++++++++
Date: Fri Oct 25 11:26:31 EDT 2013
User: price-jones
Dark Spectrum Present: No
Reference Spectrum Present: No
Number of Sampled Component Spectra: 1
Spectrometers: USB2+H05261
Integration Time (usec): 100000 (USB2+H05261)
Spectra Averaged: 1 (USB2+H05261)
Boxcar Smoothing: 0 (USB2+H05261)
Correct for Electrical Dark: No (USB2+H05261)
Strobe/Lamp Enabled: No (USB2+H05261)
Correct for Detector Non-linearity: No (USB2+H05261)
Correct for Stray Light: No (USB2+H05261)
Number of Pixels in Processed Spectrum: 2048
>>>>>Begin Processed Spectral Data<<<<<
365.73	229.37
365.92	229.37
366.12	229.37
366.32	100.64
366.52	114.69
366.72	177.88
366.91	126.39
367.11	184.90
367.31	88.94
367.51	140.43
367.70	39.79
367.90	152.13
368.10	128.73
368.30	154.48
368.49	168.52
368.69	140.43
368.89	264.48
369.09	156.82
369.28	175.54
369.48	189.58
369.68	201.29
369.87	236.39
370.07	133.41
370.27	201.29
370.47	337.04
370.66	538.32
370.86	615.56
371.06	751.31
371.25	741.95
371.45	629.60
371.65	636.63
371.84	744.29
372.04	723.23
372.24	758.33
372.44	723.23
372.63	702.16
372.83	711.52
373.03	753.65
373.22	720.88
373.42	770.04
373.62	720.88
373.81	748.97
374.01	875.36
374.21	744.29
374.40	777.06
374.60	849.61
374.79	837.91
374.99	816.85
375.19	812.17
375.38	833.23
375.58	931.53
375.78	868.34
375.97	940.90
376.17	828.55
376.37	915.15
376.56	931.53
376.76	905.79
376.95	877.70
377.15	894.08
377.35	952.60
377.54	863.66
377.74	805.14
377.93	933.87
378.13	947.92
378.33	966.64
378.52	926.85
378.72	1004.09
378.91	971.32
379.11	940.90
379.31	999.41
379.50	1022.81
379.70	889.40
379.89	971.32
380.09	987.71
380.28	1022.81
380.48	992.39
380.68	1032.18
380.87	1022.81
381.07	1039.20
381.26	1039.20
381.46	1018.13
381.65	1163.25
381.85	1015.79
382.04	1036.86
382.24	1107.07
382.43	1071.97
382.63	1062.60
382.83	1067.28
383.02	1088.35
383.22	1156.22
383.41	1020.47
383.61	1095.37
383.80	1165.59
384.00	1135.16
384.19	1118.78
384.39	1116.44
384.58	1083.67
384.78	1235.80
384.97	1198.35
385.17	1245.16
385.36	1104.73
385.56	1198.35
385.75	1165.59
385.95	1191.33
386.14	1238.14
386.34	1121.12
386.53	1135.16
386.72	1252.19
386.92	1275.59
387.11	1240.48
387.31	1313.04
387.50	1287.29
387.70	1327.08
387.89	1294.32
388.09	1345.81
388.28	1334.11
388.48	1341.13
388.67	1348.15
388.86	1313.04
389.06	1348.15
389.25	1409.00
389.45	1329.42
389.64	1270.91
389.84	1362.19
390.03	1371.55
390.22	1409.00
390.42	1397.30
390.61	1352.83
390.81	1376.24
391.00	1434.75
391.19	1425.39
391.39	1394.96
391.58	1511.99
391.78	1483.90
391.97	1558.80
392.16	1537.73
392.36	1488.58
392.55	1483.90
392.75	1504.96
392.94	1572.84
393.13	1451.13
393.33	1455.81
393.52	1603.27
393.71	1612.63
393.91	1575.18
394.10	1636.03
394.29	1596.25
394.49	1629.01
394.68	1689.87
394.88	1579.86
395.07	1671.14
395.26	1748.38
395.46	1659.44
395.65	1689.87
395.84	1729.66
396.04	1834.98
396.23	1842.00
396.42	1708.59
396.62	1842.00
396.81	1842.00
397.00	1795.19
397.19	1879.45
397.39	1837.32
397.58	1774.13
397.77	1830.30
397.97	1785.83
398.16	1802.21
398.35	1863.07
398.55	1891.15
398.74	1907.54
398.93	1963.71
399.12	1937.96
399.32	1921.58
399.51	1912.22
399.70	2010.52
399.90	2003.50
400.09	2019.88
400.28	2040.95
400.47	2038.61
400.67	2118.18
400.86	2150.95
401.05	2111.16
401.24	2094.78
401.44	2146.27
401.63	2157.97
401.82	2106.48
402.01	2153.29
402.21	2242.23
402.40	2125.21
402.59	2352.24
402.78	2214.15
402.97	2195.42
403.17	2249.25
403.36	2286.70
403.55	2298.41
403.74	2368.62
403.93	2401.39
404.13	2366.28
404.32	2370.96
404.51	2452.88
404.70	2417.77
404.89	2469.27
405.09	2532.46
405.28	2495.01
405.47	2523.10
405.66	2480.97
405.85	2520.76
406.05	2478.63
406.24	2527.78
406.43	2518.42
406.62	2593.31
406.81	2731.41
407.00	2593.31
407.20	2710.34
407.39	2600.34
407.58	2794.60
407.77	2738.43
407.96	2712.68
408.15	2754.81
408.34	2689.28
408.54	2757.15
408.73	2867.16
408.92	2888.22
409.11	2883.54
409.30	2883.54
409.49	2909.29
409.68	2972.48
409.87	2871.84
410.07	3073.12
410.26	3066.10
410.45	3073.12
410.64	2899.92
410.83	3197.17
411.02	3047.38
411.21	3101.21
411.40	3089.51
411.59	3206.53
411.78	3208.87
411.98	3279.09
412.17	3300.16
412.36	3431.23
412.55	3435.91
412.74	3466.33
412.93	3508.46
413.12	3393.78
413.31	3503.78
413.50	3625.49
413.69	3506.12
413.88	3613.79
414.07	3681.66
414.26	3599.74
414.45	3714.43
414.64	3833.80
414.83	3838.48
415.02	3695.71
415.22	3742.52
415.41	3824.44
415.60	3815.07
415.79	3908.69
415.98	4079.55
416.17	4102.96
416.36	3974.23
416.55	4182.54
416.74	4119.34
416.93	4107.64
417.12	4074.87
417.31	4201.26
417.50	4313.61
417.69	4393.19
417.88	4358.08
418.07	4311.27
418.26	4393.19
418.45	4280.84
418.64	4456.38
418.83	4442.34
419.02	4348.72
419.21	4540.64
419.39	4505.53
419.58	4482.13
419.77	4540.64
419.96	4730.22
420.15	4662.35
420.34	4650.64
420.53	4610.86
420.72	4699.80
420.91	4772.35
421.10	4873.00
421.29	4751.29
421.48	4737.24
421.67	4723.20
421.86	4732.56
422.05	4741.93
422.24	4798.10
422.43	4975.98
422.61	5004.07
422.80	5022.79
422.99	4975.98
423.18	4873.00
423.37	4940.87
423.56	4997.04
423.75	4887.04
423.94	4819.16
424.13	4660.01
424.32	4781.71
424.50	4880.02
424.69	5095.35
424.88	5121.09
425.07	4954.91
425.26	5060.24
425.45	4898.74
425.64	5039.17
425.83	4858.95
426.01	5071.94
426.20	5158.54
426.39	5139.82
426.58	5041.51
426.77	5008.75
426.96	5184.29
427.15	5350.46
427.33	5219.39
427.52	5139.82
427.71	5280.25
427.90	5259.18
428.09	5380.89
428.28	5369.19
428.46	5451.11
428.65	5233.44
428.84	5598.56
429.03	5547.07
429.22	5357.49
429.40	5540.05
429.59	5416.00
429.78	5273.23
429.97	5226.42
430.16	5453.45
430.34	5673.46
430.53	5614.95
430.72	5717.93
430.91	5680.48
431.10	5666.44
431.28	5738.99
431.47	5809.21
431.66	5973.05
431.85	5762.40
432.03	5902.83
432.22	6052.63
432.41	5933.26
432.60	5870.06
432.79	6162.63
432.97	5935.60
433.16	6162.63
433.35	6052.63
433.54	6031.56
433.72	6211.78
433.91	6179.01
434.10	6326.47
434.28	6061.99
434.47	6195.40
434.66	6310.08
434.85	6438.81
435.03	6317.11
435.22	6354.55
435.41	6523.07
435.59	6434.13
435.78	6380.30
435.97	6483.28
436.16	6583.93
436.34	6347.53
436.53	6420.09
436.72	6761.81
436.90	6473.92
437.09	6612.01
437.28	6595.63
437.46	6754.79
437.65	6717.34
437.84	6740.74
438.02	6939.69
438.21	6864.79
438.40	6808.62
438.58	7105.87
438.77	7169.06
438.96	6998.20
439.14	7117.57
439.33	7267.36
439.52	7325.88
439.70	7253.32
439.89	7337.58
440.08	7419.50
440.26	7433.54
440.45	7445.24
440.63	7236.94
440.82	7538.87
441.01	7641.85
441.19	7698.02
441.38	7707.38
441.57	7948.46
441.75	7911.01
441.94	7915.69
442.12	8030.38
442.31	8161.45
442.50	8180.17
442.68	7864.20
442.87	8107.62
443.05	8128.68
443.24	8180.17
443.43	8088.89
443.61	8131.02
443.80	8463.38
443.98	8194.22
444.17	7918.03
444.35	8269.11
444.54	8533.59
444.73	8397.84
444.91	8446.99
445.10	8311.24
445.28	8304.22
445.47	8301.88
445.65	8468.06
445.84	8482.10
446.02	8659.98
446.21	8477.42
446.39	8292.52
446.58	8552.32
446.77	8421.25
446.95	8362.73
447.14	8521.89
447.32	8627.21
447.51	8528.91
447.69	8439.97
447.88	8620.19
448.06	8503.17
448.25	8566.36
448.43	8580.40
448.62	8662.32
448.80	8425.93
448.99	8741.90
449.17	8966.59
449.36	8655.30
449.54	8940.85
449.73	9085.96
449.91	9008.72
450.10	9025.11
450.28	9135.11
450.46	9074.26
450.65	9142.13
450.83	9249.80
451.02	9212.35
451.20	9458.10
451.39	9104.68
451.57	9071.92
451.76	9114.05
451.94	9275.54
452.13	9483.85
452.31	9432.36
452.49	9415.98
452.68	9551.73
452.86	9544.70
453.05	9497.89
453.23	9621.94
453.42	9472.15
453.60	9488.53
453.78	9600.88
453.97	9343.42
454.15	9540.02
454.34	9511.94
454.52	9638.33
454.70	9846.63
454.89	9830.25
455.07	9984.73
455.26	9865.36
455.44	9956.64
455.62	10040.90
455.81	10066.64
455.99	9944.94
456.17	9923.87
456.36	10178.99
456.54	10291.34
456.73	10235.16
456.91	10700.93
457.09	10370.91
457.28	10555.82
457.46	10373.25
457.64	10518.37
457.83	10513.69
458.01	10511.35
458.19	10696.25
458.38	10569.86
458.56	10855.40
458.74	10824.98
458.93	10743.06
459.11	10759.44
459.29	10761.78
459.48	10988.82
459.66	10640.08
459.84	10986.47
460.03	11007.54
460.21	10913.92
460.39	10932.64
460.57	11089.46
460.76	11403.09
460.94	11180.74
461.12	11456.92
461.31	11311.81
461.49	11176.06
461.67	11293.08
461.85	11730.76
462.04	11332.87
462.22	11548.20
462.40	11653.53
462.59	11499.05
462.77	11499.05
462.95	11906.31
463.13	11583.31
463.32	11747.15
463.50	11918.01
463.68	12006.95
463.86	11758.85
464.05	11815.02
464.23	11698.00
464.41	11995.25
464.59	11920.35
464.78	12418.88
464.96	11997.59
465.14	12079.50
465.32	12051.42
465.50	11950.78
465.69	12135.68
465.87	12369.73
466.05	12547.61
466.23	12051.42
466.41	12233.98
466.60	12582.72
466.78	12397.82
466.96	12315.90
467.14	12407.18
467.32	12358.03
467.51	12322.92
467.69	12105.25
467.87	12594.42
468.05	12531.23
468.23	12650.60
468.41	12559.31
468.60	12746.56
468.78	12947.84
468.96	12858.90
469.14	12697.41
469.32	12929.12
469.50	12980.61
469.69	13188.92
469.87	13287.22
470.05	13273.18
470.23	13261.48
470.41	13242.75
470.59	13455.74
470.77	13217.01
470.95	13193.60
471.14	13696.82
471.32	13458.08
471.50	13731.92
471.68	13699.16
471.86	13841.93
472.04	13575.11
472.22	14059.60
472.40	13603.19
472.58	13685.11
472.77	13919.17
472.95	14223.44
473.13	14429.40
473.31	14164.92
473.49	14118.11
473.67	14202.37
473.85	14169.60
474.03	14878.79
474.21	14602.60
474.39	14773.46
474.57	14817.93
474.75	14773.46
474.93	15059.01
475.12	15133.90
475.30	15229.87
475.48	15063.69
475.66	14916.23
475.84	15272.00
476.02	15386.68
476.20	15417.11
476.38	15817.34
476.56	16114.59
476.74	16159.06
476.92	15927.35
477.10	15917.98
477.28	16219.91
477.46	16528.86
477.64	16549.93
477.82	16538.23
478.00	16793.34
478.18	16563.97
478.36	16975.91
478.54	17226.34
478.72	17366.78
478.90	17429.97
479.08	17563.38
479.26	17991.70
479.44	17736.58
479.62	17977.65
479.80	18345.12
479.98	18237.45
480.16	18726.63
480.34	18216.39
480.52	18558.11
480.70	18874.08
480.88	18565.13
481.06	18644.71
481.24	18813.23
481.41	18988.77
481.59	19494.32
481.77	19576.24
481.95	19627.73
482.13	19805.61
482.31	19658.16
482.49	20173.08
482.67	20369.68
482.85	20517.14
483.03	21083.55
483.21	20807.36
483.39	21029.71
483.57	20982.90
483.74	21338.66
483.92	21490.80
484.10	21514.20
484.28	21795.07
484.46	22017.42
484.64	22501.91
484.82	21958.91
485.00	22293.60
485.18	23173.64
485.35	22948.95
485.53	22984.06
485.71	22820.22
485.89	23714.31
486.07	23648.77
486.25	23662.82
486.43	24016.24
486.61	23688.56
486.78	24304.12
486.96	24018.58
487.14	24673.93
487.32	24458.60
487.50	24975.86
487.68	25144.38
487.85	25359.70
488.03	25612.48
488.21	25748.23
488.39	25811.43
488.57	25977.61
488.75	26630.62
488.92	26417.63
489.10	26995.74
489.28	26834.24
489.46	27220.43
489.64	26628.27
489.81	28128.56
489.99	27531.72
490.17	27936.63
490.35	28161.33
490.53	28327.50
490.70	28697.31
490.88	28383.68
491.06	29109.24
491.24	28783.91
491.41	29291.80
491.59	29226.27
491.77	29270.74
491.95	29930.77
492.13	29879.28
492.30	30127.38
492.48	29830.13
492.66	30401.22
492.84	30616.55
493.01	30778.04
493.19	30691.44
493.37	31524.68
493.54	31222.75
493.72	31634.68
493.90	31505.95
494.08	32065.34
494.25	31842.99
494.43	31770.43
494.61	32732.39
494.79	32833.04
494.96	32442.17
495.14	32774.52
495.32	33366.68
495.49	33720.10
495.67	33291.78
495.85	33455.62
496.02	33420.51
496.20	34164.80
496.38	34120.33
496.55	33965.85
496.73	35065.91
496.91	34897.39
497.09	34955.90
497.26	35501.25
497.44	35314.00
497.62	35213.36
497.79	36194.04
497.97	35765.73
498.14	36397.67
498.32	36222.13
498.50	36704.28
498.67	36751.09
498.85	36381.29
499.03	36622.36
499.20	36968.76
499.38	36945.36
499.56	37354.95
499.73	37198.13
499.91	37689.65
500.08	37893.27
500.26	37532.83
500.44	37827.74
500.61	37647.52
500.79	37879.23
500.97	38312.23
501.14	39122.05
501.32	38651.61
501.49	38913.75
501.67	38487.77
501.84	39129.08
502.02	38937.15
502.20	39138.44
502.37	39051.84
502.55	39306.96
502.72	39945.92
502.90	39908.47
503.07	39688.46
503.25	39786.77
503.43	39763.36
503.60	40215.08
503.78	40748.73
503.95	40385.94
504.13	40832.99
504.30	40783.83
504.48	40737.02
504.65	41006.19
504.83	41289.39
505.01	41439.18
505.18	40935.97
505.36	41375.99
505.53	41560.89
505.71	41464.93
505.88	41808.99
506.06	42188.16
506.23	42188.16
506.41	42129.64
506.58	42099.22
506.76	42108.58
506.93	42342.63
507.11	42244.33
507.28	42871.59
507.46	42806.06
507.63	43246.08
507.81	43468.43
507.98	42862.23
508.16	42997.98
508.33	43250.76
508.50	43887.39
508.68	43538.65
508.85	44397.62
509.03	44432.73
509.20	44320.38
509.38	44758.06
509.55	44451.45
509.73	44547.42
509.90	44509.97
510.08	44519.33
510.25	45043.61
510.42	45038.93
510.60	45478.95
510.77	45378.31
510.95	45343.20
511.12	45223.83
511.30	45354.90
511.47	45406.39
511.64	45127.87
511.82	45778.54
511.99	45811.31
512.17	46234.94
512.34	45619.38
512.51	46185.79
512.69	46862.21
512.86	46314.52
513.04	46976.89
513.21	46431.55
513.38	47047.11
513.56	47051.79
513.73	46728.80
513.90	47061.15
514.08	47468.40
514.25	47278.82
514.43	47590.11
514.60	47325.63
514.77	47643.94
514.95	47634.58
515.12	47489.47
515.29	47194.56
515.47	47920.13
515.64	47920.13
515.81	47770.33
515.99	48301.64
516.16	48247.80
516.33	48315.68
516.51	48638.67
516.68	48453.77
516.85	48744.00
517.03	48736.98
517.20	49141.89
517.37	48985.07
517.54	48430.36
517.72	48910.17
517.89	49193.38
518.06	49331.47
518.24	49448.50
518.41	49268.28
518.58	49811.28
518.75	49237.85
518.93	49813.62
519.10	49427.43
519.27	50314.50
519.45	49881.50
519.62	50398.76
519.79	50244.28
519.96	49874.48
520.14	50101.51
520.31	50241.94
520.48	50365.99
520.65	50445.57
520.83	50864.52
521.00	50667.92
521.17	50754.52
521.34	50710.05
521.52	50937.08
521.69	50703.03
521.86	51049.42
522.03	51339.65
522.20	51594.77
522.38	51709.46
522.55	51543.28
522.72	51487.10
522.89	51360.72
523.07	51873.29
523.24	51571.36
523.41	52051.17
523.58	51779.67
523.75	52182.24
523.92	51718.82
524.10	52128.41
524.27	52093.30
524.44	52413.96
524.61	52308.63
524.78	52261.82
524.96	52404.59
525.13	52191.61
525.30	52367.15
525.47	52608.22
525.64	52664.39
525.81	52701.84
525.98	52727.59
526.16	52823.55
526.33	52774.40
526.50	53090.37
526.67	52755.68
526.84	53041.22
527.01	52861.00
527.18	53134.84
527.36	52947.60
527.53	53155.91
527.70	53729.34
527.87	53602.95
528.04	53172.29
528.21	53406.34
528.38	53743.38
528.55	53638.06
528.72	53535.07
528.89	53698.91
529.07	53535.07
529.24	53233.14
529.41	53984.46
529.58	53689.55
529.75	53558.48
529.92	53654.44
530.09	53745.72
530.26	54089.78
530.43	54024.25
530.60	53591.25
530.77	53869.77
530.94	54199.79
531.11	54211.49
531.28	54335.54
531.46	54195.10
531.63	54319.15
531.80	54248.94
531.97	54525.12
532.14	54429.16
532.31	54497.03
532.48	54632.78
532.65	54817.69
532.82	54752.15
532.99	54829.39
533.16	54724.07
533.33	54674.91
533.50	55150.04
533.67	54890.24
533.84	54649.17
534.01	54754.49
534.18	55210.90
534.35	55292.82
534.52	55388.78
534.69	55194.51
534.86	55601.77
535.03	55004.93
535.20	55433.25
535.37	55501.12
535.54	55700.07
535.71	55035.36
535.88	55723.47
536.05	55657.94
536.22	55618.15
536.38	55636.87
536.55	55973.91
536.72	55716.45
536.89	55777.31
537.06	55569.00
537.23	55959.87
537.40	55753.90
537.57	55964.55
537.74	55854.54
537.91	56296.91
538.08	55934.12
538.25	55695.39
538.42	56121.37
538.59	56158.81
538.75	55922.42
538.92	56219.67
539.09	56395.21
539.26	56093.28
539.43	56151.79
539.60	56519.26
539.77	56610.54
539.94	56573.09
540.11	56226.69
540.28	56336.69
540.44	56566.07
540.61	56549.68
540.78	56430.32
540.95	56512.23
541.12	56706.50
541.29	56512.23
541.46	56741.61
541.62	56919.49
541.79	56877.36
541.96	56568.41
542.13	56825.87
542.30	56720.54
542.47	56954.60
542.63	56961.62
542.80	57097.37
542.97	57174.61
543.14	57350.15
543.31	57200.35
543.48	57198.01
543.64	57364.19
543.81	57497.60
543.98	57396.96
544.15	57462.49
544.32	57551.43
544.48	57691.86
544.65	57385.25
544.82	57453.13
544.99	57343.12
545.16	57733.99
545.32	57198.01
545.49	57769.10
545.66	57563.14
545.83	57776.12
546.00	57911.88
546.16	57623.99
546.33	57689.52
546.50	57593.56
546.67	57729.31
546.83	57719.95
547.00	57818.25
547.17	57977.41
547.34	57951.66
547.50	58047.63
547.67	58323.81
547.84	58288.70
548.00	58300.40
548.17	58253.59
548.34	58162.31
548.51	58272.32
548.67	58445.52
548.84	58424.45
549.01	58372.96
549.18	58145.93
549.34	58375.30
549.51	58227.85
549.68	58389.34
549.84	58415.09
550.01	58433.81
550.18	58323.81
550.34	58539.14
550.51	58616.38
550.68	58433.81
550.84	58302.74
551.01	58628.08
551.18	58525.10
551.34	58588.29
551.51	58677.23
551.68	58700.64
551.84	58695.95
552.01	58529.78
552.18	58646.80
552.34	58468.92
552.51	58789.58
552.68	58628.08
552.84	58688.93
553.01	58817.66
553.18	59018.95
553.34	59154.70
553.51	58747.45
553.67	58976.82
553.84	59032.99
554.01	58927.67
554.17	59262.36
554.34	59213.21
554.51	59175.76
554.67	59299.81
554.84	59131.29
555.00	59079.80
555.17	59224.92
555.33	59004.91
555.50	58951.07
555.67	59100.87
555.83	59114.91
556.00	59061.08
556.16	59309.18
556.33	59318.54
556.50	59323.22
556.66	59423.86
556.83	59224.92
556.99	59334.92
557.16	59475.35
557.32	59473.01
557.49	59714.09
557.65	59615.79
557.82	59512.80
557.98	59433.22
558.15	59480.03
558.32	59526.84
558.48	59454.29
558.65	59714.09
558.81	59533.87
558.98	59667.28
559.14	59608.76
559.31	59744.51
559.47	59725.79
559.64	59618.13
559.80	59772.60
559.97	59840.48
560.13	59877.93
560.30	59517.48
560.46	59578.34
560.63	59924.74
560.79	59934.10
560.96	60081.55
561.12	59903.67
561.29	59824.09
561.45	59901.33
561.61	59849.84
561.78	60055.81
561.94	60048.78
562.11	59948.14
562.27	60020.70
562.44	60088.57
562.60	60177.51
562.77	60023.04
562.93	60001.97
563.10	60177.51
563.26	60060.49
563.42	60130.70
563.59	60030.06
563.75	60266.45
563.92	60037.08
564.08	60067.51
564.24	60601.15
564.41	60191.56
564.57	60388.16
564.74	60224.32
564.90	60058.15
565.07	59896.65
565.23	60210.28
565.39	60135.38
565.56	60214.96
565.72	60280.50
565.88	60320.29
566.05	60193.90
566.21	60259.43
566.38	60369.44
566.54	60313.26
566.70	60467.74
566.87	60264.11
567.03	60315.61
567.19	60334.33
567.36	60301.56
567.52	60371.78
567.68	60577.75
567.85	60367.10
568.01	60315.61
568.17	60285.18
568.34	60521.57
568.50	60247.73
568.66	60458.38
568.83	60533.28
568.99	60397.52
569.15	60385.82
569.32	60477.10
569.48	60280.50
569.64	60446.68
569.81	60542.64
569.97	60364.76
570.13	60528.59
570.30	60570.72
570.46	60542.64
570.62	60657.32
570.78	60329.65
570.95	60479.44
571.11	60561.36
571.27	60357.74
571.43	60755.63
571.60	60797.76
571.76	60804.78
571.92	60662.00
572.09	60706.47
572.25	60734.56
572.41	60479.44
572.57	60729.88
572.74	60949.89
572.90	60523.91
573.06	60774.35
573.22	60790.73
573.38	60619.88
573.55	60647.96
573.71	60844.57
573.87	60945.21
574.03	60622.22
574.20	60699.45
574.36	60865.63
574.52	60690.09
574.68	60811.80
574.84	60795.42
575.01	60905.42
575.17	60870.31
575.33	60687.75
575.49	60725.20
575.65	60666.69
575.82	60933.51
575.98	60938.19
576.14	61207.35
576.30	60968.61
576.46	60842.23
576.62	60786.05
576.79	60797.76
576.95	60605.83
577.11	60755.63
577.27	61055.21
577.43	60863.29
577.59	60706.47
577.75	60910.10
577.92	60846.91
578.08	60907.76
578.24	60893.72
578.40	61169.90
578.56	61034.15
578.72	60867.97
578.88	61174.58
579.04	61270.54
579.21	61008.40
579.37	61102.03
579.53	60874.99
579.69	60795.42
579.85	60844.57
580.01	61010.74
580.17	60757.97
580.33	61099.68
580.49	60931.17
580.65	61069.26
580.82	60963.93
580.98	60694.77
581.14	60856.27
581.30	61020.11
581.46	60945.21
581.62	61052.87
581.78	60956.91
581.94	60966.27
582.10	61006.06
582.26	61069.26
582.42	60931.17
582.58	61050.53
582.74	60917.12
582.90	60996.70
583.06	61109.05
583.22	60797.76
583.38	60959.25
583.54	60954.57
583.70	61003.72
583.86	61394.59
584.02	60891.38
584.18	61034.15
584.34	61064.58
584.50	61181.60
584.66	60912.44
584.82	60933.51
584.98	61307.99
585.14	61172.24
585.30	60975.64
585.46	61097.34
585.62	61176.92
585.78	61333.74
585.94	60924.14
586.10	61132.45
586.26	61340.76
586.42	60973.30
586.58	61284.59
586.74	61092.66
586.90	61123.09
587.06	61200.33
587.22	61221.39
587.38	61027.13
587.54	61282.25
587.70	61183.94
587.86	61181.60
588.02	61174.58
588.18	61392.25
588.34	61059.90
588.49	60959.25
588.65	61235.44
588.81	61237.78
588.97	61106.71
589.13	61296.29
589.29	61247.14
589.45	61333.74
589.61	61291.61
589.77	61654.39
589.93	61312.67
590.08	61347.78
590.24	61258.84
590.40	61593.54
590.56	61523.32
590.72	61448.42
590.88	61162.88
591.04	61366.51
591.20	61565.45
591.35	61504.60
591.51	61623.96
591.67	61408.64
591.83	61595.88
591.99	61408.64
592.15	61371.19
592.31	61516.30
592.46	61726.95
592.62	61406.30
592.78	61455.45
592.94	61495.24
593.10	61483.53
593.26	61506.94
593.41	61560.77
593.57	61382.89
593.73	61654.39
593.89	61731.63
594.05	61504.60
594.20	61303.31
594.36	61876.74
594.52	61532.68
594.68	61675.46
594.84	61340.76
594.99	61712.91
595.15	61513.96
595.31	61640.35
595.47	61396.93
595.62	61745.67
595.78	61488.21
595.94	61712.91
596.10	61755.03
596.25	61722.27
596.41	61666.09
596.57	61600.56
596.73	61684.82
596.88	61502.26
597.04	61696.52
597.20	61752.69
597.36	61841.63
597.51	61764.40
597.67	61605.24
597.83	61544.39
597.99	61836.95
598.14	61680.14
598.30	61530.34
598.46	61696.52
598.61	61701.20
598.77	61626.31
598.93	61726.95
599.09	61792.48
599.24	61733.97
599.40	61825.25
599.56	61956.32
599.71	61860.36
599.87	61839.29
600.03	61755.03
600.18	61827.59
600.34	61848.66
600.50	61623.96
600.65	61918.87
600.81	61755.03
600.97	61921.21
601.12	61953.98
601.28	61860.36
601.44	61595.88
601.59	61907.17
601.75	61815.89
601.91	61977.39
602.06	61860.36
602.22	61848.66
602.37	61862.70
602.53	61708.22
602.69	61778.44
602.84	61703.54
603.00	61680.14
603.16	61883.76
603.31	61916.53
603.47	61867.38
603.62	61797.16
603.78	61865.04
603.94	61787.80
604.09	61942.28
604.25	61752.69
604.40	61827.59
604.56	61836.95
604.71	61963.34
604.87	61762.06
605.03	61759.72
605.18	61939.94
605.34	61890.79
605.49	61724.61
605.65	61968.02
605.80	61944.62
605.96	62082.71
606.12	61942.28
606.27	61902.49
606.43	61759.72
606.58	62052.28
606.74	61705.88
606.89	61675.46
607.05	61862.70
607.20	61862.70
607.36	61593.54
607.51	61614.60
607.67	61764.40
607.82	61642.69
607.98	61755.03
608.13	61722.27
608.29	61855.68
608.44	61792.48
608.60	61808.87
608.75	61862.70
608.91	61757.38
609.06	61710.56
609.22	61769.08
609.37	61645.03
609.53	61794.82
609.68	61762.06
609.84	61813.55
609.99	61771.42
610.15	61612.26
610.30	61586.52
610.46	61818.23
610.61	61680.14
610.76	61649.71
610.92	61752.69
611.07	61677.80
611.23	61689.50
611.38	61743.33
611.54	61544.39
611.69	61759.72
611.84	61740.99
612.00	61654.39
612.15	61649.71
612.31	61628.65
612.46	61455.45
612.62	61621.62
612.77	61642.69
612.92	61659.07
613.08	61483.53
613.23	61542.05
613.39	61450.77
613.54	61303.31
613.69	61605.24
613.85	61680.14
614.00	61722.27
614.15	61457.79
614.31	61483.53
614.46	61525.66
614.62	61497.58
614.77	61382.89
614.92	61523.32
615.08	61488.21
615.23	61453.11
615.38	61504.60
615.54	61364.17
615.69	61434.38
615.84	61403.95
616.00	61605.24
616.15	61513.96
616.30	61565.45
616.46	61104.37
616.61	61263.52
616.76	61179.26
616.92	61092.66
617.07	61317.35
617.22	61261.18
617.37	61368.85
617.53	61478.85
617.68	61483.53
617.83	61183.94
617.99	61263.52
618.14	61429.70
618.29	61415.66
618.45	61022.45
618.60	61013.08
618.75	61057.56
618.90	61209.69
619.06	61261.18
619.21	61413.32
619.36	61251.82
619.51	61153.52
619.67	60999.04
619.82	61141.81
619.97	61223.73
620.12	61109.05
620.28	61179.26
620.43	61125.43
620.58	61022.45
620.73	61034.15
620.89	61130.11
621.04	61303.31
621.19	60926.49
621.34	61050.53
621.49	60882.02
621.65	60898.40
621.80	61062.24
621.95	60767.33
622.10	61057.56
622.25	60959.25
622.41	61123.09
622.56	60860.95
622.71	60860.95
622.86	60692.43
623.01	60821.16
623.16	60767.33
623.32	60896.06
623.47	60853.93
623.62	60970.96
623.77	60912.44
623.92	61020.11
624.07	60945.21
624.23	61038.83
624.38	60757.97
624.53	60591.79
624.68	60701.79
624.83	60849.25
624.98	60664.35
625.13	60449.02
625.29	60886.70
625.44	60769.67
625.59	60750.94
625.74	60769.67
625.89	60537.96
626.04	60474.76
626.19	60451.36
626.34	60662.00
626.49	60423.27
626.65	60378.80
626.80	60423.27
626.95	60250.07
627.10	60418.59
627.25	60385.82
627.40	60221.98
627.55	60584.77
627.70	60383.48
627.85	60308.58
628.00	60446.68
628.15	60402.21
628.30	60306.24
628.45	60341.35
628.60	60133.04
628.76	60432.63
628.91	60458.38
629.06	60491.15
629.21	60331.99
629.36	60250.07
629.51	60313.26
629.66	60226.66
629.81	60168.15
629.96	60076.87
630.11	60086.23
630.26	60229.01
630.41	60296.88
630.56	60203.26
630.71	60221.98
630.86	60121.34
631.01	60079.21
631.16	60076.87
631.31	59842.82
631.46	59814.73
631.61	59997.29
631.76	60104.96
631.91	60067.51
632.06	60257.09
632.21	60123.68
632.36	59994.95
632.51	59711.75
632.66	59891.97
632.81	59866.22
632.96	60060.49
633.10	59969.21
633.25	59990.27
633.40	60196.24
633.55	60135.38
633.70	59800.69
633.85	59735.15
634.00	59662.60
634.15	59611.10
634.30	59838.14
634.45	59861.54
634.60	59824.09
634.75	59643.87
634.90	59632.17
635.05	59711.75
635.19	59707.07
635.34	59943.46
635.49	59725.79
635.64	59634.51
635.79	59798.35
635.94	59732.81
636.09	59634.51
636.24	59678.98
636.39	59571.32
636.53	59803.03
636.68	59533.87
636.83	59884.95
636.98	59693.02
637.13	59573.66
637.28	59606.42
637.43	59341.94
637.57	59508.12
637.72	59391.09
637.87	59468.33
638.02	59540.89
638.17	59723.45
638.32	59618.13
638.46	59475.35
638.61	59559.61
638.76	59370.03
638.91	59405.14
639.06	59253.00
639.20	59423.86
639.35	59248.32
639.50	59306.83
639.65	59264.70
639.80	59374.71
639.94	59409.82
640.09	59276.41
640.24	59262.36
640.39	59341.94
640.54	59316.20
640.68	59194.49
640.83	59114.91
640.98	59100.87
641.13	59096.19
641.27	59440.24
641.42	59164.06
641.57	59306.83
641.72	59016.61
641.86	58944.05
642.01	58918.31
642.16	59180.45
642.31	59030.65
642.45	59096.19
642.60	59021.29
642.75	58995.54
642.90	59171.08
643.04	58969.80
643.19	58908.94
643.34	58763.83
643.48	58899.58
643.63	58855.11
643.78	58674.89
643.93	58885.54
644.07	58873.84
644.22	58787.24
644.37	58494.67
644.51	58506.37
644.66	58651.48
644.81	58812.98
644.95	58784.90
645.10	58724.04
645.25	58445.52
645.39	58660.85
645.54	58700.64
645.69	58520.41
645.83	58672.55
645.98	58457.22
646.13	58632.76
646.27	58595.31
646.42	58585.95
646.57	58562.54
646.71	58511.05
646.86	58611.70
647.00	58361.26
647.15	58710.00
647.30	58562.54
647.44	58422.11
647.59	58541.48
647.74	58665.53
647.88	58801.28
648.03	58466.58
648.17	58394.03
648.32	58220.83
648.47	58473.60
648.61	58457.22
648.76	58614.04
648.90	58433.81
649.05	58426.79
649.20	58300.40
649.34	58412.75
649.49	58480.63
649.63	58511.05
649.78	58590.63
649.92	58377.64
650.07	58590.63
650.21	58113.16
650.36	58164.65
650.51	58347.21
650.65	58527.44
650.80	58316.79
650.94	58101.46
651.09	58017.20
651.23	57570.16
651.38	58157.63
651.52	58014.86
651.67	57984.43
651.81	58068.69
651.96	57956.35
652.10	58033.58
652.25	57932.94
652.39	57893.15
652.54	57607.61
652.68	57691.86
652.83	57904.85
652.97	57797.19
653.12	57954.00
653.26	57815.91
653.41	57822.93
653.55	57975.07
653.70	58000.82
653.84	57820.59
653.99	57806.55
654.13	57708.25
654.27	57567.82
654.42	57572.50
654.56	57649.74
654.71	57855.70
654.85	58031.24
655.00	57935.28
655.14	57738.68
655.29	57598.24
655.43	57659.10
655.57	57588.88
655.72	57455.47
655.86	57808.89
656.01	57432.07
656.15	57411.00
656.30	57492.92
656.44	57832.30
656.58	57733.99
656.73	57661.44
656.87	57556.11
657.01	57530.37
657.16	57591.22
657.30	57399.30
657.45	57382.91
657.59	57396.96
657.73	57134.82
657.88	57289.29
658.02	57368.87
658.16	57354.83
658.31	57144.18
658.45	57392.28
658.60	57310.36
658.74	57450.79
658.88	57020.13
659.03	57134.82
659.17	57127.80
659.31	57221.42
659.46	57132.48
659.60	56931.19
659.74	56816.50
659.89	56816.50
660.03	56952.26
660.17	56928.85
660.32	57038.86
660.46	57013.11
660.60	56636.28
660.74	56734.59
660.89	57013.11
661.03	56563.73
661.17	56516.92
661.32	56535.64
661.46	56664.37
661.60	56514.58
661.74	56296.91
661.89	56250.09
662.03	56446.70
662.17	56348.40
662.31	56266.48
662.46	56416.27
662.60	56409.25
662.74	56243.07
662.88	56374.14
663.03	55929.44
663.17	56191.58
663.31	56196.26
663.45	56002.00
663.60	56163.50
663.74	55561.98
663.88	55945.83
664.02	55980.93
664.17	55723.47
664.31	55604.11
664.45	55695.39
664.59	55711.77
664.73	55662.62
664.88	55477.72
665.02	55316.22
665.16	55629.85
665.30	55400.48
665.44	55634.53
665.59	55234.30
665.73	55409.84
665.87	55442.61
666.01	55379.42
666.15	55517.51
666.29	55524.53
666.44	55121.96
666.58	54918.33
666.72	54798.96
666.86	55269.41
667.00	55154.72
667.14	54787.26
667.28	54845.77
667.43	54705.34
667.57	55009.61
667.71	54925.35
667.85	54567.25
667.99	54717.04
668.13	54836.41
668.27	54113.19
668.41	54653.85
668.56	54176.38
668.70	54202.13
668.84	53935.30
668.98	54068.72
669.12	54157.66
669.26	54309.79
669.40	54482.99
669.54	54520.44
669.68	54277.02
669.82	54064.03
669.96	54246.60
670.10	54092.12
670.25	54363.62
670.39	54040.63
670.53	54131.91
670.67	53928.28
670.81	54068.72
670.95	53542.10
671.09	53853.39
671.23	53532.73
671.37	53710.61
671.51	53183.99
671.65	53469.54
671.79	53464.86
671.93	53556.14
672.07	53249.53
672.21	53408.68
672.35	52912.49
672.49	52846.96
672.63	52886.74
672.77	52699.50
672.91	52725.25
673.05	52594.18
673.19	52659.71
673.33	52526.30
673.47	52753.33
673.61	52547.37
673.75	52353.10
673.89	52009.04
674.03	52112.03
674.17	51854.57
674.31	51679.03
674.45	51613.49
674.59	51852.23
674.73	51938.83
674.87	51707.12
675.01	51505.83
675.15	51751.59
675.29	51679.03
675.43	51358.38
675.56	51131.34
675.70	51271.78
675.84	51384.12
675.98	49998.52
676.12	51166.45
676.26	51201.56
676.40	50803.67
676.54	50841.12
676.68	50618.77
676.82	50518.12
676.96	50459.61
677.10	50000.86
677.23	49972.78
677.37	49996.18
677.51	50141.30
677.65	49668.51
677.79	49017.84
677.93	49574.89
678.07	49242.53
678.21	49010.82
678.34	49020.18
678.48	49111.46
678.62	49059.97
678.76	48935.92
678.90	48577.82
679.04	48889.11
679.18	48596.54
679.31	48238.44
679.45	48090.99
679.59	48067.58
679.73	48051.20
679.87	48046.52
680.00	47503.51
680.14	47428.62
680.28	47421.59
680.42	46892.63
680.56	46691.35
680.70	46740.50
680.83	47014.34
680.97	46887.95
681.11	47168.82
681.25	46511.13
681.39	46579.00
681.52	46461.97
681.66	46010.25
681.80	46204.52
681.94	45710.66
682.07	45935.35
682.21	45565.55
682.35	45565.55
682.49	45378.31
682.62	45067.02
682.76	45364.26
682.90	45247.24
683.04	44896.16
683.17	44774.45
683.31	44264.21
683.45	44493.58
683.59	44203.36
683.72	43915.47
683.86	43669.72
684.00	43786.74
684.13	44296.98
684.27	43662.69
684.41	44165.91
684.55	43672.06
684.68	43662.69
684.82	43269.48
684.96	43086.92
685.09	43075.22
685.23	42789.67
685.37	42726.48
685.50	42630.52
685.64	42766.27
685.78	42642.22
685.91	42108.58
686.05	41993.89
686.19	41808.99
686.32	41460.25
686.46	40612.98
686.60	40945.33
686.73	40734.68
686.87	40959.38
687.01	41226.20
687.14	40509.99
687.28	40093.38
687.42	40498.29
687.55	40484.25
687.69	40563.82
687.82	39896.77
687.96	39791.45
688.10	39564.42
688.23	40119.12
688.37	39538.67
688.50	38799.06
688.64	39241.42
688.78	39192.27
688.91	38403.51
689.05	38782.68
689.18	38560.33
689.32	37783.27
689.46	37809.01
689.59	37673.26
689.73	37888.59
689.86	37635.81
690.00	37284.73
690.13	37446.23
690.27	37153.66
690.41	37586.66
690.54	37228.56
690.68	36919.61
690.81	36814.29
690.95	36713.64
691.08	36381.29
691.22	36180.00
691.35	35995.10
691.49	36355.54
691.62	36044.25
691.76	35768.07
691.89	35435.71
692.03	35400.60
692.16	35288.26
692.30	35445.07
692.43	35194.64
692.57	34597.80
692.70	34574.39
692.84	34703.12
692.97	34904.41
693.11	34216.29
693.24	34359.06
693.38	34108.63
693.51	33607.75
693.65	33518.81
693.78	33591.37
693.92	33537.54
694.05	33120.92
694.19	32943.04
694.32	33376.04
694.45	33163.05
694.59	33312.84
694.72	32594.30
694.86	32999.21
694.99	32105.13
695.13	32065.34
695.26	31840.65
695.39	31747.03
695.53	31990.44
695.66	31761.07
695.80	31681.49
695.93	31358.50
696.07	30572.08
696.20	31077.63
696.33	30829.54
696.47	30789.75
696.60	31037.84
696.73	30569.74
696.87	30513.56
697.00	30373.13
697.14	30249.08
697.27	29937.79
697.40	30012.69
697.54	29696.72
697.67	29661.61
697.80	29663.95
697.94	29380.74
698.07	29048.39
698.21	28893.91
698.34	28931.36
698.47	29099.88
698.61	28484.32
698.74	28561.56
698.87	28533.47
699.01	28142.60
699.14	28308.78
699.27	28072.39
699.40	28439.85
699.54	28070.04
699.67	27742.37
699.80	27555.13
699.94	27536.40
700.07	27557.47
700.20	26981.70
700.34	26876.37
700.47	26398.90
700.60	26284.22
700.73	26501.89
700.87	26518.27
701.00	26155.49
701.13	25717.81
701.26	26064.21
701.40	26235.06
701.53	25633.55
701.66	25326.94
701.79	25338.64
701.93	25397.15
702.06	25055.43
702.19	25401.83
702.32	25476.73
702.46	24940.75
702.59	24393.06
702.72	24425.83
702.85	24575.62
702.99	24587.33
703.12	24329.87
703.25	23700.26
703.38	24032.62
703.51	23737.71
703.65	23293.01
703.78	23058.96
703.91	23309.40
704.04	23548.13
704.17	23166.62
704.31	23122.15
704.44	23028.53
704.57	22731.28
704.70	22579.15
704.83	22384.88
704.96	22831.93
705.10	22511.27
705.23	22403.61
>>>>>End Processed Spectral Data<<<<<
