SpectraSuite Data File
++++++++++++++++++++++++++++++++++++
Date: Fri Oct 25 11:33:58 EDT 2013
User: price-jones
Dark Spectrum Present: No
Reference Spectrum Present: No
Number of Sampled Component Spectra: 1
Spectrometers: USB2+H05261
Integration Time (usec): 100000 (USB2+H05261)
Spectra Averaged: 1 (USB2+H05261)
Boxcar Smoothing: 0 (USB2+H05261)
Correct for Electrical Dark: No (USB2+H05261)
Strobe/Lamp Enabled: No (USB2+H05261)
Correct for Detector Non-linearity: No (USB2+H05261)
Correct for Stray Light: No (USB2+H05261)
Number of Pixels in Processed Spectrum: 2048
>>>>>Begin Processed Spectral Data<<<<<
365.73	304.27
365.92	304.27
366.12	304.27
366.32	196.60
366.52	210.65
366.72	212.99
366.91	168.52
367.11	177.88
367.31	175.54
367.51	182.56
367.70	147.45
367.90	198.95
368.10	161.50
368.30	128.73
368.49	189.58
368.69	184.90
368.89	196.60
369.09	173.20
369.28	217.67
369.48	273.84
369.68	222.35
369.87	243.42
370.07	201.29
370.27	250.44
370.47	369.80
370.66	360.44
370.86	503.22
371.06	521.94
371.25	547.69
371.45	533.64
371.65	552.37
371.84	479.81
372.04	507.90
372.24	566.41
372.44	571.09
372.63	585.13
372.83	620.24
373.03	624.92
373.22	657.69
373.42	599.18
373.62	674.07
373.81	613.22
374.01	667.05
374.21	688.12
374.40	643.65
374.60	683.44
374.79	622.58
374.99	629.60
375.19	683.44
375.38	627.26
375.58	685.78
375.78	671.73
375.97	648.33
376.17	739.61
376.37	678.76
376.56	704.50
376.76	704.50
376.95	706.84
377.15	709.18
377.35	727.91
377.54	741.95
377.74	706.84
377.93	657.69
378.13	727.91
378.33	713.86
378.52	704.50
378.72	667.05
378.91	634.29
379.11	713.86
379.31	709.18
379.50	718.54
379.70	720.88
379.89	779.40
380.09	795.78
380.28	753.65
380.48	709.18
380.68	709.18
380.87	755.99
381.07	814.51
381.26	788.76
381.46	744.29
381.65	727.91
381.85	765.36
382.04	767.70
382.24	770.04
382.43	727.91
382.63	770.04
382.83	814.51
383.02	716.20
383.22	807.48
383.41	732.59
383.61	814.51
383.80	858.98
384.00	805.14
384.19	741.95
384.39	823.87
384.58	835.57
384.78	870.68
384.97	863.66
385.17	830.89
385.36	866.00
385.56	861.32
385.75	830.89
385.95	849.61
386.14	940.90
386.34	823.87
386.53	887.06
386.72	889.40
386.92	842.59
387.11	887.06
387.31	851.96
387.50	842.59
387.70	856.64
387.89	873.02
388.09	863.66
388.28	910.47
388.48	800.46
388.67	896.43
388.86	917.49
389.06	889.40
389.25	947.92
389.45	1008.77
389.64	976.00
389.84	912.81
390.03	887.06
390.22	905.79
390.42	1011.11
390.61	1027.50
390.81	1008.77
391.00	1027.50
391.19	1006.43
391.39	973.66
391.58	987.71
391.78	1027.50
391.97	1022.81
392.16	1018.13
392.36	1034.52
392.55	1069.62
392.75	1114.10
392.94	966.64
393.13	1025.15
393.33	1057.92
393.52	1071.97
393.71	1064.94
393.91	1078.99
394.10	1011.11
394.29	1158.57
394.49	1078.99
394.68	1139.84
394.88	1123.46
395.07	1153.88
395.26	1111.75
395.46	1146.86
395.65	1151.54
395.84	1146.86
396.04	1214.74
396.23	1090.69
396.42	1219.42
396.62	1177.29
396.81	1196.01
397.00	1160.91
397.19	1259.21
397.39	1287.29
397.58	1252.19
397.77	1212.40
397.97	1242.82
398.16	1249.85
398.35	1259.21
398.55	1228.78
398.74	1249.85
398.93	1404.32
399.12	1256.87
399.32	1268.57
399.51	1266.23
399.70	1364.53
399.90	1355.17
400.09	1266.23
400.28	1376.24
400.47	1383.26
400.67	1409.00
400.86	1406.66
401.05	1303.68
401.24	1453.47
401.44	1423.05
401.63	1437.09
401.82	1401.98
402.01	1345.81
402.21	1481.56
402.40	1521.35
402.59	1509.65
402.78	1540.07
402.97	1547.09
403.17	1500.28
403.36	1462.83
403.55	1523.69
403.74	1563.48
403.93	1570.50
404.13	1511.99
404.32	1535.39
404.51	1640.72
404.70	1603.27
404.89	1593.90
405.09	1696.89
405.28	1614.97
405.47	1666.46
405.66	1657.10
405.85	1666.46
406.05	1746.04
406.24	1710.93
406.43	1636.03
406.62	1774.13
406.81	1806.89
407.00	1837.32
407.20	1717.95
407.39	1816.26
407.58	1797.53
407.77	1802.21
407.96	1806.89
408.15	1898.17
408.34	1851.36
408.54	1928.60
408.73	1987.11
408.92	1870.09
409.11	1905.20
409.30	2008.18
409.49	2066.69
409.68	2064.35
409.87	1996.48
410.07	1928.60
410.26	2118.18
410.45	2010.52
410.64	2059.67
410.83	2183.72
411.02	2125.21
411.21	2125.21
411.40	2104.14
411.59	2181.38
411.78	2097.12
411.98	2155.63
412.17	2188.40
412.36	2289.04
412.55	2319.47
412.74	2361.60
412.93	2298.41
413.12	2263.30
413.31	2572.25
413.50	2424.80
413.69	2382.67
413.88	2530.12
414.07	2572.25
414.26	2480.97
414.45	2476.29
414.64	2525.44
414.83	2572.25
415.02	2651.83
415.22	2693.96
415.41	2560.55
415.60	2537.14
415.79	2630.76
415.98	2747.79
416.17	2857.79
416.36	2640.12
416.55	2642.46
416.74	2738.43
416.93	2757.15
417.12	2864.82
417.31	2832.05
417.50	2712.68
417.69	3105.89
417.88	2993.55
418.07	2925.67
418.26	2913.97
418.45	2906.95
418.64	3035.67
418.83	2920.99
419.02	3007.59
419.21	3073.12
419.39	2956.10
419.58	2967.80
419.77	3056.74
419.96	3098.87
420.15	3105.89
420.34	3199.51
420.53	3169.09
420.72	3302.50
420.91	3255.69
421.10	3215.90
421.29	3286.11
421.48	3159.72
421.67	3265.05
421.86	3281.43
422.05	3169.09
422.24	3351.65
422.43	3393.78
422.61	3344.63
422.80	3375.05
422.99	3311.86
423.18	3365.69
423.37	3389.10
423.56	3391.44
423.75	3431.23
423.94	3323.56
424.13	3213.56
424.32	3108.23
424.50	3346.97
424.69	3524.85
424.88	3501.44
425.07	3304.84
425.26	3449.95
425.45	3424.20
425.64	3393.78
425.83	3332.92
426.01	3588.04
426.20	3478.04
426.39	3482.72
426.58	3489.74
426.77	3574.00
426.96	3445.27
427.15	3473.36
427.33	3564.64
427.52	3543.57
427.71	3520.17
427.90	3524.85
428.09	3604.42
428.28	3712.09
428.46	3674.64
428.65	3695.71
428.84	3819.75
429.03	3941.46
429.22	3655.92
429.40	3723.79
429.59	3655.92
429.78	3606.77
429.97	3595.06
430.16	3681.66
430.34	3824.44
430.53	3861.88
430.72	3918.06
430.91	3861.88
431.10	3822.09
431.28	3953.16
431.47	3899.33
431.66	3946.14
431.85	3894.65
432.03	4159.13
432.22	4238.71
432.41	4067.85
432.60	4107.64
432.79	4063.17
432.97	4124.02
433.16	4074.87
433.35	4018.70
433.54	4231.69
433.72	4187.22
433.91	4140.41
434.10	4243.39
434.28	4163.81
434.47	4250.41
434.66	4257.43
434.85	4313.61
435.03	4393.19
435.22	4346.37
435.41	4245.73
435.59	4393.19
435.78	4367.44
435.97	4294.88
436.16	4322.97
436.34	4273.82
436.53	4547.66
436.72	4528.94
436.90	4437.66
437.09	4444.68
437.28	4313.61
437.46	4395.53
437.65	4547.66
437.84	4620.22
438.02	4566.39
438.21	4454.04
438.40	4606.17
438.58	4734.90
438.77	4858.95
438.96	4643.62
439.14	4648.30
439.33	4702.14
439.52	4828.53
439.70	4828.53
439.89	4929.17
440.08	4856.61
440.26	4919.81
440.45	4952.57
440.63	5102.37
440.82	5198.33
441.01	5048.54
441.19	5090.67
441.38	5198.33
441.57	5207.69
441.75	5305.99
441.94	5350.46
442.12	5294.29
442.31	5586.86
442.50	5334.08
442.68	5313.02
442.87	5474.51
443.05	5425.36
443.24	5509.62
443.43	5535.37
443.61	5481.53
443.80	5790.49
443.98	5434.72
444.17	5308.34
444.35	5561.11
444.54	5659.42
444.73	5654.73
444.91	5458.13
445.10	5500.26
445.28	5558.77
445.47	5507.28
445.65	5586.86
445.84	5834.96
446.02	5734.31
446.21	5717.93
446.39	5657.07
446.58	5746.02
446.77	5598.56
446.95	5533.03
447.14	5774.10
447.32	5680.48
447.51	5661.76
447.69	5825.59
447.88	5636.01
448.06	5584.52
448.25	5881.77
448.43	5884.11
448.62	5785.80
448.80	5570.48
448.99	5760.06
449.17	5881.77
449.36	5884.11
449.54	5891.13
449.73	5666.44
449.91	6003.47
450.10	6008.16
450.28	6129.86
450.46	6033.90
450.65	6022.20
450.83	6176.67
451.02	6150.93
451.20	6071.35
451.39	5926.24
451.57	6176.67
451.76	6073.69
451.94	6221.14
452.13	6291.36
452.31	6314.77
452.49	6174.33
452.68	6504.35
452.86	6183.70
453.05	6277.32
453.23	6502.01
453.42	6242.21
453.60	6223.48
453.78	6464.56
453.97	6466.90
454.15	6417.75
454.34	6244.55
454.52	6546.48
454.70	6541.80
454.89	6382.64
455.07	6595.63
455.26	6616.69
455.44	6932.67
455.62	6689.25
455.81	6623.72
455.99	6623.72
456.17	6551.16
456.36	6815.64
456.54	6944.37
456.73	6956.07
456.91	7049.69
457.09	6937.35
457.28	7150.34
457.46	6935.01
457.64	6984.16
457.83	7112.89
458.01	7049.69
458.19	7082.46
458.38	7126.93
458.56	7267.36
458.74	6974.80
458.93	7129.27
459.11	7054.37
459.29	7234.60
459.48	7145.66
459.66	7073.10
459.84	7295.45
460.03	7300.13
460.21	7185.44
460.39	7227.57
460.57	7454.61
460.76	7360.98
460.94	7578.65
461.12	7499.08
461.31	7421.84
461.49	7272.04
461.67	7520.14
461.85	7438.22
462.04	7620.78
462.22	7962.50
462.40	7597.38
462.59	7543.55
462.77	7644.19
462.95	7859.52
463.13	7744.83
463.32	7782.28
463.50	7756.54
463.68	7925.05
463.86	8032.72
464.05	7859.52
464.23	7826.75
464.41	7946.12
464.59	7747.17
464.78	8042.08
464.96	7744.83
465.14	7803.35
465.32	8060.80
465.50	8063.15
465.69	8011.65
465.87	8109.96
466.05	8126.34
466.23	8175.49
466.41	8009.31
466.60	8456.36
466.78	8037.40
466.96	8004.63
467.14	8124.00
467.32	8238.69
467.51	8341.67
467.69	8128.68
467.87	8301.88
468.05	8301.88
468.23	8379.12
468.41	8271.45
468.60	8173.15
468.78	8521.89
468.96	8336.99
469.14	8582.74
469.32	8500.83
469.50	8313.58
469.69	8362.73
469.87	8762.97
470.05	8788.71
470.23	8744.24
470.41	8802.75
470.59	8840.20
470.77	8659.98
470.95	8655.30
471.14	9055.53
471.32	8781.69
471.50	8798.07
471.68	9071.92
471.86	9057.87
472.04	9083.62
472.22	9378.53
472.40	8992.34
472.58	9193.62
472.77	9097.66
472.95	9280.22
473.13	9476.83
473.31	9153.84
473.49	9404.27
473.67	9317.67
473.85	9586.83
474.03	9792.80
474.21	9631.30
474.39	9809.19
474.57	9687.48
474.75	9804.50
474.93	9870.04
475.12	9844.29
475.30	9837.27
475.48	9954.30
475.66	10176.65
475.84	10043.24
476.02	10272.61
476.20	10176.65
476.38	10434.11
476.56	10602.63
476.74	10370.91
476.92	10338.15
477.10	10560.50
477.28	10602.63
477.46	10527.73
477.64	10829.66
477.82	10897.53
478.00	11241.59
478.18	10972.43
478.36	10876.47
478.54	11248.61
478.72	11159.67
478.90	11234.57
479.08	11435.86
479.26	11470.97
479.44	11562.25
479.62	11513.10
479.80	11817.36
479.98	11925.03
480.16	12147.38
480.34	11700.34
480.52	12250.36
480.70	12131.00
480.88	12119.29
481.06	12306.54
481.24	12421.22
481.41	12486.76
481.59	12692.73
481.77	12463.35
481.95	12737.20
482.13	12830.82
482.31	12711.45
482.49	13275.52
482.67	13139.77
482.85	13465.10
483.03	13373.82
483.21	13598.51
483.39	13661.71
483.57	13490.85
483.74	13673.41
483.92	13881.72
484.10	13827.88
484.28	14230.46
484.46	14291.31
484.64	14389.61
484.82	14623.67
485.00	14445.79
485.18	14736.01
485.35	15232.21
485.53	14602.60
485.71	15044.96
485.89	15417.11
486.07	15370.30
486.25	15269.66
486.43	15337.53
486.61	15480.30
486.78	15487.32
486.96	15889.90
487.14	16060.76
487.32	15866.49
487.50	16173.10
487.68	16395.45
487.85	16453.97
488.03	16561.63
488.21	16865.90
488.39	16821.43
488.57	17132.72
488.75	16720.79
488.92	17186.55
489.10	17504.87
489.28	17483.80
489.46	17544.66
489.64	17776.37
489.81	17968.29
489.99	18075.96
490.17	18092.34
490.35	18373.21
490.53	18558.11
490.70	18188.30
490.88	18490.23
491.06	18611.94
491.24	18672.79
491.41	18714.92
491.59	18836.63
491.77	19091.75
491.95	19225.16
492.13	19552.84
492.30	19550.49
492.48	19590.28
492.66	19442.83
492.84	19892.21
493.01	20020.94
493.19	20182.44
493.37	19955.41
493.54	20116.90
493.72	20786.30
493.90	20423.51
494.08	20332.23
494.25	20961.84
494.43	20709.06
494.61	21181.85
494.79	21062.48
494.96	21296.53
495.14	21434.63
495.32	21806.77
495.49	21219.30
495.67	21799.75
495.85	22038.48
496.02	22036.14
496.20	22324.03
496.38	22101.68
496.55	22214.02
496.73	22625.96
496.91	22579.15
497.09	22396.59
497.26	22792.14
497.44	22735.96
497.62	22792.14
497.79	23276.63
497.97	23346.84
498.14	23229.82
498.32	23475.57
498.50	23414.72
498.67	23819.63
498.85	23550.47
499.03	23817.29
499.20	23896.87
499.38	23936.66
499.56	24002.19
499.73	24341.57
499.91	24491.37
500.08	24353.27
500.26	24549.88
500.44	24706.70
500.61	24617.75
500.79	24580.31
500.97	24725.42
501.14	25158.42
501.32	25277.79
501.49	25053.09
501.67	25340.98
501.84	25256.72
502.02	25275.45
502.20	25458.01
502.37	25090.54
502.55	25439.28
502.72	25638.23
502.90	25565.67
503.07	25579.71
503.25	25804.41
503.43	25509.50
503.60	26094.63
503.78	26148.46
503.95	26040.80
504.13	25851.22
504.30	26445.71
504.48	26253.79
504.65	27051.91
504.83	26436.35
505.01	27007.44
505.18	26508.91
505.36	26792.11
505.53	26639.98
505.71	27033.19
505.88	27304.69
506.06	27147.87
506.23	27253.20
506.41	27388.95
506.58	27557.47
506.76	27206.39
506.93	27908.55
507.11	27517.68
507.28	27751.73
507.46	27920.25
507.63	28102.81
507.81	28196.43
507.98	28343.89
508.16	28086.43
508.33	28685.61
508.50	28231.54
508.68	28360.27
508.85	28517.09
509.03	28739.44
509.20	28783.91
509.38	29053.07
509.55	29071.79
509.73	29057.75
509.90	29420.53
510.08	29294.14
510.25	29308.19
510.42	29336.27
510.60	29596.07
510.77	29797.36
510.95	29390.11
511.12	29385.43
511.30	29710.76
511.47	29839.49
511.64	29773.95
511.82	29916.73
511.99	29919.07
512.17	30089.93
512.34	30216.32
512.51	30572.08
512.69	30632.93
512.86	30419.94
513.04	30576.76
513.21	30597.82
513.38	30485.48
513.56	30866.98
513.73	31044.87
513.90	31009.76
514.08	30780.39
514.25	31309.35
514.43	31182.96
514.60	31618.30
514.77	31229.77
514.95	31494.25
515.12	31613.62
515.29	31571.49
515.47	31854.69
515.64	31770.43
515.81	31386.58
515.99	31960.02
516.16	32053.64
516.33	31967.04
516.51	31857.03
516.68	32287.69
516.85	32074.70
517.03	32374.29
517.20	32091.09
517.37	32116.83
517.54	32332.16
517.72	32811.97
517.89	32496.00
518.06	32411.74
518.24	32718.35
518.41	33057.73
518.58	32966.45
518.75	32727.71
518.93	33413.49
519.10	33116.24
519.27	33151.35
519.45	32950.06
519.62	33645.20
519.79	33556.26
519.96	33429.87
520.14	33301.14
520.31	33291.78
520.48	33586.69
520.65	33855.85
520.83	33989.26
521.00	34017.35
521.17	33792.65
521.34	34094.58
521.52	34085.22
521.69	34267.78
521.86	34132.03
522.03	34607.16
522.20	34684.40
522.38	34682.06
522.55	34417.58
522.72	34614.18
522.89	34637.59
523.07	35000.37
523.24	34888.03
523.41	35213.36
523.58	34759.30
523.75	34993.35
523.92	35152.51
524.10	35138.46
524.27	35405.28
524.44	35253.15
524.61	35440.39
524.78	35566.78
524.96	35578.48
525.13	35887.43
525.30	35821.90
525.47	35772.75
525.64	36144.89
525.81	35852.33
525.98	36123.83
526.16	35978.72
526.33	35885.09
526.50	36423.42
526.67	36297.03
526.84	36226.81
527.01	36196.38
527.18	36158.94
527.36	36503.00
527.53	36676.19
527.70	36893.86
527.87	36446.82
528.04	36664.49
528.21	36456.18
528.38	36849.39
528.55	36996.85
528.72	36854.08
528.89	37008.55
529.07	36926.63
529.24	36802.58
529.41	37305.80
529.58	36924.29
529.75	37352.61
529.92	37053.02
530.09	36837.69
530.26	37511.77
530.43	37244.94
530.60	37102.17
530.77	37413.46
530.94	37600.71
531.11	37509.43
531.28	37708.37
531.46	37607.73
531.63	37776.25
531.80	37762.20
531.97	38012.64
532.14	38230.31
532.31	38139.03
532.48	37984.55
532.65	38277.12
532.82	38340.32
532.99	38363.72
533.16	38024.34
533.33	38457.34
533.50	38279.46
533.67	38298.19
533.84	37977.53
534.01	38642.24
534.18	38579.05
534.35	38675.01
534.52	38763.95
534.69	39145.46
534.86	38789.70
535.03	38796.72
535.20	38906.73
535.37	39105.67
535.54	39206.31
535.71	39166.52
535.88	39463.77
536.05	39260.15
536.22	39157.16
536.38	39225.04
536.55	39248.44
536.72	39627.61
536.89	39377.17
537.06	38988.64
537.23	39550.37
537.40	39370.15
537.57	39791.45
537.74	39587.82
537.91	39894.43
538.08	39779.74
538.25	39821.87
538.42	39817.19
538.59	40219.77
538.75	39981.03
538.92	40119.12
539.09	40044.23
539.26	39894.43
539.43	39992.73
539.60	40191.68
539.77	40414.03
539.94	40624.68
540.11	39948.26
540.28	40339.13
540.44	40591.91
540.61	40509.99
540.78	40582.55
540.95	40582.55
541.12	40484.25
541.29	40479.57
541.46	40657.45
541.62	41170.02
541.79	40818.94
541.96	40439.78
542.13	40463.18
542.30	40545.10
542.47	40500.63
542.63	40903.20
542.80	41277.69
542.97	41298.75
543.14	41549.19
543.31	41483.66
543.48	41092.79
543.64	42375.40
543.81	41689.62
543.98	41493.02
544.15	41434.50
544.32	41823.03
544.48	42286.46
544.65	42014.96
544.82	42202.20
544.99	41387.69
545.16	42110.92
545.32	42429.23
545.49	41944.74
545.66	42080.49
545.83	41872.18
546.00	42447.96
546.16	42047.72
546.33	42272.42
546.50	41745.80
546.67	42188.16
546.83	41551.53
547.00	42309.86
547.17	42459.66
547.34	42122.62
547.50	42703.07
547.67	42946.49
547.84	42562.64
548.00	42597.75
548.17	43086.92
548.34	42780.31
548.51	42895.00
548.67	42918.40
548.84	43309.27
549.01	43068.20
549.18	43096.28
549.34	43571.41
549.51	43033.09
549.68	42700.73
549.84	42777.97
550.01	43192.25
550.18	42869.25
550.34	43133.73
550.51	43430.98
550.68	43365.45
550.84	43276.51
551.01	43353.74
551.18	43360.76
551.34	43576.09
551.51	43194.59
551.68	43950.58
551.84	43278.85
552.01	43594.82
552.18	42920.74
552.34	42953.51
552.51	43503.54
552.68	43358.42
552.84	43454.39
553.01	43950.58
553.18	43468.43
553.34	43950.58
553.51	43690.78
553.67	43985.69
553.84	44266.55
554.01	44364.85
554.17	43800.79
554.34	44257.19
554.51	44023.14
554.67	44018.46
554.84	44477.20
555.00	44184.63
555.17	44285.28
555.33	44156.55
555.50	44212.72
555.67	44119.10
555.83	44240.81
556.00	44549.76
556.16	44561.46
556.33	44980.42
556.50	44587.21
556.66	44306.34
556.83	43959.94
556.99	44603.59
557.16	44732.32
557.32	44538.05
557.49	44804.88
557.65	44418.69
557.82	44982.76
557.98	44566.14
558.15	44744.02
558.32	44935.95
558.48	44980.42
558.65	44982.76
558.81	44900.84
558.98	44781.47
559.14	44437.41
559.31	45041.27
559.47	44914.88
559.64	44432.73
559.80	45184.04
559.97	45387.67
560.13	44542.74
560.30	44886.79
560.46	45277.66
560.63	45226.17
560.79	45221.49
560.96	45219.15
561.12	45404.05
561.29	45326.81
561.45	45509.38
561.61	45668.53
561.78	45240.21
561.94	45418.10
562.11	45118.51
562.27	45500.01
562.44	45139.57
562.60	45624.06
562.77	45455.54
562.93	45422.78
563.10	45628.74
563.26	45338.52
563.42	45811.31
563.59	45287.03
563.75	45326.81
563.92	45560.87
564.08	45640.45
564.24	45600.66
564.41	45633.42
564.57	45965.78
564.74	45792.58
564.90	45390.01
565.07	45310.43
565.23	45759.81
565.39	45614.70
565.56	46043.02
565.72	45525.76
565.88	45773.86
566.05	45546.82
566.21	46040.68
566.38	45738.75
566.54	45904.93
566.70	46045.36
566.87	46031.32
567.03	45879.18
567.19	46447.93
567.36	45560.87
567.52	45869.82
567.68	46220.90
567.85	46021.95
568.01	46007.91
568.17	46003.23
568.34	46307.50
568.50	45986.85
568.66	45502.35
568.83	46323.88
568.99	46054.72
569.15	45972.80
569.32	45827.69
569.48	45591.30
569.64	46277.07
569.81	46548.57
569.97	46597.73
570.13	46185.79
570.30	46073.45
570.46	46490.06
570.62	46459.63
570.78	45893.22
570.95	46382.40
571.11	46466.66
571.27	46234.94
571.43	46197.49
571.60	45963.44
571.76	46115.58
571.92	46181.11
572.09	46146.00
572.25	46251.33
572.41	46075.79
572.57	46113.23
572.74	46962.85
572.90	46429.21
573.06	46574.32
573.22	46609.43
573.38	46398.78
573.55	46630.49
573.71	46749.86
573.87	46457.29
574.03	46518.15
574.20	46782.63
574.36	46595.38
574.52	46632.83
574.68	46368.35
574.84	47023.70
575.01	46946.47
575.17	46934.76
575.33	46747.52
575.49	46543.89
575.65	47154.77
575.82	46843.48
575.98	46195.15
576.14	46616.45
576.30	46990.94
576.46	46618.79
576.62	46326.22
576.79	47019.02
576.95	46248.99
577.11	46576.66
577.27	46473.68
577.43	46569.64
577.59	46445.59
577.75	46309.84
577.92	46120.26
578.08	46536.87
578.24	46813.05
578.40	46777.95
578.56	46930.08
578.72	46909.02
578.88	46850.50
579.04	46389.42
579.21	46763.90
579.37	46485.38
579.53	46759.22
579.69	46595.38
579.85	46405.80
580.01	46686.67
580.17	46674.96
580.33	46862.21
580.49	46883.27
580.65	46883.27
580.82	46590.70
580.98	46969.87
581.14	46749.86
581.30	47105.62
581.46	46759.22
581.62	46763.90
581.78	46817.74
581.94	47344.36
582.10	47000.30
582.26	47250.74
582.42	46803.69
582.58	46602.41
582.74	46267.71
582.90	46703.05
583.06	46829.44
583.22	46637.51
583.38	47168.82
583.54	46960.51
583.70	47166.48
583.86	46817.74
584.02	47140.73
584.18	47629.90
584.34	47330.31
584.50	47159.45
584.66	47239.03
584.82	46934.76
584.98	46983.91
585.14	47107.96
585.30	46745.18
585.46	47255.42
585.62	46351.97
585.78	47040.09
585.94	46953.49
586.10	47063.49
586.26	46452.61
586.42	46689.01
586.58	47068.17
586.74	47019.02
586.90	46604.75
587.06	46670.28
587.22	47129.03
587.38	46897.31
587.54	47143.07
587.70	47416.91
587.86	47227.33
588.02	47145.41
588.18	46705.39
588.34	46850.50
588.49	46967.53
588.65	46939.44
588.81	47049.45
588.97	46906.68
589.13	46754.54
589.29	47164.14
589.45	47229.67
589.61	47012.00
589.77	47098.60
589.93	47161.79
590.08	47379.46
590.24	47519.90
590.40	47632.24
590.56	47459.04
590.72	47437.98
590.88	47437.98
591.04	47103.28
591.20	47377.12
591.35	47414.57
591.51	47861.61
591.67	47718.84
591.83	47821.83
591.99	47466.06
592.15	47269.46
592.31	47454.36
592.46	47639.26
592.62	47297.55
592.78	47735.23
592.94	47753.95
593.10	47608.84
593.26	47760.97
593.41	47351.38
593.57	48116.73
593.73	47737.57
593.89	48011.41
594.05	47583.09
594.20	47491.81
594.36	47971.62
594.52	47660.33
594.68	47976.30
594.84	47627.56
594.99	48065.24
595.15	47725.86
595.31	47517.56
595.47	47765.65
595.62	47679.05
595.78	47686.07
595.94	48102.69
596.10	47903.74
596.25	47934.17
596.41	47725.86
596.57	47819.49
596.73	47573.73
596.88	48044.18
597.04	47793.74
597.20	47791.40
597.36	47445.00
597.51	47805.44
597.67	47660.33
597.83	47299.89
597.99	47870.98
598.14	47452.02
598.30	47903.74
598.46	47702.46
598.61	48088.65
598.77	48048.86
598.93	47927.15
599.09	47889.70
599.24	48135.46
599.40	47365.42
599.56	47782.04
599.71	47971.62
599.87	48114.39
600.03	47870.98
600.18	47632.24
600.34	48081.63
600.50	48037.16
600.65	47964.60
600.81	48018.43
600.97	47875.66
601.12	47571.39
601.28	47955.24
601.44	47990.34
601.59	47407.55
601.75	47887.36
601.91	47782.04
602.06	47812.46
602.22	48123.75
602.37	47920.13
602.53	48030.13
602.69	47959.92
602.84	47786.72
603.00	47812.46
603.16	48044.18
603.31	47672.03
603.47	48065.24
603.62	48058.22
603.78	48158.86
603.94	48048.86
604.09	47798.42
604.25	47779.70
604.40	47899.06
604.56	48032.47
604.71	48357.81
604.87	47667.35
605.03	47791.40
605.18	48072.26
605.34	48329.72
605.49	47845.23
605.65	47945.87
605.80	47622.88
605.96	48032.47
606.12	47695.44
606.27	47737.57
606.43	47569.05
606.58	47945.87
606.74	47587.77
606.89	47983.32
607.05	47889.70
607.20	48210.35
607.36	47863.96
607.51	47665.01
607.67	47428.62
607.82	47681.39
607.98	47660.33
608.13	47449.68
608.29	47634.58
608.44	47985.66
608.60	47290.52
608.75	47767.99
608.91	47889.70
609.06	47423.93
609.22	47863.96
609.37	47737.57
609.53	47760.97
609.68	47950.56
609.84	47145.41
609.99	47632.24
610.15	47592.45
610.30	47681.39
610.46	47419.25
610.61	47222.65
610.76	47646.29
610.92	47510.53
611.07	47590.11
611.23	47171.16
611.38	47229.67
611.54	47510.53
611.69	47552.66
611.84	47522.24
612.00	47533.94
612.15	47445.00
612.31	47639.26
612.46	46981.57
612.62	47040.09
612.77	46904.34
612.92	47852.25
613.08	47423.93
613.23	47306.91
613.39	47381.80
613.54	46866.89
613.69	47175.84
613.85	46939.44
614.00	47009.66
614.15	47365.42
614.31	47030.72
614.46	47056.47
614.62	47021.36
614.77	47159.45
614.92	46579.00
615.08	46850.50
615.23	47107.96
615.38	47360.74
615.54	47475.43
615.69	47035.41
615.84	47213.29
616.00	47150.09
616.15	47194.56
616.30	47253.08
616.46	46899.65
616.61	46951.15
616.76	47159.45
616.92	46712.41
617.07	46976.89
617.22	46487.72
617.37	46522.83
617.53	46866.89
617.68	46979.23
617.83	46597.73
617.99	47171.16
618.14	47641.60
618.29	46490.06
618.45	46366.01
618.60	46199.83
618.75	46724.11
618.90	46932.42
619.06	46721.77
619.21	46710.07
619.36	46927.74
619.51	46930.08
619.67	46377.72
619.82	46726.46
619.97	46873.91
620.12	46457.29
620.28	46958.17
620.43	46752.20
620.58	46639.86
620.73	46415.16
620.89	46724.11
621.04	46719.43
621.19	46412.82
621.34	46190.47
621.49	46391.76
621.65	46670.28
621.80	46724.11
621.95	46054.72
622.10	46459.63
622.25	46349.63
622.41	46239.62
622.56	46071.10
622.71	46347.29
622.86	46085.15
623.01	46616.45
623.16	45970.46
623.32	46047.70
623.47	45979.82
623.62	46206.86
623.77	46188.13
623.92	46373.03
624.07	46115.58
624.23	46321.54
624.38	46185.79
624.53	45993.87
624.68	46099.19
624.83	46096.85
624.98	46192.81
625.13	45731.73
625.29	45972.80
625.44	45874.50
625.59	45675.55
625.74	45815.99
625.89	45574.91
626.04	45462.57
626.19	45724.71
626.34	45507.04
626.49	45268.30
626.65	45495.33
626.80	45518.74
626.95	45345.54
627.10	45481.29
627.25	45539.80
627.40	45462.57
627.55	45755.13
627.70	45652.15
627.85	45375.97
628.00	45558.53
628.15	45649.81
628.30	45350.22
628.45	44907.86
628.60	45092.76
628.76	45205.11
628.91	44690.19
629.06	44643.38
629.21	45340.86
629.36	45202.77
629.51	45235.53
629.66	45422.78
629.81	44989.78
629.96	45237.87
630.11	45139.57
630.26	44788.49
630.41	45116.17
630.56	44992.12
630.71	44788.49
630.86	44643.38
631.01	45017.86
631.16	44746.36
631.31	44568.48
631.46	45010.84
631.61	44952.33
631.76	44816.58
631.91	44858.71
632.06	45280.00
632.21	45078.72
632.36	44935.95
632.51	44594.23
632.66	45106.80
632.81	44725.30
632.96	44872.75
633.10	44701.89
633.25	44694.87
633.40	44631.68
633.55	44402.30
633.70	44854.03
633.85	44144.84
634.00	44619.97
634.15	44226.76
634.30	44402.30
634.45	43821.85
634.60	44133.14
634.75	44201.02
634.90	44287.62
635.05	44140.16
635.19	44083.99
635.34	44191.65
635.49	44208.04
635.64	44238.47
635.79	44275.91
635.94	44163.57
636.09	44383.58
636.24	43892.07
636.39	44542.74
636.53	44282.94
636.68	44004.41
636.83	43653.33
636.98	43695.46
637.13	43758.66
637.28	43625.25
637.43	43700.14
637.57	43739.93
637.72	43484.81
637.87	43941.22
638.02	44186.97
638.17	43466.09
638.32	43620.56
638.46	43676.74
638.61	43690.78
638.76	43477.79
638.91	43098.62
639.06	43086.92
639.20	43768.02
639.35	43335.02
639.50	43578.43
639.65	43592.48
639.80	43447.36
639.94	44093.35
640.09	43653.33
640.24	43480.13
640.39	43056.50
640.54	42876.27
640.68	43445.02
640.83	43901.43
640.98	43276.51
641.13	42838.83
641.27	43768.02
641.42	43068.20
641.57	43391.19
641.72	43049.47
641.86	43239.06
642.01	42564.98
642.16	42967.55
642.31	42270.08
642.45	43213.31
642.60	42546.26
642.75	43243.74
642.90	43140.75
643.04	42665.63
643.19	42820.10
643.34	42670.31
643.48	42646.90
643.63	42768.61
643.78	42375.40
643.93	43047.13
644.07	42796.70
644.22	42920.74
644.37	42696.05
644.51	43271.82
644.66	42810.74
644.81	42396.46
644.95	42817.76
645.10	42576.69
645.25	42553.28
645.39	42426.89
645.54	42391.78
645.69	41904.95
645.83	42010.28
645.98	42459.66
646.13	42321.57
646.27	42199.86
646.42	42141.35
646.57	42330.93
646.71	42389.44
646.86	42824.78
647.00	42263.05
647.15	42281.78
647.30	42471.36
647.44	42359.02
647.59	42014.96
647.74	42108.58
647.88	42286.46
648.03	42270.08
648.17	42508.81
648.32	42340.29
648.47	42401.14
648.61	41991.55
648.76	41895.59
648.90	41493.02
649.05	41724.73
649.20	42005.59
649.34	41778.56
649.49	42192.84
649.63	41565.57
649.78	41757.50
649.92	41638.13
650.07	42267.73
650.21	42101.56
650.36	41902.61
650.51	41792.61
650.65	41972.83
650.80	42115.60
650.94	41731.75
651.09	41404.08
651.23	41481.31
651.38	41453.23
651.52	41469.61
651.67	40980.44
651.81	41530.47
651.96	41617.07
652.10	41359.61
652.25	41331.52
652.39	41308.11
652.54	41603.02
652.68	41053.00
652.83	41401.74
652.97	41495.36
653.12	41177.04
653.26	41530.47
653.41	41375.99
653.55	41455.57
653.70	41214.49
653.84	41256.62
653.99	41397.06
654.13	41425.14
654.27	40978.10
654.42	41214.49
654.56	40875.12
654.71	41366.63
654.85	41088.10
655.00	41425.14
655.14	41041.29
655.29	41301.09
655.43	41570.25
655.57	40889.16
655.72	40596.59
655.86	40751.07
656.01	40374.24
656.15	40341.47
656.30	40713.62
656.44	40914.90
656.58	40652.76
656.73	40453.82
656.87	40261.90
657.01	40275.94
657.16	40718.30
657.30	40032.52
657.45	40409.35
657.59	40474.88
657.73	39910.82
657.88	40385.94
658.02	40746.39
658.16	40889.16
658.31	40933.63
658.45	40577.87
658.60	40381.26
658.74	40474.88
658.88	40421.05
659.03	40179.98
659.17	40032.52
659.31	39721.23
659.46	39793.79
659.60	40039.54
659.74	39910.82
659.89	40306.37
660.03	39220.36
660.17	40168.27
660.32	39615.91
660.46	39384.19
660.60	39278.87
660.74	39426.32
660.89	39885.07
661.03	39550.37
661.17	38871.62
661.32	39412.28
661.46	39564.42
661.60	39126.74
661.74	39367.81
661.89	39051.84
662.03	39409.94
662.17	39173.55
662.31	39119.71
662.46	38892.68
662.60	38799.06
662.74	38630.54
662.88	38305.21
663.03	38476.07
663.17	38436.28
663.31	38242.01
663.45	38923.11
663.60	39166.52
663.74	38911.41
663.88	38684.37
664.02	38557.99
664.17	38969.92
664.31	38352.02
664.45	38272.44
664.59	38274.78
664.73	38316.91
664.88	38349.68
665.02	37696.67
665.16	37486.02
665.30	38443.30
665.44	38195.20
665.59	37537.51
665.73	37771.57
665.87	37132.60
666.01	37778.59
666.15	37759.86
666.29	37787.95
666.44	37443.89
666.58	37647.52
666.72	37359.63
666.86	37439.21
667.00	37240.26
667.14	37104.51
667.28	37001.53
667.43	37415.80
667.57	37043.66
667.71	37249.63
667.85	37258.99
667.99	37233.24
668.13	36865.78
668.27	36919.61
668.41	36818.97
668.56	36320.43
668.70	36006.80
668.84	36231.49
668.98	36158.94
669.12	36390.65
669.26	36222.13
669.40	36423.42
669.54	36723.01
669.68	36154.26
669.82	35819.56
669.96	35845.30
670.10	35674.45
670.25	35424.01
670.39	35590.19
670.53	36027.87
670.67	35976.37
670.81	35772.75
670.95	35826.58
671.09	35342.09
671.23	35105.70
671.37	35770.41
671.51	35262.51
671.65	35592.53
671.79	34955.90
671.93	35180.59
672.07	35536.35
672.21	35164.21
672.35	34593.12
672.49	34843.56
672.63	34815.47
672.77	34754.61
672.91	35016.75
673.05	34567.37
673.19	34054.79
673.33	34312.25
673.47	34831.85
673.61	33991.60
673.75	33968.19
673.89	33993.94
674.03	33806.70
674.17	33757.55
674.31	34125.01
674.45	33680.31
674.59	33340.93
674.73	34019.69
674.87	33226.24
675.01	33069.43
675.15	32982.83
675.29	32945.38
675.43	33046.02
675.56	33223.90
675.70	33198.16
675.84	33013.26
675.98	32011.51
676.12	32917.29
676.26	33015.60
676.40	32624.73
676.54	32219.81
676.68	32659.84
676.82	31669.79
676.96	31999.80
677.10	32512.38
677.23	31861.71
677.37	32093.43
677.51	31777.45
677.65	31587.87
677.79	31555.10
677.93	31552.76
678.07	31690.85
678.21	31051.89
678.34	31072.95
678.48	30955.93
678.62	30684.42
678.76	30866.98
678.90	31136.15
679.04	30965.29
679.18	31091.68
679.31	30576.76
679.45	30658.68
679.59	30122.69
679.73	30160.14
679.87	30274.83
680.00	30450.37
680.14	30616.55
680.28	29930.77
680.42	29977.58
680.56	29720.12
680.70	29413.51
680.83	29317.55
680.97	29483.73
681.11	29420.53
681.25	29268.40
681.39	28922.00
681.52	29163.08
681.66	28797.95
681.80	28699.65
681.94	28329.84
682.07	28603.69
682.21	28524.11
682.35	28425.81
682.49	28360.27
682.62	28205.80
682.76	28388.36
682.90	28395.38
683.04	27894.50
683.17	28063.02
683.31	28095.79
683.45	27721.30
683.59	27402.99
683.72	27143.19
683.86	27531.72
684.00	27477.89
684.13	27295.33
684.27	26834.24
684.41	26972.33
684.55	27119.79
684.68	26869.35
684.82	26492.52
684.96	26445.71
685.09	26396.56
685.23	26321.66
685.37	27028.51
685.50	26679.77
685.64	27012.12
685.78	26324.01
685.91	25928.45
686.05	25979.95
686.19	25521.20
686.32	25809.09
686.46	25394.81
686.60	25490.77
686.73	25312.89
686.87	25336.30
687.01	25245.02
687.14	25331.62
687.28	25212.25
687.42	25277.79
687.55	24847.13
687.69	24833.08
687.82	24575.62
687.96	24559.24
688.10	24601.37
688.23	24648.18
688.37	24617.75
688.50	24760.53
688.64	24287.74
688.78	23946.02
688.91	24173.05
689.05	23943.68
689.18	24039.64
689.32	23283.65
689.46	23293.01
689.59	23360.89
689.73	24032.62
689.86	23852.40
690.00	23508.34
690.13	23309.40
690.27	23211.09
690.41	23201.73
690.54	23028.53
690.68	22808.52
690.81	22586.17
690.95	22576.81
691.08	22178.92
691.22	22417.65
691.35	22616.60
691.49	22415.31
691.62	22038.48
691.76	21940.18
691.89	22082.95
692.03	21729.53
692.16	21507.18
692.30	21989.33
692.43	21582.08
692.57	21406.54
692.70	21324.62
692.84	21231.00
692.97	21144.40
693.11	21099.93
693.24	20917.37
693.38	20893.96
693.51	20879.92
693.65	20968.86
693.78	20498.41
693.92	20224.57
694.05	20439.90
694.19	20615.44
694.32	20566.29
694.45	20341.60
694.59	20393.09
694.72	20716.08
694.86	20084.14
694.99	19836.04
695.13	19826.68
695.26	19917.96
695.39	19515.39
695.53	19461.55
695.66	19435.81
695.80	19112.81
695.93	19318.78
696.07	19150.26
696.20	18719.60
696.33	18780.46
696.47	18813.23
696.60	18752.37
696.73	18831.95
696.87	19019.19
697.00	19016.85
697.14	18773.44
697.27	18562.79
697.40	18396.61
697.54	18511.30
697.67	18508.96
697.80	18164.90
697.94	18019.78
698.07	17937.87
698.21	18033.83
698.34	17991.70
698.47	17645.30
698.61	17242.73
698.74	17528.27
698.87	17378.48
699.01	17165.49
699.14	17572.74
699.27	16929.09
699.40	17500.19
699.54	17018.04
699.67	17104.64
699.80	16725.47
699.94	16748.87
700.07	16779.30
700.20	16533.54
700.34	16514.82
700.47	16570.99
700.60	16875.26
700.73	16297.15
700.87	16194.17
701.00	16067.78
701.13	16039.69
701.26	15985.86
701.40	16025.65
701.53	15716.70
701.66	16037.35
701.79	15850.11
701.93	15339.87
702.06	15623.08
702.19	15248.59
702.32	15419.45
702.46	15487.32
702.59	15475.62
702.72	15454.56
702.85	15400.72
702.99	15367.96
703.12	15136.24
703.25	14984.11
703.38	14944.32
703.51	14846.02
703.65	14960.70
703.78	14487.92
703.91	14370.89
704.04	14525.36
704.17	14410.68
704.31	14260.88
704.44	14284.29
704.57	14293.65
704.70	14211.73
704.83	13984.70
704.96	14008.11
705.10	13951.93
705.23	13827.88
>>>>>End Processed Spectral Data<<<<<
