SpectraSuite Data File
++++++++++++++++++++++++++++++++++++
Date: Fri Oct 25 11:26:33 EDT 2013
User: price-jones
Dark Spectrum Present: No
Reference Spectrum Present: No
Number of Sampled Component Spectra: 1
Spectrometers: USB2+H05261
Integration Time (usec): 100000 (USB2+H05261)
Spectra Averaged: 1 (USB2+H05261)
Boxcar Smoothing: 0 (USB2+H05261)
Correct for Electrical Dark: No (USB2+H05261)
Strobe/Lamp Enabled: No (USB2+H05261)
Correct for Detector Non-linearity: No (USB2+H05261)
Correct for Stray Light: No (USB2+H05261)
Number of Pixels in Processed Spectrum: 2048
>>>>>Begin Processed Spectral Data<<<<<
365.73	245.76
365.92	245.76
366.12	245.76
366.32	154.48
366.52	138.09
366.72	191.92
366.91	114.69
367.11	133.41
367.31	203.63
367.51	166.18
367.70	72.56
367.90	154.48
368.10	159.16
368.30	135.75
368.49	177.88
368.69	212.99
368.89	170.86
369.09	184.90
369.28	138.09
369.48	196.60
369.68	201.29
369.87	248.10
370.07	138.09
370.27	189.58
370.47	353.42
370.66	571.09
370.86	603.86
371.06	664.71
371.25	737.27
371.45	690.46
371.65	692.80
371.84	664.71
372.04	650.67
372.24	734.93
372.44	655.35
372.63	772.38
372.83	814.51
373.03	695.14
373.22	734.93
373.42	772.38
373.62	821.53
373.81	823.87
374.01	786.42
374.21	854.30
374.40	828.55
374.60	819.19
374.79	805.14
374.99	814.51
375.19	816.85
375.38	851.96
375.58	812.17
375.78	870.68
375.97	917.49
376.17	880.04
376.37	840.25
376.56	833.23
376.76	889.40
376.95	861.32
377.15	875.36
377.35	901.11
377.54	952.60
377.74	880.04
377.93	896.43
378.13	891.74
378.33	961.96
378.52	903.45
378.72	964.30
378.91	987.71
379.11	976.00
379.31	940.90
379.50	915.15
379.70	971.32
379.89	990.05
380.09	945.58
380.28	961.96
380.48	1004.09
380.68	919.83
380.87	1039.20
381.07	994.73
381.26	1088.35
381.46	1018.13
381.65	994.73
381.85	1004.09
382.04	1046.22
382.24	999.41
382.43	1123.46
382.63	1039.20
382.83	1081.33
383.02	1095.37
383.22	1090.69
383.41	1086.01
383.61	1076.65
383.80	1118.78
384.00	1132.82
384.19	1114.10
384.39	1022.81
384.58	1165.59
384.78	1191.33
384.97	1231.12
385.17	1214.74
385.36	1186.65
385.56	1083.67
385.75	1177.29
385.95	1219.42
386.14	1210.06
386.34	1193.67
386.53	1259.21
386.72	1289.64
386.92	1336.45
387.11	1188.99
387.31	1231.12
387.50	1224.10
387.70	1284.95
387.89	1163.25
388.09	1249.85
388.28	1444.11
388.48	1296.66
388.67	1287.29
388.86	1261.55
389.06	1277.93
389.25	1397.30
389.45	1306.02
389.64	1320.06
389.84	1418.36
390.03	1369.21
390.22	1357.51
390.42	1366.87
390.61	1411.34
390.81	1373.89
391.00	1390.28
391.19	1460.49
391.39	1441.77
391.58	1507.30
391.78	1411.34
391.97	1462.83
392.16	1486.24
392.36	1589.22
392.55	1579.86
392.75	1504.96
392.94	1488.58
393.13	1474.54
393.33	1561.14
393.52	1577.52
393.71	1565.82
393.91	1659.44
394.10	1607.95
394.29	1666.46
394.49	1619.65
394.68	1713.27
394.88	1643.06
395.07	1741.36
395.26	1699.23
395.46	1753.06
395.65	1671.14
395.84	1710.93
396.04	1783.49
396.23	1846.68
396.42	1636.03
396.62	1753.06
396.81	1746.04
397.00	1776.47
397.19	1750.72
397.39	1736.68
397.58	1802.21
397.77	1776.47
397.97	1811.57
398.16	1888.81
398.35	1834.98
398.55	1881.79
398.74	1914.56
398.93	1884.13
399.12	1916.90
399.32	1856.04
399.51	1926.26
399.70	2031.58
399.90	1963.71
400.09	2012.86
400.28	2036.27
400.47	1991.80
400.67	2174.36
400.86	2076.06
401.05	2181.38
401.24	2172.02
401.44	2155.63
401.63	2012.86
401.82	2197.76
402.01	2207.13
402.21	2104.14
402.40	2186.06
402.59	2253.94
402.78	2265.64
402.97	2195.42
403.17	2188.40
403.36	2141.59
403.55	2345.22
403.74	2338.20
403.93	2317.13
404.13	2324.15
404.32	2342.88
404.51	2471.61
404.70	2434.16
404.89	2401.39
405.09	2495.01
405.28	2389.69
405.47	2558.21
405.66	2572.25
405.85	2485.65
406.05	2464.58
406.24	2600.34
406.43	2539.48
406.62	2710.34
406.81	2602.68
407.00	2661.19
407.20	2642.46
407.39	2724.38
407.58	2794.60
407.77	2745.45
407.96	2836.73
408.15	2672.89
408.34	2771.19
408.54	2775.88
408.73	2839.07
408.92	2876.52
409.11	2874.18
409.30	3019.29
409.49	2846.09
409.68	2867.16
409.87	2913.97
410.07	2920.99
410.26	2860.13
410.45	2956.10
410.64	3101.21
410.83	3112.91
411.02	3009.93
411.21	3199.51
411.40	3187.81
411.59	3171.43
411.78	3215.90
411.98	3269.73
412.17	3260.37
412.36	3358.67
412.55	3438.25
412.74	3513.14
412.93	3449.95
413.12	3365.69
413.31	3487.40
413.50	3496.76
413.69	3508.46
413.88	3529.53
414.07	3613.79
414.26	3651.24
414.45	3557.61
414.64	3597.40
414.83	3803.37
415.02	3824.44
415.22	3784.65
415.41	3981.25
415.60	3850.18
415.79	3950.82
415.98	3854.86
416.17	3974.23
416.36	3892.31
416.55	3955.51
416.74	4145.09
416.93	4021.04
417.12	4119.34
417.31	4079.55
417.50	4187.22
417.69	4311.27
417.88	4358.08
418.07	4255.09
418.26	4325.31
418.45	4262.12
418.64	4472.76
418.83	4400.21
419.02	4547.66
419.21	4454.04
419.39	4437.66
419.58	4444.68
419.77	4353.40
419.96	4542.98
420.15	4587.45
420.34	4641.28
420.53	4610.86
420.72	4753.63
420.91	4631.92
421.10	4674.05
421.29	4929.17
421.48	4676.39
421.67	4660.01
421.86	4779.37
422.05	4901.08
422.24	4791.08
422.43	4896.40
422.61	4983.00
422.80	4945.55
422.99	4870.65
423.18	4971.30
423.37	4980.66
423.56	4896.40
423.75	4933.85
423.94	4830.87
424.13	4643.62
424.32	4685.75
424.50	5006.41
424.69	5118.75
424.88	5069.60
425.07	5018.11
425.26	5034.49
425.45	4863.63
425.64	5048.54
425.83	5093.01
426.01	5041.51
426.20	5053.22
426.39	5039.17
426.58	5029.81
426.77	5013.43
426.96	5013.43
427.15	5039.17
427.33	5191.31
427.52	5160.88
427.71	5231.10
427.90	5303.65
428.09	5348.12
428.28	5294.29
428.46	5413.66
428.65	5336.42
428.84	5488.56
429.03	5511.96
429.22	5479.19
429.40	5568.13
429.59	5533.03
429.78	5390.25
429.97	5439.40
430.16	5636.01
430.34	5479.19
430.53	5621.97
430.72	5650.05
430.91	5610.26
431.10	5678.14
431.28	5760.06
431.47	5898.15
431.66	5809.21
431.85	5844.32
432.03	5891.13
432.22	5937.94
432.41	5867.72
432.60	6066.67
432.79	6040.92
432.97	5933.26
433.16	5830.27
433.35	6139.23
433.54	6136.88
433.72	6150.93
433.91	6209.44
434.10	6225.82
434.28	6253.91
434.47	6232.85
434.66	6392.00
434.85	6265.61
435.03	6289.02
435.22	6413.07
435.41	6403.71
435.59	6373.28
435.78	6574.56
435.97	6429.45
436.16	6408.39
436.34	6420.09
436.53	6548.82
436.72	6609.67
436.90	6480.94
437.09	6724.36
437.28	6392.00
437.46	6604.99
437.65	6719.68
437.84	6860.11
438.02	6820.32
438.21	6668.19
438.40	6715.00
438.58	7000.54
438.77	6972.46
438.96	6939.69
439.14	7105.87
439.33	7124.59
439.52	7194.81
439.70	7073.10
439.89	7351.62
440.08	7384.39
440.26	7281.41
440.45	7396.09
440.63	7321.20
440.82	7683.98
441.01	7573.97
441.19	7691.00
441.38	7735.47
441.57	7899.31
441.75	7747.17
441.94	7918.03
442.12	8070.17
442.31	7932.08
442.50	8067.83
442.68	8035.06
442.87	8084.21
443.05	8191.88
443.24	8266.77
443.43	8124.00
443.61	8205.92
443.80	8486.78
443.98	7922.71
444.17	7819.73
444.35	8294.86
444.54	8479.76
444.73	8308.90
444.91	8386.14
445.10	8479.76
445.28	8280.82
445.47	8271.45
445.65	8482.10
445.84	8432.95
446.02	8491.46
446.21	8468.06
446.39	8428.27
446.58	8561.68
446.77	8507.85
446.95	8262.09
447.14	8472.74
447.32	8613.17
447.51	8498.49
447.69	8528.91
447.88	8339.33
448.06	8638.92
448.25	8407.20
448.43	8446.99
448.62	8589.77
448.80	8601.47
448.99	8805.10
449.17	8800.41
449.36	8437.63
449.54	8786.37
449.73	8903.40
449.91	9121.07
450.10	8997.02
450.28	9006.38
450.46	9116.39
450.65	9085.96
450.83	9151.49
451.02	9081.28
451.20	9212.35
451.39	9095.32
451.57	8950.21
451.76	9294.27
451.94	9469.81
452.13	9256.82
452.31	9366.82
452.49	9090.64
452.68	9488.53
452.86	9324.69
453.05	9392.57
453.23	9495.55
453.42	9500.23
453.60	9277.88
453.78	9521.30
453.97	9525.98
454.15	9488.53
454.34	9617.26
454.52	9720.24
454.70	9600.88
454.89	9650.03
455.07	10094.73
455.26	9813.87
455.44	10080.69
455.62	9963.66
455.81	9958.98
455.99	10303.04
456.17	10143.88
456.36	9912.17
456.54	10265.59
456.73	10113.45
456.91	10537.09
457.09	10319.42
457.28	10602.63
457.46	10312.40
457.64	10445.81
457.83	10464.54
458.01	10370.91
458.19	10740.72
458.38	10642.42
458.56	10738.38
458.74	10712.63
458.93	10750.08
459.11	10740.72
459.29	10817.96
459.48	10920.94
459.66	10937.32
459.84	11077.76
460.03	11201.80
460.21	11178.40
460.39	11126.91
460.57	11119.89
460.76	11421.81
460.94	11101.16
461.12	11370.32
461.31	11115.20
461.49	11286.06
461.67	11180.74
461.85	11695.66
462.04	11419.47
462.22	11653.53
462.40	11578.63
462.59	11433.52
462.77	11499.05
462.95	11442.88
463.13	11449.90
463.32	11417.13
463.50	11850.13
463.68	11950.78
463.86	11688.64
464.05	11618.42
464.23	11997.59
464.41	11983.54
464.59	11660.55
464.78	12241.00
464.96	11946.09
465.14	11946.09
465.32	12006.95
465.50	12208.23
465.69	12100.57
465.87	12156.74
466.05	12266.75
466.23	12470.37
466.41	12346.33
466.60	12428.24
466.78	12081.85
466.96	12166.10
467.14	12119.29
467.32	12313.56
467.51	12727.83
467.69	12308.88
467.87	12587.40
468.05	12711.45
468.23	12571.02
468.41	12369.73
468.60	12552.29
468.78	12659.96
468.96	12631.87
469.14	12645.91
469.32	12987.63
469.50	12688.04
469.69	12769.96
469.87	13032.10
470.05	12882.31
470.23	13249.77
470.41	13055.51
470.59	13315.31
470.77	13334.03
470.95	13280.20
471.14	13774.05
471.32	13231.05
471.50	13635.96
471.68	13556.38
471.86	13722.56
472.04	13750.65
472.22	13816.18
472.40	13872.36
472.58	13832.57
472.77	13867.67
472.95	14209.39
473.13	14721.97
473.31	14111.09
473.49	14085.34
473.67	14075.98
473.85	14183.65
474.03	14773.46
474.21	14717.29
474.39	14728.99
474.57	14824.95
474.75	15105.82
474.93	15101.14
475.12	14747.72
475.30	15176.03
475.48	15370.30
475.66	15180.71
475.84	15159.65
476.02	15496.69
476.20	15110.50
476.38	15651.16
476.56	16056.08
476.74	16196.51
476.92	15953.09
477.10	16016.29
477.28	16140.33
477.46	16222.25
477.64	16315.87
477.82	16695.04
478.00	17076.55
478.18	16844.84
478.36	17106.98
478.54	17144.42
478.72	17362.09
478.90	17532.95
479.08	17820.84
479.26	17902.76
479.44	17715.51
479.62	17919.14
479.80	18157.88
479.98	18125.11
480.16	18757.05
480.34	18508.96
480.52	18696.20
480.70	18579.17
480.88	18347.46
481.06	18764.07
481.24	18869.40
481.41	19096.43
481.59	19363.25
481.77	19796.25
481.95	19557.52
482.13	19700.29
482.31	19847.74
482.49	20187.12
482.67	20276.06
482.85	20489.05
483.03	20552.24
483.21	20837.79
483.39	21172.49
483.57	21097.59
483.74	21289.51
483.92	21348.03
484.10	21383.13
484.28	21518.89
484.46	22059.55
484.64	22448.08
484.82	21954.22
485.00	22522.98
485.18	22808.52
485.35	23009.81
485.53	22871.72
485.71	23042.57
485.89	23782.18
486.07	23297.69
486.25	23314.08
486.43	23386.63
486.61	23606.64
486.78	24166.03
486.96	24002.19
487.14	24786.27
487.32	24470.30
487.50	24718.40
487.68	24559.24
487.85	25514.18
488.03	25427.58
488.21	25874.62
488.39	25837.17
488.57	26228.04
488.75	26419.97
488.92	26630.62
489.10	26881.05
489.28	26773.39
489.46	27143.19
489.64	26909.14
489.81	27646.41
489.99	27679.18
490.17	27960.04
490.35	28379.00
490.53	28084.09
490.70	28521.77
490.88	28046.64
491.06	28664.54
491.24	28835.40
491.41	29230.95
491.59	29244.99
491.77	29687.36
491.95	29790.34
492.13	29560.97
492.30	30644.63
492.48	30368.45
492.66	30356.75
492.84	30174.19
493.01	30658.68
493.19	30672.72
493.37	31098.70
493.54	31157.21
493.72	31515.31
493.90	31597.23
494.08	31889.80
494.25	31906.18
494.43	32058.32
494.61	32329.82
494.79	32711.33
494.96	32559.19
495.14	32453.87
495.32	33134.96
495.49	33497.75
495.67	33205.18
495.85	33591.37
496.02	33820.74
496.20	33659.24
496.38	34012.66
496.55	34108.63
496.73	34991.01
496.91	34810.79
497.09	34897.39
497.26	34941.86
497.44	35311.66
497.62	35189.95
497.79	35812.54
497.97	35810.20
498.14	35969.35
498.32	36243.20
498.50	36222.13
498.67	36893.86
498.85	36603.64
499.03	36465.55
499.20	36704.28
499.38	36900.89
499.56	37090.47
499.73	37254.31
499.91	37256.65
500.08	37741.14
500.26	37448.57
500.44	37635.81
500.61	38082.86
500.79	37989.24
500.97	38384.79
501.14	38677.35
501.32	38665.65
501.49	38153.07
501.67	38731.18
501.84	38822.47
502.02	38403.51
502.20	39332.70
502.37	39229.72
502.55	39739.96
502.72	39775.06
502.90	39828.90
503.07	39395.90
503.25	39842.94
503.43	39730.59
503.60	40432.75
503.78	40226.79
503.95	40292.32
504.13	40374.24
504.30	40868.09
504.48	40582.55
504.65	40978.10
504.83	40964.06
505.01	41401.74
505.18	40973.42
505.36	41455.57
505.53	41385.35
505.71	41638.13
505.88	41965.81
506.06	41684.94
506.23	42026.66
506.41	42038.36
506.58	42176.45
506.76	41848.78
506.93	42469.02
507.11	42536.90
507.28	42979.26
507.46	43140.75
507.63	43037.77
507.81	43587.80
507.98	42953.51
508.16	43084.58
508.33	43248.42
508.50	43796.10
508.68	43494.18
508.85	44048.88
509.03	43831.21
509.20	44210.38
509.38	44491.24
509.55	44509.97
509.73	44842.32
509.90	44797.85
510.08	44940.63
510.25	44697.21
510.42	45027.23
510.60	45301.07
510.77	45390.01
510.95	45462.57
511.12	45364.26
511.30	45336.18
511.47	45762.15
511.64	45134.89
511.82	45621.72
511.99	45647.47
512.17	45787.90
512.34	45757.47
512.51	46464.32
512.69	46848.16
512.86	46307.50
513.04	46787.31
513.21	46880.93
513.38	46857.52
513.56	46838.80
513.73	46698.37
513.90	47255.42
514.08	47098.60
514.25	47564.37
514.43	47618.20
514.60	47257.76
514.77	47459.04
514.95	47756.29
515.12	47325.63
515.29	47697.78
515.47	48123.75
515.64	47632.24
515.81	47622.88
515.99	48095.67
516.16	48367.17
516.33	48238.44
516.51	48744.00
516.68	48666.76
516.85	48992.09
517.03	48786.13
517.20	49223.81
517.37	48996.77
517.54	49006.14
517.72	48755.70
517.89	49382.96
518.06	49308.07
518.24	49427.43
518.41	49104.44
518.58	49581.91
518.75	49429.77
518.93	49542.12
519.10	49471.90
519.27	49696.59
519.45	49799.58
519.62	50078.10
519.79	50127.25
519.96	49979.80
520.14	50089.80
520.31	50115.55
520.48	50373.01
520.65	50162.36
520.83	50483.01
521.00	50911.33
521.17	50457.27
521.34	50873.88
521.52	50534.51
521.69	50672.60
521.86	50855.16
522.03	51068.15
522.20	51131.34
522.38	51679.03
522.55	51639.24
522.72	51419.23
522.89	51524.55
523.07	51709.46
523.24	51576.04
523.41	51655.62
523.58	51433.27
523.75	51835.84
523.92	51959.89
524.10	52102.67
524.27	52102.67
524.44	52170.54
524.61	51887.34
524.78	52151.82
524.96	52264.16
525.13	52446.72
525.30	52615.24
525.47	52378.85
525.64	52488.85
525.81	52573.11
525.98	52528.64
526.16	52528.64
526.33	52722.91
526.50	53104.41
526.67	52931.22
526.84	52835.25
527.01	53015.47
527.18	52545.03
527.36	53008.45
527.53	53160.59
527.70	53521.03
527.87	53291.66
528.04	53008.45
528.21	53333.79
528.38	53228.46
528.55	54052.33
528.72	53361.87
528.89	53336.13
529.07	53474.22
529.24	53490.60
529.41	53680.19
529.58	53616.99
529.75	53631.04
529.92	53886.15
530.09	54033.61
530.26	54007.86
530.43	54110.85
530.60	53785.51
530.77	53900.20
530.94	54099.14
531.11	54007.86
531.28	53942.33
531.46	54241.92
531.63	54361.28
531.80	54190.42
531.97	54316.81
532.14	54396.39
532.31	54532.14
532.48	54557.89
532.65	54805.98
532.82	54607.04
532.99	54852.80
533.16	54616.40
533.33	54855.14
533.50	54923.01
533.67	54649.17
533.84	54717.04
534.01	54691.30
534.18	55185.15
534.35	55405.16
534.52	55185.15
534.69	55189.83
534.86	55318.56
535.03	54805.98
535.20	55393.46
535.37	55454.31
535.54	55704.75
535.71	55409.84
535.88	55711.77
536.05	55608.79
536.22	55611.13
536.38	55817.10
536.55	55576.02
536.72	55599.43
536.89	55599.43
537.06	55636.87
537.23	55838.16
537.40	55627.51
537.57	55814.76
537.74	55973.91
537.91	55990.30
538.08	55781.99
538.25	55934.12
538.42	55887.31
538.59	56350.74
538.75	55978.59
538.92	56027.74
539.09	56133.07
539.26	56329.67
539.43	56374.14
539.60	56200.94
539.77	56299.25
539.94	56659.69
540.11	56402.23
540.28	56545.00
540.44	56465.42
540.61	56360.10
540.78	56252.44
540.95	56355.42
541.12	56343.72
541.29	56348.40
541.46	56554.36
541.62	56743.95
541.79	56793.10
541.96	56411.59
542.13	56832.89
542.30	56664.37
542.47	56919.49
542.63	56959.28
542.80	56919.49
542.97	57205.03
543.14	57301.00
543.31	57200.35
543.48	57237.80
543.64	57537.39
543.81	57272.91
543.98	57289.29
544.15	57223.76
544.32	57563.14
544.48	57605.26
544.65	57530.37
544.82	57343.12
544.99	57301.00
545.16	57595.90
545.32	57439.09
545.49	57490.58
545.66	57677.82
545.83	57661.44
546.00	57806.55
546.16	57715.27
546.33	57633.35
546.50	57677.82
546.67	57860.38
546.83	57673.14
547.00	57701.23
547.17	57865.06
547.34	57921.24
547.50	58089.76
547.67	58274.66
547.84	57963.37
548.00	58255.93
548.17	58087.42
548.34	58164.65
548.51	58335.51
548.67	58131.89
548.84	58129.54
549.01	58351.90
549.18	58134.23
549.34	58445.52
549.51	58267.64
549.68	58260.62
549.84	58166.99
550.01	58602.33
550.18	58370.62
550.34	58340.19
550.51	58532.12
550.68	58401.05
550.84	58328.49
551.01	58597.65
551.18	58653.82
551.34	58494.67
551.51	58698.30
551.68	58599.99
551.84	58714.68
552.01	58365.94
552.18	58745.11
552.34	58550.84
552.51	58897.24
552.68	58717.02
552.84	58663.19
553.01	59152.36
553.18	58827.02
553.34	58899.58
553.51	58925.33
553.67	58749.79
553.84	58890.22
554.01	59143.00
554.17	58953.41
554.34	58925.33
554.51	58983.84
554.67	59203.85
554.84	58885.54
555.00	59063.42
555.17	59189.81
555.33	59243.64
555.50	58990.86
555.67	59065.76
555.83	59112.57
556.00	59185.13
556.16	59421.52
556.33	59353.65
556.50	59325.56
556.66	59477.69
556.83	59161.72
556.99	59442.59
557.16	59501.10
557.32	59491.74
557.49	59594.72
557.65	59334.92
557.82	59489.40
557.98	59433.22
558.15	59578.34
558.32	59568.97
558.48	59491.74
558.65	59414.50
558.81	59538.55
558.98	59662.60
559.14	59517.48
559.31	59774.94
559.47	59711.75
559.64	59856.86
559.80	59770.26
559.97	59866.22
560.13	59742.17
560.30	59702.38
560.46	59796.01
560.63	59917.71
560.79	59812.39
560.96	59880.27
561.12	59704.73
561.29	59840.48
561.45	60109.64
561.61	60001.97
561.78	60011.34
561.94	59957.50
562.11	59751.54
562.27	59856.86
562.44	60048.78
562.60	60109.64
562.77	60065.17
562.93	59957.50
563.10	60133.04
563.26	59891.97
563.42	60210.28
563.59	59978.57
563.75	59959.84
563.92	60018.36
564.08	59877.93
564.24	60107.30
564.41	60051.12
564.57	60027.72
564.74	60203.26
564.90	60121.34
565.07	59985.59
565.23	59987.93
565.39	60271.14
565.56	60114.32
565.72	60126.02
565.88	60268.79
566.05	60133.04
566.21	60048.78
566.38	60390.50
566.54	60207.94
566.70	60498.17
566.87	60451.36
567.03	60048.78
567.19	60484.12
567.36	60360.08
567.52	60331.99
567.68	60495.83
567.85	60537.96
568.01	60434.97
568.17	60308.58
568.34	60505.19
568.50	60240.71
568.66	60357.74
568.83	60533.28
568.99	60158.79
569.15	60486.46
569.32	60317.95
569.48	60437.31
569.64	60580.09
569.81	60364.76
569.97	60310.92
570.13	60463.06
570.30	60278.16
570.46	60605.83
570.62	60516.89
570.78	60481.78
570.95	60453.70
571.11	60559.02
571.27	60449.02
571.43	60474.76
571.60	60680.73
571.76	60610.51
571.92	60488.80
572.09	60746.26
572.25	60453.70
572.41	60669.03
572.57	60746.26
572.74	60755.63
572.90	60481.78
573.06	60580.09
573.22	60570.72
573.38	60711.16
573.55	60505.19
573.71	60741.58
573.87	60783.71
574.03	60727.54
574.20	60678.39
574.36	60608.17
574.52	60863.29
574.68	60697.11
574.84	60985.00
575.01	60790.73
575.17	60685.41
575.33	60664.35
575.49	60615.19
575.65	60664.35
575.82	60933.51
575.98	60849.25
576.14	60846.91
576.30	60917.12
576.46	60622.22
576.62	60804.78
576.79	60896.06
576.95	60542.64
577.11	60816.48
577.27	60795.42
577.43	61006.06
577.59	60636.26
577.75	60832.86
577.92	60727.54
578.08	60809.46
578.24	60853.93
578.40	61057.56
578.56	60931.17
578.72	60933.51
578.88	61137.13
579.04	60994.36
579.21	60914.78
579.37	61080.96
579.53	61041.17
579.69	60699.45
579.85	60816.48
580.01	60629.24
580.17	60748.60
580.33	60879.67
580.49	60975.64
580.65	61064.58
580.82	60825.84
580.98	60933.51
581.14	60912.44
581.30	61069.26
581.46	60926.49
581.62	60926.49
581.78	60954.57
581.94	61099.68
582.10	60786.05
582.26	61003.72
582.42	60893.72
582.58	61092.66
582.74	60851.59
582.90	61153.52
583.06	60914.78
583.22	60760.31
583.38	60935.85
583.54	61043.51
583.70	61031.81
583.86	61006.06
584.02	60874.99
584.18	61132.45
584.34	61036.49
584.50	61080.96
584.66	60877.33
584.82	60783.71
584.98	61071.60
585.14	60863.29
585.30	60889.04
585.46	61179.26
585.62	60917.12
585.78	61006.06
585.94	60856.27
586.10	61062.24
586.26	60996.70
586.42	61315.01
586.58	60980.32
586.74	61083.30
586.90	61038.83
587.06	61001.38
587.22	61216.71
587.38	61064.58
587.54	61205.01
587.70	61291.61
587.86	61120.75
588.02	60973.30
588.18	61247.14
588.34	61062.24
588.49	60945.21
588.65	61160.54
588.81	61263.52
588.97	61361.82
589.13	61263.52
589.29	61165.22
589.45	61319.70
589.61	61144.16
589.77	61511.62
589.93	61118.41
590.08	61359.48
590.24	61443.74
590.40	61528.00
590.56	61535.02
590.72	61307.99
590.88	61066.92
591.04	61188.63
591.20	61434.38
591.35	61399.27
591.51	61614.60
591.67	61485.87
591.83	61513.96
591.99	61270.54
592.15	61443.74
592.31	61394.59
592.46	61446.08
592.62	61352.46
592.78	61432.04
592.94	61464.81
593.10	61396.93
593.26	61418.00
593.41	61467.15
593.57	61378.21
593.73	61687.16
593.89	61790.14
594.05	61586.52
594.20	61354.80
594.36	61689.50
594.52	61556.09
594.68	61434.38
594.84	61256.50
594.99	61406.30
595.15	61556.09
595.31	61567.79
595.47	61516.30
595.62	61546.73
595.78	61354.80
595.94	61663.75
596.10	61745.67
596.25	61656.73
596.41	61535.02
596.57	61331.40
596.73	61642.69
596.88	61591.20
597.04	61544.39
597.20	61970.36
597.36	61645.03
597.51	61701.20
597.67	61495.24
597.83	61546.73
597.99	61710.56
598.14	61755.03
598.30	61635.67
598.46	61687.16
598.61	61708.22
598.77	61408.64
598.93	61787.80
599.09	61724.61
599.24	61752.69
599.40	61738.65
599.56	61694.18
599.71	61818.23
599.87	61907.17
600.03	61876.74
600.18	61752.69
600.34	61804.19
600.50	61656.73
600.65	62007.81
600.81	61755.03
600.97	61860.36
601.12	61682.48
601.28	61670.78
601.44	61703.54
601.59	61717.59
601.75	61808.87
601.91	61951.64
602.06	61757.38
602.22	62005.47
602.37	61759.72
602.53	61703.54
602.69	61616.94
602.84	61780.78
603.00	61745.67
603.16	61923.55
603.31	61860.36
603.47	61865.04
603.62	61694.18
603.78	61832.27
603.94	61752.69
604.09	61705.88
604.25	61792.48
604.40	61736.31
604.56	61822.91
604.71	61942.28
604.87	61499.92
605.03	61811.21
605.18	61712.91
605.34	61836.95
605.49	61588.86
605.65	61841.63
605.80	61825.25
605.96	61907.17
606.12	62005.47
606.27	61972.70
606.43	61766.74
606.58	61860.36
606.74	61670.78
606.89	61488.21
607.05	61883.76
607.20	61645.03
607.36	61645.03
607.51	61673.12
607.67	61528.00
607.82	61616.94
607.98	61731.63
608.13	61628.65
608.29	61759.72
608.44	61719.93
608.60	61530.34
608.75	61691.84
608.91	61464.81
609.06	61626.31
609.22	61724.61
609.37	61586.52
609.53	61750.35
609.68	61609.92
609.84	61410.98
609.99	61504.60
610.15	61677.80
610.30	61528.00
610.46	61640.35
610.61	61635.67
610.76	61792.48
610.92	61499.92
611.07	61446.08
611.23	61502.26
611.38	61542.05
611.54	61537.36
611.69	61598.22
611.84	61563.11
612.00	61680.14
612.15	61584.18
612.31	61584.18
612.46	61506.94
612.62	61642.69
612.77	61357.14
612.92	61593.54
613.08	61516.30
613.23	61923.55
613.39	61272.88
613.54	61453.11
613.69	61324.38
613.85	61434.38
614.00	61726.95
614.15	61659.07
614.31	61371.19
614.46	61647.37
614.62	61305.65
614.77	61406.30
614.92	61300.97
615.08	61441.40
615.23	61518.64
615.38	61242.46
615.54	61633.33
615.69	61399.27
615.84	61558.43
616.00	61174.58
616.15	61448.42
616.30	61235.44
616.46	61195.65
616.61	61256.50
616.76	61329.06
616.92	61083.30
617.07	61212.03
617.22	61200.33
617.37	61137.13
617.53	61450.77
617.68	61394.59
617.83	61256.50
617.99	61282.25
618.14	61195.65
618.29	61242.46
618.45	61125.43
618.60	61092.66
618.75	60975.64
618.90	61059.90
619.06	61179.26
619.21	61071.60
619.36	61261.18
619.51	61249.48
619.67	61013.08
619.82	61020.11
619.97	61193.31
620.12	61013.08
620.28	60980.32
620.43	61197.99
620.58	60954.57
620.73	61071.60
620.89	61104.37
621.04	61151.18
621.19	60977.98
621.34	60802.44
621.49	60900.74
621.65	60973.30
621.80	60933.51
621.95	60807.12
622.10	61017.77
622.25	60994.36
622.41	60945.21
622.56	60879.67
622.71	61092.66
622.86	60809.46
623.01	60814.14
623.16	60732.22
623.32	60692.43
623.47	60795.42
623.62	60828.18
623.77	60928.83
623.92	60865.63
624.07	60963.93
624.23	60889.04
624.38	60856.27
624.53	60706.47
624.68	60582.43
624.83	60577.75
624.98	60865.63
625.13	60327.31
625.29	60757.97
625.44	60591.79
625.59	60727.54
625.74	60444.33
625.89	60544.98
626.04	60582.43
626.19	60460.72
626.34	60418.59
626.49	60331.99
626.65	60486.46
626.80	60434.97
626.95	60369.44
627.10	60245.39
627.25	60434.97
627.40	60261.77
627.55	60339.01
627.70	60245.39
627.85	60397.52
628.00	60245.39
628.15	60544.98
628.30	60341.35
628.45	60229.01
628.60	60250.07
628.76	60430.29
628.91	60364.76
629.06	60135.38
629.21	60502.85
629.36	60261.77
629.51	60219.64
629.66	60196.24
629.81	60048.78
629.96	60097.94
630.11	60123.68
630.26	60161.13
630.41	60191.56
630.56	60039.42
630.71	60191.56
630.86	60001.97
631.01	60011.34
631.16	60058.15
631.31	59964.52
631.46	59636.85
631.61	59896.65
631.76	60191.56
631.91	60161.13
632.06	60062.83
632.21	60020.70
632.36	59955.16
632.51	59620.47
632.66	59810.05
632.81	59957.50
632.96	59957.50
633.10	59744.51
633.25	59866.22
633.40	59873.24
633.55	60130.70
633.70	59835.80
633.85	59681.32
634.00	59524.50
634.15	59718.77
634.30	59723.45
634.45	59842.82
634.60	59840.48
634.75	59786.64
634.90	59674.30
635.05	59793.67
635.19	59463.65
635.34	59863.88
635.49	59718.77
635.64	59739.83
635.79	59667.28
635.94	59756.22
636.09	59866.22
636.24	59718.77
636.39	59779.62
636.53	59903.67
636.68	59391.09
636.83	59379.39
636.98	59854.52
637.13	59339.60
637.28	59512.80
637.43	59433.22
637.57	59648.55
637.72	59430.88
637.87	59341.94
638.02	59285.77
638.17	59304.49
638.32	59611.10
638.46	59344.28
638.61	59402.80
638.76	59402.80
638.91	59199.17
639.06	59437.90
639.20	59238.96
639.35	59346.62
639.50	59175.76
639.65	59192.15
639.80	59241.30
639.94	59075.12
640.09	59168.74
640.24	59217.89
640.39	59114.91
640.54	59107.89
640.68	58965.12
640.83	58930.01
640.98	58873.84
641.13	58873.84
641.27	59386.41
641.42	58925.33
641.57	58815.32
641.72	58782.55
641.86	58930.01
642.01	58838.73
642.16	58930.01
642.31	58892.56
642.45	59079.80
642.60	59040.01
642.75	59016.61
642.90	59229.60
643.04	58763.83
643.19	58869.15
643.34	58791.92
643.48	58908.94
643.63	58801.28
643.78	58857.45
643.93	59051.72
644.07	59068.10
644.22	58803.62
644.37	58368.28
644.51	58672.55
644.66	58791.92
644.81	58630.42
644.95	58618.72
645.10	58607.01
645.25	58482.97
645.39	58681.91
645.54	58518.07
645.69	58726.38
645.83	58642.12
645.98	58557.86
646.13	58635.10
646.27	58560.20
646.42	58471.26
646.57	58302.74
646.71	58419.77
646.86	58815.32
647.00	58705.32
647.15	58511.05
647.30	58302.74
647.44	58506.37
647.59	58604.67
647.74	58426.79
647.88	58628.08
648.03	58424.45
648.17	58522.76
648.32	58305.09
648.47	58415.09
648.61	58298.06
648.76	58333.17
648.90	58511.05
649.05	58398.71
649.20	58232.53
649.34	58230.19
649.49	58354.24
649.63	58291.04
649.78	58475.94
649.92	58138.91
650.07	58546.16
650.21	58354.24
650.36	58267.64
650.51	58129.54
650.65	58375.30
650.80	58176.36
650.94	58087.42
651.09	58054.65
651.23	57851.02
651.38	58019.54
651.52	57750.38
651.67	58068.69
651.81	57958.69
651.96	58052.31
652.10	57954.00
652.25	58087.42
652.39	57949.32
652.54	57757.40
652.68	57691.86
652.83	57705.91
652.97	57982.09
653.12	57895.49
653.26	57759.74
653.41	57923.58
653.55	57846.34
653.70	57846.34
653.84	57663.78
653.99	57881.45
654.13	57712.93
654.27	57628.67
654.42	57499.94
654.56	57415.68
654.71	57719.95
654.85	57902.51
655.00	57764.42
655.14	57673.14
655.29	57443.77
655.43	57530.37
655.57	57537.39
655.72	57485.90
655.86	57460.15
656.01	57776.12
656.15	57394.62
656.30	57516.32
656.44	57682.50
656.58	57719.95
656.73	57633.35
656.87	57350.15
657.01	57619.31
657.16	57293.97
657.30	57258.87
657.45	57155.88
657.59	57137.16
657.73	57244.82
657.88	57301.00
658.02	57162.90
658.16	57359.51
658.31	57371.21
658.45	57249.50
658.60	57169.93
658.74	57085.67
658.88	57212.06
659.03	57265.89
659.17	56767.35
659.31	56975.66
659.46	56905.44
659.60	56851.61
659.74	57083.33
659.89	56987.36
660.03	56966.30
660.17	57050.56
660.32	56889.06
660.46	56956.94
660.60	56673.73
660.74	57010.77
660.89	56914.81
661.03	56711.18
661.17	56500.53
661.32	56395.21
661.46	56633.94
661.60	56753.31
661.74	56332.01
661.89	56404.57
662.03	56275.84
662.17	56233.71
662.31	56308.61
662.46	56598.83
662.60	56327.33
662.74	56240.73
662.88	56097.96
663.03	56144.77
663.17	56079.24
663.31	55903.70
663.45	55936.46
663.60	55763.26
663.74	55903.70
663.88	55772.63
664.02	55945.83
664.17	55831.14
664.31	55304.52
664.45	55561.98
664.59	55463.67
664.73	55569.00
664.88	55786.67
665.02	55194.51
665.16	55753.90
665.30	55566.66
665.44	55419.20
665.59	55587.72
665.73	55456.65
665.87	55248.35
666.01	55278.77
666.15	55281.11
666.29	55409.84
666.44	55150.04
666.58	54918.33
666.72	55016.63
666.86	54747.47
667.00	54958.12
667.14	54976.84
667.28	54705.34
667.43	54726.41
667.57	54738.11
667.71	54588.31
667.85	54511.08
667.99	54499.37
668.13	54775.56
668.27	54438.52
668.41	54672.57
668.56	54279.36
668.70	54127.23
668.84	54272.34
668.98	54279.36
669.12	54157.66
669.26	54508.74
669.40	54410.43
669.54	54302.77
669.68	53939.99
669.82	54035.95
669.96	54225.53
670.10	54260.64
670.25	54169.36
670.39	53947.01
670.53	53881.47
670.67	53748.06
670.81	53956.37
670.95	53958.71
671.09	53612.31
671.23	53549.12
671.37	53521.03
671.51	53305.70
671.65	53687.21
671.79	53544.44
671.93	53317.40
672.07	53434.43
672.21	52879.72
672.35	52839.93
672.49	52676.10
672.63	52655.03
672.77	52678.44
672.91	52694.82
673.05	52196.29
673.19	52570.77
673.33	52222.03
673.47	52367.15
673.61	52566.09
673.75	52306.29
673.89	52140.11
674.03	52257.14
674.17	51999.68
674.31	51774.99
674.45	51772.65
674.59	51826.48
674.73	51751.59
674.87	51777.33
675.01	51838.18
675.15	51564.34
675.29	51508.17
675.43	51323.27
675.56	51435.61
675.70	51337.31
675.84	51079.85
675.98	49963.42
676.12	51257.73
676.26	50768.56
676.40	50712.39
676.54	50649.19
676.68	50658.56
676.82	49993.84
676.96	50408.12
677.10	50024.27
677.23	50003.20
677.37	50066.40
677.51	49822.98
677.65	49607.65
677.79	48748.68
677.93	48966.35
678.07	49574.89
678.21	48882.09
678.34	49027.20
678.48	48935.92
678.62	48942.94
678.76	48863.36
678.90	48641.01
679.04	48177.59
679.18	48832.94
679.31	47847.57
679.45	47828.85
679.59	48339.08
679.73	48577.82
679.87	47409.89
680.00	47309.25
680.14	47552.66
680.28	47629.90
680.42	46850.50
680.56	47133.71
680.70	46740.50
680.83	46836.46
680.97	46667.94
681.11	47016.68
681.25	46464.32
681.39	46054.72
681.52	46394.10
681.66	46457.29
681.80	46274.73
681.94	45745.77
682.07	45677.90
682.21	45256.60
682.35	45221.49
682.49	45464.91
682.62	44987.44
682.76	45359.58
682.90	45247.24
683.04	44907.86
683.17	44760.40
683.31	44498.26
683.45	44219.74
683.59	44051.22
683.72	43833.55
683.86	43945.90
684.00	44306.34
684.13	44133.14
684.27	43777.38
684.41	44154.21
684.55	43653.33
684.68	43627.59
684.82	43005.00
684.96	43040.11
685.09	42836.48
685.23	42525.19
685.37	42492.43
685.50	42674.99
685.64	42649.24
685.78	42684.35
685.91	42347.31
686.05	41876.86
686.19	41406.42
686.32	41518.76
686.46	40973.42
686.60	40568.51
686.73	40840.01
686.87	40678.51
687.01	40629.36
687.14	40357.86
687.28	40587.23
687.42	40486.59
687.55	40229.13
687.69	40264.24
687.82	39505.90
687.96	39393.56
688.10	39566.76
688.23	39721.23
688.37	39367.81
688.50	38864.60
688.64	38948.85
688.78	38717.14
688.91	38546.28
689.05	38656.29
689.18	38920.77
689.32	37869.87
689.46	37865.19
689.59	37771.57
689.73	37680.28
689.86	37469.64
690.00	37333.89
690.13	37532.83
690.27	37212.18
690.41	37956.47
690.54	37347.93
690.68	36992.17
690.81	37041.32
690.95	36943.02
691.08	36383.63
691.22	35817.22
691.35	36224.47
691.49	36421.08
691.62	35826.58
691.76	35627.63
691.89	35557.42
692.03	35159.53
692.16	35192.30
692.30	34857.60
692.43	35501.25
692.57	35051.86
692.70	34391.83
692.84	34586.10
692.97	34396.51
693.11	34202.25
693.24	34419.92
693.38	34075.86
693.51	33680.31
693.65	33425.19
693.78	33654.56
693.92	33338.59
694.05	33233.27
694.19	33001.55
694.32	33308.16
694.45	32744.09
694.59	32961.76
694.72	32636.43
694.86	32432.80
694.99	32285.35
695.13	32098.11
695.26	31723.62
695.39	31835.97
695.53	31674.47
695.66	31819.58
695.80	31356.16
695.93	31510.63
696.07	30338.02
696.20	30782.73
696.33	30976.99
696.47	30658.68
696.60	30675.06
696.73	30572.08
696.87	30232.70
697.00	30064.18
697.14	30534.63
697.27	30267.81
697.40	30075.88
697.54	30010.35
697.67	29610.12
697.80	29598.41
697.94	29776.30
698.07	29317.55
698.21	29099.88
698.34	28863.49
698.47	28790.93
698.61	28266.65
698.74	28849.44
698.87	28570.92
699.01	28226.86
699.14	28027.92
699.27	28114.52
699.40	28198.77
699.54	28156.64
699.67	27428.74
699.80	27393.63
699.94	27651.09
700.07	27482.57
700.20	27190.00
700.34	26862.33
700.47	26377.84
700.60	26689.13
700.73	26417.63
700.87	26115.70
701.00	26059.52
701.13	26008.03
701.26	25638.23
701.40	26057.18
701.53	25790.36
701.66	25593.76
701.79	25502.48
701.93	25025.01
702.06	24985.22
702.19	25116.29
702.32	24865.85
702.46	24744.14
702.59	24496.05
702.72	24308.80
702.85	24580.31
702.99	24582.65
703.12	24325.19
703.25	23782.18
703.38	23524.72
703.51	23498.98
703.65	23330.46
703.78	23604.30
703.91	23136.20
704.04	23424.08
704.17	23426.42
704.31	23012.15
704.44	22890.44
704.57	22548.72
704.70	22485.53
704.83	22340.41
704.96	22319.35
705.10	22317.01
705.23	22225.73
>>>>>End Processed Spectral Data<<<<<
