SpectraSuite Data File
++++++++++++++++++++++++++++++++++++
Date: Fri Oct 25 11:26:37 EDT 2013
User: price-jones
Dark Spectrum Present: No
Reference Spectrum Present: No
Number of Sampled Component Spectra: 1
Spectrometers: USB2+H05261
Integration Time (usec): 100000 (USB2+H05261)
Spectra Averaged: 1 (USB2+H05261)
Boxcar Smoothing: 0 (USB2+H05261)
Correct for Electrical Dark: No (USB2+H05261)
Strobe/Lamp Enabled: No (USB2+H05261)
Correct for Detector Non-linearity: No (USB2+H05261)
Correct for Stray Light: No (USB2+H05261)
Number of Pixels in Processed Spectrum: 2048
>>>>>Begin Processed Spectral Data<<<<<
365.73	205.97
365.92	205.97
366.12	205.97
366.32	163.84
366.52	203.63
366.72	170.86
366.91	119.37
367.11	126.39
367.31	175.54
367.51	156.82
367.70	133.41
367.90	189.58
368.10	91.28
368.30	215.33
368.49	81.92
368.69	156.82
368.89	112.35
369.09	210.65
369.28	182.56
369.48	203.63
369.68	236.39
369.87	142.77
370.07	215.33
370.27	234.05
370.47	346.40
370.66	608.54
370.86	615.56
371.06	699.82
371.25	720.88
371.45	660.03
371.65	657.69
371.84	746.63
372.04	739.61
372.24	702.16
372.44	737.27
372.63	774.72
372.83	774.72
373.03	798.12
373.22	720.88
373.42	851.96
373.62	835.57
373.81	814.51
374.01	870.68
374.21	791.10
374.40	844.93
374.60	840.25
374.79	830.89
374.99	791.10
375.19	940.90
375.38	861.32
375.58	866.00
375.78	830.89
375.97	840.25
376.17	940.90
376.37	898.77
376.56	880.04
376.76	910.47
376.95	952.60
377.15	844.93
377.35	894.08
377.54	901.11
377.74	840.25
377.93	905.79
378.13	905.79
378.33	936.21
378.52	940.90
378.72	926.85
378.91	990.05
379.11	889.40
379.31	983.02
379.50	912.81
379.70	992.39
379.89	936.21
380.09	976.00
380.28	985.37
380.48	957.28
380.68	992.39
380.87	945.58
381.07	1011.11
381.26	1104.73
381.46	938.55
381.65	959.62
381.85	1064.94
382.04	1036.86
382.24	1020.47
382.43	1039.20
382.63	1046.22
382.83	1111.75
383.02	1121.12
383.22	1104.73
383.41	1163.25
383.61	1151.54
383.80	1153.88
384.00	1153.88
384.19	1102.39
384.39	1078.99
384.58	1151.54
384.78	1146.86
384.97	1210.06
385.17	1240.48
385.36	1219.42
385.56	1139.84
385.75	1242.82
385.95	1214.74
386.14	1128.14
386.34	1118.78
386.53	1228.78
386.72	1210.06
386.92	1259.21
387.11	1214.74
387.31	1280.27
387.50	1268.57
387.70	1247.51
387.89	1261.55
388.09	1256.87
388.28	1266.23
388.48	1217.08
388.67	1338.79
388.86	1411.34
389.06	1315.38
389.25	1348.15
389.45	1284.95
389.64	1362.19
389.84	1409.00
390.03	1380.92
390.22	1404.32
390.42	1284.95
390.61	1394.96
390.81	1369.21
391.00	1376.24
391.19	1497.94
391.39	1469.86
391.58	1523.69
391.78	1401.98
391.97	1526.03
392.16	1425.39
392.36	1490.92
392.55	1577.52
392.75	1638.38
392.94	1502.62
393.13	1528.37
393.33	1483.90
393.52	1570.50
393.71	1481.56
393.91	1638.38
394.10	1631.35
394.29	1666.46
394.49	1584.54
394.68	1715.61
394.88	1577.52
395.07	1692.21
395.26	1659.44
395.46	1661.78
395.65	1694.55
395.84	1809.23
396.04	1898.17
396.23	1668.80
396.42	1743.70
396.62	1809.23
396.81	1746.04
397.00	1753.06
397.19	1753.06
397.39	1706.25
397.58	1827.96
397.77	1851.36
397.97	1823.28
398.16	1769.44
398.35	1912.22
398.55	1788.17
398.74	1949.67
398.93	1982.43
399.12	1956.69
399.32	1982.43
399.51	1998.82
399.70	2003.50
399.90	1900.52
400.09	1959.03
400.28	1980.09
400.47	1991.80
400.67	2167.34
400.86	2008.18
401.05	2094.78
401.24	2120.53
401.44	2162.66
401.63	2181.38
401.82	2253.94
402.01	2160.31
402.21	2097.12
402.40	2211.81
402.59	2073.71
402.78	2279.68
402.97	2377.98
403.17	2345.22
403.36	2305.43
403.55	2340.54
403.74	2387.35
403.93	2413.09
404.13	2408.41
404.32	2345.22
404.51	2286.70
404.70	2490.33
404.89	2289.04
405.09	2431.82
405.28	2450.54
405.47	2459.90
405.66	2513.74
405.85	2548.84
406.05	2576.93
406.24	2516.08
406.43	2537.14
406.62	2642.46
406.81	2661.19
407.00	2672.89
407.20	2551.18
407.39	2675.23
407.58	2778.22
407.77	2789.92
407.96	2794.60
408.15	2874.18
408.34	2647.15
408.54	2754.81
408.73	2792.26
408.92	2843.75
409.11	2857.79
409.30	2843.75
409.49	2909.29
409.68	2906.95
409.87	2869.50
410.07	2883.54
410.26	2953.76
410.45	3052.06
410.64	3096.53
410.83	3171.43
411.02	3096.53
411.21	3157.38
411.40	3248.66
411.59	3185.47
411.78	3194.83
411.98	3178.45
412.17	3239.30
412.36	3194.83
412.55	3396.12
412.74	3431.23
412.93	3459.31
413.12	3405.48
413.31	3606.77
413.50	3353.99
413.69	3487.40
413.88	3545.91
414.07	3632.51
414.26	3616.13
414.45	3604.42
414.64	3665.28
414.83	3817.41
415.02	3763.58
415.22	3906.35
415.41	3901.67
415.60	3915.72
415.79	3735.50
415.98	3981.25
416.17	3983.59
416.36	4051.47
416.55	4102.96
416.74	4060.83
416.93	3983.59
417.12	4107.64
417.31	4173.18
417.50	4114.66
417.69	4278.50
417.88	4280.84
418.07	4285.52
418.26	4156.79
418.45	4297.22
418.64	4547.66
418.83	4454.04
419.02	4407.23
419.21	4465.74
419.39	4521.92
419.58	4545.32
419.77	4547.66
419.96	4519.57
420.15	4575.75
420.34	4580.43
420.53	4732.56
420.72	4706.82
420.91	4727.88
421.10	4751.29
421.29	4807.46
421.48	4755.97
421.67	4725.54
421.86	4861.29
422.05	4947.89
422.24	4971.30
422.43	4823.84
422.61	4891.72
422.80	5039.17
422.99	4924.49
423.18	4966.62
423.37	5004.07
423.56	4889.38
423.75	4952.57
423.94	4910.44
424.13	4615.54
424.32	4800.44
424.50	5095.35
424.69	5259.18
424.88	5006.41
425.07	4990.02
425.26	4922.15
425.45	5018.11
425.64	4990.02
425.83	5022.79
426.01	5231.10
426.20	5165.56
426.39	5011.09
426.58	5020.45
426.77	5078.96
426.96	5184.29
427.15	5181.95
427.33	5203.01
427.52	5177.26
427.71	5383.23
427.90	5355.15
428.09	5256.84
428.28	5359.83
428.46	5441.75
428.65	5352.81
428.84	5535.37
429.03	5554.09
429.22	5310.68
429.40	5575.16
429.59	5366.85
429.78	5259.18
429.97	5256.84
430.16	5497.92
430.34	5657.07
430.53	5647.71
430.72	5619.63
430.91	5722.61
431.10	5582.18
431.28	5790.49
431.47	5799.85
431.66	5844.32
431.85	5795.17
432.03	5956.66
432.22	5874.74
432.41	5994.11
432.60	6057.31
432.79	6069.01
432.97	5802.19
433.16	5940.28
433.35	5973.05
433.54	5928.58
433.72	6092.41
433.91	6146.25
434.10	6167.31
434.28	5980.07
434.47	6139.23
434.66	6424.77
434.85	6354.55
435.03	6274.98
435.22	6317.11
435.41	6523.07
435.59	6270.30
435.78	6387.32
435.97	6408.39
436.16	6445.84
436.34	6525.41
436.53	6368.60
436.72	6656.48
436.90	6352.21
437.09	6686.91
437.28	6518.39
437.46	6530.09
437.65	6729.04
437.84	6719.68
438.02	6892.88
438.21	6698.61
438.40	6722.02
438.58	7002.88
438.77	6998.20
438.96	7056.72
439.14	7098.84
439.33	7084.80
439.52	7332.90
439.70	7201.83
439.89	7438.22
440.08	7538.87
440.26	7316.51
440.45	7461.63
440.63	7382.05
440.82	7786.96
441.01	7510.78
441.19	7482.69
441.38	7602.06
441.57	7581.00
441.75	7756.54
441.94	8121.66
442.12	8013.99
442.31	8119.32
442.50	8081.87
442.68	8042.08
442.87	8060.80
443.05	8105.28
443.24	8252.73
443.43	8159.11
443.61	8161.45
443.80	8367.42
443.98	7868.88
444.17	8002.29
444.35	8297.20
444.54	8411.89
444.73	8353.37
444.91	8290.18
445.10	8461.04
445.28	8250.39
445.47	8393.16
445.65	8243.37
445.84	8582.74
446.02	8531.25
446.21	8376.78
446.39	8374.44
446.58	8566.36
446.77	8493.80
446.95	8306.56
447.14	8454.02
447.32	8528.91
447.51	8549.98
447.69	8641.26
447.88	8507.85
448.06	8671.68
448.25	8446.99
448.43	8671.68
448.62	8519.55
448.80	8545.30
448.99	8629.56
449.17	8737.22
449.36	8667.00
449.54	8865.95
449.73	8952.55
449.91	9132.77
450.10	8891.70
450.28	9121.07
450.46	9048.51
450.65	9041.49
450.83	9107.02
451.02	9090.64
451.20	9165.54
451.39	9245.12
451.57	9137.45
451.76	8912.76
451.94	9305.97
452.13	9305.97
452.31	9418.32
452.49	8997.02
452.68	9390.23
452.86	9408.95
453.05	9308.31
453.23	9334.06
453.42	9336.40
453.60	9226.39
453.78	9638.33
453.97	9626.62
454.15	9605.56
454.34	9385.55
454.52	9769.40
454.70	9774.08
454.89	9748.33
455.07	9680.46
455.26	9907.49
455.44	9895.78
455.62	9919.19
455.81	10111.11
455.99	10001.11
456.17	10303.04
456.36	10122.82
456.54	10214.10
456.73	10239.84
456.91	10361.55
457.09	10548.79
457.28	10497.30
457.46	10176.65
457.64	10469.22
457.83	10562.84
458.01	10572.20
458.19	10773.49
458.38	10654.12
458.56	10846.04
458.74	10834.34
458.93	10530.07
459.11	10789.87
459.29	10759.44
459.48	10745.40
459.66	11009.88
459.84	10874.13
460.03	11108.18
460.21	11117.54
460.39	10857.75
460.57	10998.18
460.76	11094.14
460.94	11279.04
461.12	11269.68
461.31	10995.84
461.49	11274.36
461.67	11335.21
461.85	11510.75
462.04	11695.66
462.22	11538.84
462.40	11564.59
462.59	11461.60
462.77	11611.40
462.95	11915.67
463.13	11690.98
463.32	11625.44
463.50	11854.81
463.68	11784.60
463.86	11878.22
464.05	11669.91
464.23	11485.01
464.41	11763.53
464.59	11686.29
464.78	12013.97
464.96	11976.52
465.14	11967.16
465.32	11957.80
465.50	12196.53
465.69	12283.13
465.87	12025.67
466.05	12013.97
466.23	12306.54
466.41	12173.13
466.60	12472.71
466.78	12175.47
466.96	12231.64
467.14	12163.76
467.32	12339.30
467.51	12327.60
467.69	12100.57
467.87	12456.33
468.05	12503.14
468.23	12624.85
468.41	12407.18
468.60	12627.19
468.78	12695.07
468.96	12674.00
469.14	12697.41
469.32	12947.84
469.50	12573.36
469.69	13001.68
469.87	12971.25
470.05	13036.78
470.23	13259.13
470.41	13186.58
470.59	13172.54
470.77	13165.51
470.95	13514.25
471.14	13664.05
471.32	13221.69
471.50	13870.01
471.68	13605.53
471.86	13729.58
472.04	13689.79
472.22	14113.43
472.40	13837.25
472.58	13715.54
472.77	13902.78
472.95	14349.82
473.13	14754.74
473.31	14150.88
473.49	14066.62
473.67	14174.28
473.85	14176.62
474.03	14778.14
474.21	14532.39
474.39	14698.56
474.57	14597.92
474.75	14853.04
474.93	15272.00
475.12	15157.31
475.30	15335.19
475.48	15089.43
475.66	15382.00
475.84	15176.03
476.02	15325.83
476.20	15597.33
476.38	15969.48
476.56	15822.02
476.74	15889.90
476.92	15927.35
477.10	15859.47
477.28	16018.63
477.46	16135.65
477.64	16252.68
477.82	16854.20
478.00	16891.65
478.18	16989.95
478.36	16957.18
478.54	17348.05
478.72	17254.43
478.90	17235.70
479.08	17528.27
479.26	17790.41
479.44	17776.37
479.62	17799.77
479.80	18080.64
479.98	18043.19
480.16	18684.50
480.34	18345.12
480.52	18682.16
480.70	18597.90
480.88	18558.11
481.06	18965.36
481.24	18670.45
481.41	18993.45
481.59	19201.76
481.77	19681.56
481.95	19578.58
482.13	20051.37
482.31	19735.40
482.49	20095.84
482.67	20365.00
482.85	20479.69
483.03	20599.05
483.21	20669.27
483.39	21104.61
483.57	20868.22
483.74	20816.72
483.92	21507.18
484.10	21380.79
484.28	21441.65
484.46	22185.94
484.64	22443.40
484.82	22377.86
485.00	22169.55
485.18	22792.14
485.35	23204.07
485.53	22838.95
485.71	22902.14
485.89	23491.96
486.07	23557.49
486.25	23363.23
486.43	23330.46
486.61	23796.23
486.78	24217.52
486.96	24142.63
487.14	24500.73
487.32	24453.92
487.50	25102.25
487.68	25106.93
487.85	25083.52
488.03	25458.01
488.21	26078.25
488.39	26080.59
488.57	26307.62
488.75	26167.19
488.92	26197.62
489.10	26586.15
489.28	26700.83
489.46	26661.04
489.64	27152.55
489.81	27779.82
489.99	27468.53
490.17	27714.28
490.35	28376.66
490.53	28254.95
490.70	28549.85
490.88	28364.95
491.06	28561.56
491.24	28933.70
491.41	29233.29
491.59	28931.36
491.77	28893.91
491.95	29839.49
492.13	29832.47
492.30	30059.50
492.48	29902.68
492.66	30106.31
492.84	30054.82
493.01	30874.01
493.19	30726.55
493.37	31019.12
493.54	31037.84
493.72	31353.82
493.90	31262.54
494.08	31740.00
494.25	31695.53
494.43	32084.06
494.61	32304.07
494.79	32416.42
494.96	32748.78
495.14	32828.35
495.32	32947.72
495.49	33141.99
495.67	33174.75
495.85	33708.40
496.02	33542.22
496.20	34110.97
496.38	34176.50
496.55	34176.50
496.73	34637.59
496.91	34431.62
497.09	34939.52
497.26	35180.59
497.44	34958.24
497.62	35438.05
497.79	36236.17
497.97	35325.71
498.14	35880.41
498.32	36182.34
498.50	36135.53
498.67	36378.95
498.85	36432.78
499.03	36495.97
499.20	36493.63
499.38	37076.43
499.56	36919.61
499.73	36959.40
499.91	37518.79
500.08	37565.60
500.26	37710.71
500.44	37656.88
500.61	38064.13
500.79	37989.24
500.97	38232.65
501.14	38611.82
501.32	38937.15
501.49	38588.41
501.67	38836.51
501.84	38677.35
502.02	38974.60
502.20	38862.26
502.37	39445.05
502.55	39171.21
502.72	39510.58
502.90	39634.63
503.07	39686.12
503.25	40025.50
503.43	39573.78
503.60	39945.92
503.78	40067.63
503.95	40376.58
504.13	40645.74
504.30	40439.78
504.48	40130.83
504.65	40790.86
504.83	40680.85
505.01	41717.71
505.18	41549.19
505.36	41574.94
505.53	41134.92
505.71	41773.88
505.88	41752.82
506.06	42099.22
506.23	41947.08
506.41	41961.12
506.58	42436.25
506.76	41895.59
506.93	42485.40
507.11	42579.03
507.28	42546.26
507.46	42555.62
507.63	42941.81
507.81	43093.94
507.98	43391.19
508.16	43414.60
508.33	43311.61
508.50	43445.02
508.68	43690.78
508.85	43526.94
509.03	43585.46
509.20	43973.98
509.38	44608.27
509.55	44421.03
509.73	44444.43
509.90	44470.18
510.08	44285.28
510.25	44680.83
510.42	44823.60
510.60	45020.20
510.77	44940.63
510.95	45731.73
511.12	45261.28
511.30	45167.66
511.47	45823.01
511.64	45450.86
511.82	45895.56
511.99	45476.61
512.17	45801.94
512.34	46134.30
512.51	46553.26
512.69	46398.78
512.86	46532.19
513.04	46686.67
513.21	46604.75
513.38	46972.21
513.56	47089.24
513.73	46920.72
513.90	47175.84
514.08	46962.85
514.25	47351.38
514.43	47173.50
514.60	47236.69
514.77	46948.81
514.95	47456.70
515.12	47311.59
515.29	47793.74
515.47	47955.24
515.64	47929.49
515.81	47990.34
515.99	48357.81
516.16	48322.70
516.33	48617.61
516.51	48521.65
516.68	48765.06
516.85	48465.47
517.03	48734.63
517.20	49052.95
517.37	48540.37
517.54	49038.90
517.72	49010.82
517.89	49048.27
518.06	49242.53
518.24	49287.00
518.41	49691.91
518.58	49380.62
518.75	49226.15
518.93	49516.37
519.10	49427.43
519.27	49930.65
519.45	49588.93
519.62	50003.20
519.79	50342.58
519.96	50057.04
520.14	50272.37
520.31	50277.05
520.48	50466.63
520.65	50307.47
520.83	50417.48
521.00	50557.91
521.17	49937.67
521.34	50642.17
521.52	50988.57
521.69	50578.98
521.86	51145.39
522.03	51093.89
522.20	51295.18
522.38	51444.98
522.55	51365.40
522.72	51358.38
522.89	51222.62
523.07	51241.35
523.24	51444.98
523.41	51519.87
523.58	51341.99
523.75	52158.84
523.92	51835.84
524.10	52147.14
524.27	51838.18
524.44	51976.28
524.61	51990.32
524.78	52100.32
524.96	52505.24
525.13	52435.02
525.30	52339.06
525.47	52584.82
525.64	52350.76
525.81	52706.52
525.98	52919.51
526.16	52402.25
526.33	52484.17
526.50	53071.65
526.67	52397.57
526.84	52832.91
527.01	52856.32
527.18	52779.08
527.36	52931.22
527.53	52914.83
527.70	53090.37
527.87	53584.22
528.04	53010.79
528.21	53336.13
528.38	53371.24
528.55	53495.28
528.72	53387.62
528.89	53453.15
529.07	53645.08
529.24	53549.12
529.41	53769.13
529.58	53588.91
529.75	53429.75
529.92	54033.61
530.09	53708.27
530.26	54096.80
530.43	53851.05
530.60	53656.78
530.77	53867.43
530.94	54190.42
531.11	53738.70
531.28	54078.08
531.46	54354.26
531.63	54284.04
531.80	54274.68
531.97	54372.99
532.14	54635.13
532.31	54291.07
532.48	54499.37
532.65	54731.09
532.82	54436.18
532.99	54522.78
533.16	54576.61
533.33	54663.21
533.50	54941.74
533.67	54822.37
533.84	54490.01
534.01	54820.03
534.18	54831.73
534.35	55215.58
534.52	55145.36
534.69	55056.42
534.86	55351.33
535.03	55182.81
535.20	55182.81
535.37	55217.92
535.54	55281.11
535.71	55388.78
535.88	55475.38
536.05	55524.53
536.22	55552.62
536.38	55433.25
536.55	55758.58
536.72	55543.25
536.89	55622.83
537.06	55564.32
537.23	55655.60
537.40	55711.77
537.57	55863.91
537.74	55781.99
537.91	55896.67
538.08	55796.03
538.25	56006.68
538.42	55983.27
538.59	56238.39
538.75	55838.16
538.92	55924.76
539.09	56355.42
539.26	56189.24
539.43	56423.29
539.60	56484.15
539.77	56238.39
539.94	56399.89
540.11	56245.41
540.28	56488.83
540.44	56598.83
540.61	56526.28
540.78	56292.22
540.95	56470.11
541.12	56446.70
541.29	56484.15
541.46	56444.36
541.62	56699.48
541.79	56765.01
541.96	56385.85
542.13	56587.13
542.30	56619.90
542.47	56884.38
542.63	56912.47
542.80	56968.64
542.97	56959.28
543.14	57310.36
543.31	57240.14
543.48	57263.55
543.64	57441.43
543.81	57361.85
543.98	57291.63
544.15	57223.76
544.32	57221.42
544.48	57542.07
544.65	57408.66
544.82	57467.17
544.99	57305.68
545.16	57457.81
545.32	57478.88
545.49	57755.06
545.66	57656.76
545.83	57661.44
546.00	57598.24
546.16	57806.55
546.33	57532.71
546.50	57532.71
546.67	57769.10
546.83	57350.15
547.00	57593.56
547.17	57748.04
547.34	57776.12
547.50	58092.10
547.67	58108.48
547.84	58274.66
548.00	58073.37
548.17	58211.46
548.34	58124.86
548.51	58092.10
548.67	58377.64
548.84	58192.74
549.01	58014.86
549.18	58007.84
549.34	58213.80
549.51	58356.58
549.68	58183.38
549.84	58211.46
550.01	58384.66
550.18	58454.88
550.34	58564.88
550.51	58630.42
550.68	58665.53
550.84	58075.71
551.01	58560.20
551.18	58457.22
551.34	58775.53
551.51	58555.52
551.68	58459.56
551.84	58630.42
552.01	58461.90
552.18	58604.67
552.34	58482.97
552.51	58679.57
552.68	58522.76
552.84	58969.80
553.01	58890.22
553.18	58852.77
553.34	58962.78
553.51	58831.71
553.67	58639.78
553.84	58995.54
554.01	59051.72
554.17	58969.80
554.34	59128.95
554.51	59138.32
554.67	59058.74
554.84	58953.41
555.00	58866.81
555.17	59025.97
555.33	58986.18
555.50	58965.12
555.67	59011.93
555.83	59222.58
556.00	59150.02
556.16	59327.90
556.33	59189.81
556.50	59107.89
556.66	59559.61
556.83	59077.46
556.99	59208.53
557.16	59540.89
557.32	59576.00
557.49	59604.08
557.65	59400.46
557.82	59278.75
557.98	59405.14
558.15	59421.52
558.32	59510.46
558.48	59288.11
558.65	59503.44
558.81	59351.30
558.98	59620.47
559.14	59564.29
559.31	59580.68
559.47	59648.55
559.64	59573.66
559.80	59978.57
559.97	59721.11
560.13	59629.83
560.30	59622.81
560.46	59739.83
560.63	59929.42
560.79	59800.69
560.96	59943.46
561.12	59973.89
561.29	59735.15
561.45	59655.57
561.61	59840.48
561.78	59924.74
561.94	59746.86
562.11	59807.71
562.27	59821.75
562.44	59884.95
562.60	60275.82
562.77	59973.89
562.93	59868.56
563.10	59997.29
563.26	59812.39
563.42	60163.47
563.59	60027.72
563.75	59929.42
563.92	60111.98
564.08	59997.29
564.24	60257.09
564.41	60348.37
564.57	60039.42
564.74	59971.55
564.90	60149.43
565.07	60172.83
565.23	60135.38
565.39	60067.51
565.56	60165.81
565.72	60275.82
565.88	60416.25
566.05	60074.53
566.21	60144.75
566.38	60252.41
566.54	60280.50
566.70	60362.42
566.87	60453.70
567.03	60067.51
567.19	60383.48
567.36	60226.66
567.52	60404.55
567.68	60549.66
567.85	60369.44
568.01	60243.05
568.17	60369.44
568.34	60292.20
568.50	60404.55
568.66	60381.14
568.83	60341.35
568.99	60392.84
569.15	60516.89
569.32	60264.11
569.48	60383.48
569.64	60360.08
569.81	60495.83
569.97	60617.53
570.13	60437.31
570.30	60528.59
570.46	60603.49
570.62	60432.63
570.78	60549.66
570.95	60523.91
571.11	60685.41
571.27	60350.71
571.43	60446.68
571.60	60542.64
571.76	60601.15
571.92	60654.98
572.09	60678.39
572.25	60727.54
572.41	60584.77
572.57	60603.49
572.74	60647.96
572.90	60608.17
573.06	60650.30
573.22	60575.40
573.38	60406.89
573.55	60657.32
573.71	60704.13
573.87	60832.86
574.03	60608.17
574.20	60631.58
574.36	60713.50
574.52	60598.81
574.68	60818.82
574.84	60823.50
575.01	60690.09
575.17	60694.77
575.33	60596.47
575.49	60657.32
575.65	60961.59
575.82	60772.01
575.98	60917.12
576.14	60844.57
576.30	60956.91
576.46	60654.98
576.62	60727.54
576.79	60776.69
576.95	60673.71
577.11	60795.42
577.27	60734.56
577.43	60886.70
577.59	60715.84
577.75	60760.31
577.92	60692.43
578.08	60865.63
578.24	60870.31
578.40	60970.96
578.56	61102.03
578.72	60994.36
578.88	60814.14
579.04	61137.13
579.21	60999.04
579.37	61038.83
579.53	61020.11
579.69	60690.09
579.85	60816.48
580.01	60615.19
580.17	60835.20
580.33	60940.53
580.49	60956.91
580.65	60926.49
580.82	60823.50
580.98	60739.24
581.14	60795.42
581.30	60928.83
581.46	60956.91
581.62	60949.89
581.78	60933.51
581.94	61059.90
582.10	60996.70
582.26	60807.12
582.42	60715.84
582.58	60987.34
582.74	60830.52
582.90	60992.02
583.06	60772.01
583.22	60753.29
583.38	60669.03
583.54	60947.55
583.70	60917.12
583.86	60767.33
584.02	60825.84
584.18	60970.96
584.34	60828.18
584.50	61008.40
584.66	60804.78
584.82	60893.72
584.98	61160.54
585.14	61020.11
585.30	61066.92
585.46	61111.39
585.62	60842.23
585.78	61031.81
585.94	60797.76
586.10	61109.05
586.26	60963.93
586.42	61155.86
586.58	60870.31
586.74	61137.13
586.90	61048.19
587.06	61015.43
587.22	61172.24
587.38	61123.09
587.54	61141.81
587.70	61368.85
587.86	61183.94
588.02	61172.24
588.18	61132.45
588.34	61158.20
588.49	61197.99
588.65	61015.43
588.81	61141.81
588.97	61258.84
589.13	61155.86
589.29	61216.71
589.45	61385.23
589.61	61146.50
589.77	61591.20
589.93	61298.63
590.08	61366.51
590.24	61492.89
590.40	61469.49
590.56	61518.64
590.72	61535.02
590.88	61080.96
591.04	61382.89
591.20	61490.55
591.35	61396.93
591.51	61804.19
591.67	61366.51
591.83	61626.31
591.99	61436.72
592.15	61432.04
592.31	61375.87
592.46	61347.78
592.62	61247.14
592.78	61425.02
592.94	61338.42
593.10	61373.53
593.26	61371.19
593.41	61539.71
593.57	61446.08
593.73	61251.82
593.89	61853.34
594.05	61410.98
594.20	61361.82
594.36	61616.94
594.52	61572.47
594.68	61490.55
594.84	61635.67
594.99	61567.79
595.15	61338.42
595.31	61600.56
595.47	61460.13
595.62	61474.17
595.78	61464.81
595.94	61481.19
596.10	61776.10
596.25	61762.06
596.41	61731.63
596.57	61528.00
596.73	61623.96
596.88	61694.18
597.04	61869.72
597.20	61668.44
597.36	61705.88
597.51	61801.85
597.67	61497.58
597.83	61537.36
597.99	61715.25
598.14	61666.09
598.30	61780.78
598.46	61600.56
598.61	61776.10
598.77	61406.30
598.93	61574.81
599.09	61778.44
599.24	61965.68
599.40	61633.33
599.56	61928.23
599.71	62033.56
599.87	61886.10
600.03	61862.70
600.18	61663.75
600.34	61858.02
600.50	61701.20
600.65	61689.50
600.81	61843.98
600.97	61701.20
601.12	61731.63
601.28	61663.75
601.44	61668.44
601.59	61769.08
601.75	61649.71
601.91	61942.28
602.06	61701.20
602.22	61719.93
602.37	61790.14
602.53	61839.29
602.69	61785.46
602.84	61673.12
603.00	61609.92
603.16	61895.47
603.31	61956.32
603.47	61736.31
603.62	61843.98
603.78	61846.32
603.94	61769.08
604.09	61846.32
604.25	61769.08
604.40	61696.52
604.56	61614.60
604.71	61860.36
604.87	61614.60
605.03	61687.16
605.18	61736.31
605.34	61764.40
605.49	61598.22
605.65	61881.42
605.80	61853.34
605.96	61900.15
606.12	61759.72
606.27	61843.98
606.43	61808.87
606.58	61942.28
606.74	61766.74
606.89	61701.20
607.05	61827.59
607.20	61743.33
607.36	61600.56
607.51	61759.72
607.67	61591.20
607.82	61506.94
607.98	61609.92
608.13	61780.78
608.29	61757.38
608.44	61666.09
608.60	61535.02
608.75	61609.92
608.91	61485.87
609.06	61609.92
609.22	61513.96
609.37	61448.42
609.53	61560.77
609.68	61748.01
609.84	61485.87
609.99	61605.24
610.15	61656.73
610.30	61609.92
610.46	61675.46
610.61	61516.30
610.76	61563.11
610.92	61499.92
611.07	61420.34
611.23	61549.07
611.38	61635.67
611.54	61616.94
611.69	61663.75
611.84	61467.15
612.00	61600.56
612.15	61319.70
612.31	61588.86
612.46	61251.82
612.62	61516.30
612.77	61446.08
612.92	61649.71
613.08	61497.58
613.23	61443.74
613.39	61422.68
613.54	61205.01
613.69	61499.92
613.85	61418.00
614.00	61652.05
614.15	61703.54
614.31	61403.95
614.46	61434.38
614.62	61315.01
614.77	61382.89
614.92	61429.70
615.08	61471.83
615.23	61240.12
615.38	61406.30
615.54	61511.62
615.69	61427.36
615.84	61485.87
616.00	61172.24
616.15	61307.99
616.30	61396.93
616.46	61441.40
616.61	61228.41
616.76	61364.17
616.92	61268.20
617.07	61359.48
617.22	61289.27
617.37	61216.71
617.53	61420.34
617.68	61272.88
617.83	61373.53
617.99	61219.05
618.14	61221.39
618.29	61193.31
618.45	61015.43
618.60	61092.66
618.75	60945.21
618.90	61146.50
619.06	61354.80
619.21	61265.86
619.36	61312.67
619.51	61165.22
619.67	61144.16
619.82	60996.70
619.97	61052.87
620.12	60921.80
620.28	61057.56
620.43	60952.23
620.58	61237.78
620.73	61017.77
620.89	61235.44
621.04	61141.81
621.19	60947.55
621.34	61036.49
621.49	60917.12
621.65	61322.04
621.80	61123.09
621.95	60802.44
622.10	61017.77
622.25	60807.12
622.41	60748.60
622.56	60676.05
622.71	60800.10
622.86	60823.50
623.01	60729.88
623.16	60842.23
623.32	60858.61
623.47	61036.49
623.62	60811.80
623.77	60865.63
623.92	60973.30
624.07	61113.73
624.23	60940.53
624.38	60992.02
624.53	60683.07
624.68	60561.36
624.83	60690.09
624.98	60804.78
625.13	60704.13
625.29	60755.63
625.44	60612.85
625.59	60498.17
625.74	60563.70
625.89	60530.93
626.04	60467.74
626.19	60523.91
626.34	60624.56
626.49	60488.80
626.65	60346.03
626.80	60552.00
626.95	60217.30
627.10	60324.97
627.25	60339.01
627.40	60121.34
627.55	60104.96
627.70	60285.18
627.85	60299.22
628.00	60254.75
628.15	60278.16
628.30	60128.36
628.45	60542.64
628.60	60186.88
628.76	60409.23
628.91	60172.83
629.06	60175.17
629.21	60182.19
629.36	60140.07
629.51	60191.56
629.66	60069.85
629.81	60095.60
629.96	59971.55
630.11	59992.61
630.26	60250.07
630.41	60102.62
630.56	59980.91
630.71	59941.12
630.86	60184.54
631.01	60013.68
631.16	60076.87
631.31	59915.37
631.46	59831.11
631.61	59866.22
631.76	59903.67
631.91	60020.70
632.06	60053.47
632.21	59873.24
632.36	59915.37
632.51	59606.42
632.66	59721.11
632.81	59512.80
632.96	59859.20
633.10	59957.50
633.25	59973.89
633.40	60079.21
633.55	60013.68
633.70	59917.71
633.85	59770.26
634.00	59585.36
634.15	59784.30
634.30	59660.26
634.45	59891.97
634.60	59604.08
634.75	59695.36
634.90	59522.16
635.05	59842.82
635.19	59646.21
635.34	59760.90
635.49	59678.98
635.64	59632.17
635.79	59543.23
635.94	59632.17
636.09	59552.59
636.24	59491.74
636.39	59374.71
636.53	59676.64
636.68	59302.15
636.83	59711.75
636.98	59695.36
637.13	59559.61
637.28	59531.53
637.43	59451.95
637.57	59398.12
637.72	59194.49
637.87	59449.61
638.02	59185.13
638.17	59440.24
638.32	59355.99
638.46	59325.56
638.61	59456.63
638.76	59430.88
638.91	59412.16
639.06	59250.66
639.20	59311.52
639.35	59222.58
639.50	58880.86
639.65	59241.30
639.80	59201.51
639.94	59264.70
640.09	59159.38
640.24	59236.62
640.39	59143.00
640.54	59117.25
640.68	58803.62
640.83	59138.32
640.98	58965.12
641.13	58934.69
641.27	59393.43
641.42	59032.99
641.57	58937.03
641.72	59049.38
641.86	58829.37
642.01	58922.99
642.16	58752.13
642.31	58958.09
642.45	59199.17
642.60	58887.88
642.75	59077.46
642.90	59025.97
643.04	58845.75
643.19	58700.64
643.34	58628.08
643.48	58805.96
643.63	58871.49
643.78	58695.95
643.93	58747.45
644.07	58719.36
644.22	58796.60
644.37	58382.32
644.51	58705.32
644.66	58834.05
644.81	58714.68
644.95	58766.17
645.10	58761.49
645.25	58733.40
645.39	58457.22
645.54	58489.99
645.69	58569.57
645.83	58672.55
645.98	58508.71
646.13	58532.12
646.27	58546.16
646.42	58506.37
646.57	58707.66
646.71	58457.22
646.86	58550.84
647.00	58787.24
647.15	58529.78
647.30	58323.81
647.44	58408.07
647.59	58618.72
647.74	58642.12
647.88	58695.95
648.03	58585.95
648.17	58354.24
648.32	58328.49
648.47	58262.96
648.61	58368.28
648.76	58417.43
648.90	58478.28
649.05	58333.17
649.20	58356.58
649.34	58508.71
649.49	58323.81
649.63	58394.03
649.78	58372.96
649.92	58195.08
650.07	58468.92
650.21	58211.46
650.36	58417.43
650.51	57975.07
650.65	58099.12
650.80	58213.80
650.94	58103.80
651.09	57939.96
651.23	57818.25
651.38	58164.65
651.52	57715.27
651.67	57731.65
651.81	57886.13
651.96	57869.75
652.10	57951.66
652.25	57733.99
652.39	58099.12
652.54	57598.24
652.68	57762.08
652.83	57783.15
652.97	57755.06
653.12	57853.36
653.26	57771.44
653.41	57865.06
653.55	57804.21
653.70	57687.18
653.84	57932.94
653.99	57827.62
654.13	57701.23
654.27	57799.53
654.42	57399.30
654.56	57762.08
654.71	57528.03
654.85	57888.47
655.00	57736.34
655.14	57565.48
655.29	57577.18
655.43	57528.03
655.57	57406.32
655.72	57619.31
655.86	57535.05
656.01	57656.76
656.15	57621.65
656.30	57680.16
656.44	57612.29
656.58	57544.41
656.73	57663.78
656.87	57745.70
657.01	57513.98
657.16	57460.15
657.30	57361.85
657.45	57394.62
657.59	57256.53
657.73	57293.97
657.88	57237.80
658.02	57296.31
658.16	57214.40
658.31	57216.74
658.45	57240.14
658.60	57345.47
658.74	57226.10
658.88	57092.69
659.03	57078.64
659.17	57064.60
659.31	56823.53
659.46	57099.71
659.60	56802.46
659.74	57041.20
659.89	56685.43
660.03	56860.97
660.17	57022.47
660.32	56795.44
660.46	56891.40
660.60	56954.60
660.74	56966.30
660.89	57038.86
661.03	56381.16
661.17	56399.89
661.32	56280.52
661.46	56533.30
661.60	56388.19
661.74	56495.85
661.89	56289.88
662.03	56339.04
662.17	56390.53
662.31	56275.84
662.46	56460.74
662.60	56465.42
662.74	56411.59
662.88	56128.39
663.03	55985.61
663.17	55917.74
663.31	55805.39
663.45	55992.64
663.60	55814.76
663.74	55679.00
663.88	55901.36
664.02	55702.41
664.17	55772.63
664.31	55650.92
664.45	55494.10
664.59	55587.72
664.73	55522.19
664.88	55613.47
665.02	55203.88
665.16	55611.13
665.30	55407.50
665.44	55489.42
665.59	55295.16
665.73	55454.31
665.87	55194.51
666.01	55386.44
666.15	55426.23
666.29	55501.12
666.44	55281.11
666.58	54948.76
666.72	54873.86
666.86	55040.04
667.00	55295.16
667.14	54939.39
667.28	54852.80
667.43	54621.08
667.57	54813.01
667.71	54663.21
667.85	54574.27
667.99	54625.76
668.13	54499.37
668.27	54618.74
668.41	54719.38
668.56	54117.87
668.70	53984.46
668.84	54068.72
668.98	54010.20
669.12	54211.49
669.26	54213.83
669.40	54326.17
669.54	54225.53
669.68	54267.66
669.82	54038.29
669.96	54286.39
670.10	53914.24
670.25	54197.44
670.39	53907.22
670.53	53993.82
670.67	53944.67
670.81	53961.05
670.95	53909.56
671.09	53471.88
671.23	53352.51
671.37	53286.98
671.51	53436.77
671.65	53352.51
671.79	53385.28
671.93	53329.11
672.07	53382.94
672.21	53041.22
672.35	53022.50
672.49	52755.68
672.63	52563.75
672.77	52814.19
672.91	52638.65
673.05	52746.31
673.19	52498.22
673.33	52451.41
673.47	52687.80
673.61	52362.46
673.75	52435.02
673.89	51847.55
674.03	51941.17
674.17	52100.32
674.31	51695.41
674.45	51519.87
674.59	51899.04
674.73	52182.24
674.87	51973.94
675.01	51627.54
675.15	51552.64
675.29	51683.71
675.43	51377.10
675.56	51353.69
675.70	51192.20
675.84	50981.55
675.98	50064.06
676.12	50855.16
676.26	51019.00
676.40	50763.88
676.54	50436.20
676.68	51107.94
676.82	50148.32
676.96	50745.15
677.10	50305.13
677.23	50075.76
677.37	50061.72
677.51	49986.82
677.65	49499.99
677.79	48985.07
677.93	49202.74
678.07	49347.86
678.21	49013.16
678.34	49104.44
678.48	48844.64
678.62	48877.41
678.76	48671.44
678.90	48758.04
679.04	48371.85
679.18	48971.03
679.31	47716.50
679.45	47980.98
679.59	48282.91
679.73	48402.28
679.87	47751.61
680.00	47178.18
680.14	47107.96
680.28	47437.98
680.42	46656.24
680.56	47103.28
680.70	46824.76
680.83	46925.40
680.97	46361.33
681.11	47131.37
681.25	46656.24
681.39	46356.65
681.52	46445.59
681.66	46314.52
681.80	45993.87
681.94	45397.03
682.07	46106.21
682.21	45577.25
682.35	45338.52
682.49	45366.60
682.62	45202.77
682.76	45387.67
682.90	45151.27
683.04	44722.96
683.17	44631.68
683.31	44575.50
683.45	44102.71
683.59	44802.53
683.72	43852.28
683.86	43835.89
684.00	44383.58
684.13	44013.77
684.27	43840.57
684.41	44140.16
684.55	43756.32
684.68	43330.34
684.82	43253.10
684.96	42909.04
685.09	42707.76
685.23	42747.54
685.37	42806.06
685.50	42230.29
685.64	42593.07
685.78	42562.64
685.91	42094.53
686.05	41645.15
686.19	41249.60
686.32	41816.01
686.46	40790.86
686.60	41008.53
686.73	40968.74
686.87	40879.80
687.01	40854.05
687.14	40884.48
687.28	40196.36
687.42	40238.49
687.55	40076.99
687.69	40741.71
687.82	39601.86
687.96	39800.81
688.10	39571.44
688.23	39571.44
688.37	39557.39
688.50	38808.42
688.64	38953.54
688.78	38799.06
688.91	38511.17
689.05	38700.76
689.18	38735.87
689.32	37497.72
689.46	37844.12
689.59	37706.03
689.73	38026.68
689.86	37890.93
690.00	36943.02
690.13	37251.97
690.27	37043.66
690.41	37741.14
690.54	37013.23
690.68	36968.76
690.81	37053.02
690.95	36542.78
691.08	36524.06
691.22	36325.11
691.35	35714.23
691.49	36332.14
691.62	35894.46
691.76	35449.75
691.89	35679.13
692.03	35211.02
692.16	34974.63
692.30	35267.19
692.43	35138.46
692.57	34668.02
692.70	34363.75
692.84	34525.24
692.97	34483.11
693.11	34218.63
693.24	34164.80
693.38	34146.08
693.51	33682.65
693.65	33703.71
693.78	33240.29
693.92	33509.45
694.05	33095.18
694.19	33298.80
694.32	32964.10
694.45	33062.41
694.59	32891.55
694.72	32486.64
694.86	32378.97
694.99	32500.68
695.13	32149.60
695.26	31819.58
695.39	31688.51
695.53	31915.54
695.66	31952.99
695.80	31330.41
695.93	31398.29
696.07	30796.77
696.20	30555.69
696.33	30590.80
696.47	31000.40
696.60	30829.54
696.73	30466.75
696.87	30314.62
697.00	30478.46
697.14	30274.83
697.27	30209.29
697.40	29862.90
697.54	29523.52
697.67	29352.66
697.80	29111.58
697.94	29153.71
698.07	28844.76
698.21	29191.16
698.34	29134.99
698.47	28634.11
698.61	28184.73
698.74	28386.02
698.87	28439.85
699.01	28034.94
699.14	28163.67
699.27	27896.85
699.40	27931.95
699.54	28037.28
699.67	27789.18
699.80	27580.87
699.94	27016.80
700.07	27459.16
700.20	26848.29
700.34	27161.92
700.47	26623.59
700.60	26239.75
700.73	26525.29
700.87	26270.17
701.00	25926.11
701.13	25652.27
701.26	25762.28
701.40	25998.67
701.53	25621.84
701.66	25645.25
701.79	25219.27
701.93	25364.39
702.06	24856.49
702.19	25022.67
702.32	24980.54
702.46	25039.05
702.59	24849.47
702.72	24306.46
702.85	24409.45
702.99	24381.36
703.12	24301.78
703.25	23962.40
703.38	23723.67
703.51	23805.59
703.65	23616.01
703.78	23211.09
703.91	23248.54
704.04	23190.03
704.17	23140.88
704.31	22970.02
704.44	22747.67
704.57	22918.53
704.70	22443.40
704.83	22464.46
704.96	22328.71
705.10	22628.30
705.23	22506.59
>>>>>End Processed Spectral Data<<<<<
