SpectraSuite Data File
++++++++++++++++++++++++++++++++++++
Date: Fri Oct 25 10:44:49 EDT 2013
User: price-jones
Dark Spectrum Present: No
Reference Spectrum Present: No
Number of Sampled Component Spectra: 1
Spectrometers: USB2+H05261
Integration Time (usec): 100000 (USB2+H05261)
Spectra Averaged: 1 (USB2+H05261)
Boxcar Smoothing: 0 (USB2+H05261)
Correct for Electrical Dark: No (USB2+H05261)
Strobe/Lamp Enabled: No (USB2+H05261)
Correct for Detector Non-linearity: No (USB2+H05261)
Correct for Stray Light: No (USB2+H05261)
Number of Pixels in Processed Spectrum: 2048
>>>>>Begin Processed Spectral Data<<<<<
365.73	81.92
365.92	81.92
366.12	81.92
366.32	0.00
366.52	2.34
366.72	56.17
366.91	37.45
367.11	4.68
367.31	0.00
367.51	9.36
367.70	58.51
367.90	23.41
368.10	0.00
368.30	95.96
368.49	51.49
368.69	67.88
368.89	0.00
369.09	0.00
369.28	14.04
369.48	37.45
369.68	91.28
369.87	79.58
370.07	140.43
370.27	117.03
370.47	180.22
370.66	430.66
370.86	404.91
371.06	416.62
371.25	543.00
371.45	369.80
371.65	379.17
371.84	383.85
372.04	386.19
372.24	407.25
372.44	484.49
372.63	519.60
372.83	491.51
373.03	470.45
373.22	437.68
373.42	454.06
373.62	475.13
373.81	482.15
374.01	521.94
374.21	592.16
374.40	531.30
374.60	566.41
374.79	430.66
374.99	514.92
375.19	601.52
375.38	535.98
375.58	491.51
375.78	575.77
375.97	578.11
376.17	627.26
376.37	575.77
376.56	580.45
376.76	594.50
376.95	613.22
377.15	585.13
377.35	554.71
377.54	622.58
377.74	564.07
377.93	648.33
378.13	568.75
378.33	606.20
378.52	603.86
378.72	617.90
378.91	617.90
379.11	634.29
379.31	615.56
379.50	566.41
379.70	613.22
379.89	713.86
380.09	664.71
380.28	678.76
380.48	634.29
380.68	648.33
380.87	627.26
381.07	681.10
381.26	688.12
381.46	706.84
381.65	688.12
381.85	608.54
382.04	676.41
382.24	716.20
382.43	692.80
382.63	702.16
382.83	653.01
383.02	699.82
383.22	713.86
383.41	564.07
383.61	643.65
383.80	667.05
384.00	660.03
384.19	753.65
384.39	711.52
384.58	734.93
384.78	758.33
384.97	788.76
385.17	755.99
385.36	765.36
385.56	748.97
385.75	732.59
385.95	720.88
386.14	814.51
386.34	786.42
386.53	774.72
386.72	781.74
386.92	791.10
387.11	725.57
387.31	812.17
387.50	791.10
387.70	753.65
387.89	812.17
388.09	875.36
388.28	814.51
388.48	889.40
388.67	887.06
388.86	840.25
389.06	833.23
389.25	873.02
389.45	884.72
389.64	917.49
389.84	910.47
390.03	922.17
390.22	978.34
390.42	877.70
390.61	938.55
390.81	961.96
391.00	947.92
391.19	882.38
391.39	891.74
391.58	1001.75
391.78	1013.45
391.97	1036.86
392.16	847.27
392.36	994.73
392.55	947.92
392.75	954.94
392.94	903.45
393.13	947.92
393.33	983.02
393.52	973.66
393.71	1020.47
393.91	1004.09
394.10	1036.86
394.29	1039.20
394.49	1013.45
394.68	1039.20
394.88	1078.99
395.07	1074.31
395.26	1109.41
395.46	1121.12
395.65	1146.86
395.84	1053.24
396.04	1158.57
396.23	1086.01
396.42	1104.73
396.62	1163.25
396.81	1053.24
397.00	994.73
397.19	1160.91
397.39	1186.65
397.58	1240.48
397.77	1224.10
397.97	1231.12
398.16	1193.67
398.35	1299.00
398.55	1287.29
398.74	1376.24
398.93	1320.06
399.12	1289.64
399.32	1329.42
399.51	1254.53
399.70	1413.68
399.90	1348.15
400.09	1320.06
400.28	1441.77
400.47	1439.43
400.67	1540.07
400.86	1376.24
401.05	1362.19
401.24	1537.73
401.44	1504.96
401.63	1474.54
401.82	1502.62
402.01	1444.11
402.21	1540.07
402.40	1549.43
402.59	1504.96
402.78	1556.46
402.97	1577.52
403.17	1507.30
403.36	1598.59
403.55	1535.39
403.74	1624.33
403.93	1750.72
404.13	1645.40
404.32	1624.33
404.51	1645.40
404.70	1636.03
404.89	1668.80
405.09	1748.38
405.28	1813.92
405.47	1764.76
405.66	1743.70
405.85	1734.34
406.05	1846.68
406.24	1788.17
406.43	1746.04
406.62	1881.79
406.81	1881.79
407.00	1881.79
407.20	1769.44
407.39	1827.96
407.58	1912.22
407.77	1977.75
407.96	2038.61
408.15	1956.69
408.34	1994.14
408.54	2059.67
408.73	1996.48
408.92	2005.84
409.11	2033.93
409.30	2031.58
409.49	2111.16
409.68	1884.13
409.87	2076.06
410.07	1975.41
410.26	2043.29
410.45	2120.53
410.64	2083.08
410.83	2258.62
411.02	2310.11
411.21	2324.15
411.40	2218.83
411.59	2363.94
411.78	2228.19
411.98	2310.11
412.17	2422.45
412.36	2317.13
412.55	2286.70
412.74	2438.84
412.93	2471.61
413.12	2394.37
413.31	2600.34
413.50	2534.80
413.69	2485.65
413.88	2626.08
414.07	2562.89
414.26	2600.34
414.45	2689.28
414.64	2658.85
414.83	2815.66
415.02	2630.76
415.22	2740.77
415.41	2846.09
415.60	2836.73
415.79	2818.00
415.98	2857.79
416.17	2899.92
416.36	2888.22
416.55	2853.11
416.74	2960.78
416.93	2993.55
417.12	2970.14
417.31	3007.59
417.50	3023.97
417.69	3091.85
417.88	3080.14
418.07	3061.42
418.26	3185.47
418.45	3112.91
418.64	3131.64
418.83	3084.83
419.02	3178.45
419.21	3328.24
419.39	3215.90
419.58	3199.51
419.77	3152.70
419.96	3290.79
420.15	3276.75
420.34	3358.67
420.53	3386.76
420.72	3325.90
420.91	3426.54
421.10	3325.90
421.29	3438.25
421.48	3468.67
421.67	3468.67
421.86	3478.04
422.05	3328.24
422.24	3248.66
422.43	3410.16
422.61	3449.95
422.80	3508.46
422.99	3403.14
423.18	3517.83
423.37	3571.66
423.56	3510.80
423.75	3590.38
423.94	3534.21
424.13	3232.28
424.32	3283.77
424.50	3463.99
424.69	3595.06
424.88	3585.70
425.07	3508.46
425.26	3529.53
425.45	3382.07
425.64	3590.38
425.83	3485.06
426.01	3566.98
426.20	3531.87
426.39	3522.51
426.58	3634.85
426.77	3471.01
426.96	3599.74
427.15	3562.30
427.33	3646.55
427.52	3660.60
427.71	3641.87
427.90	3693.37
428.09	3801.03
428.28	3751.88
428.46	3770.60
428.65	3716.77
428.84	3801.03
429.03	3866.56
429.22	3861.88
429.40	3730.81
429.59	3716.77
429.78	3609.11
429.97	3660.60
430.16	3723.79
430.34	3864.22
430.53	3817.41
430.72	3934.44
430.91	3873.59
431.10	3749.54
431.28	4084.23
431.47	4058.49
431.66	4241.05
431.85	4210.62
432.03	4124.02
432.22	4287.86
432.41	4234.03
432.60	4135.73
432.79	4243.39
432.97	4360.42
433.16	4269.14
433.35	4147.43
433.54	4346.37
433.72	4337.01
433.91	4348.72
434.10	4276.16
434.28	4259.78
434.47	4367.44
434.66	4402.55
434.85	4634.26
435.03	4369.78
435.22	4386.16
435.41	4470.42
435.59	4526.60
435.78	4507.87
435.97	4432.97
436.16	4608.51
436.34	4650.64
436.53	4592.13
436.72	4751.29
436.90	4622.56
437.09	4606.17
437.28	4535.96
437.46	4624.90
437.65	4802.78
437.84	4753.63
438.02	4674.05
438.21	4664.69
438.40	4636.60
438.58	4786.40
438.77	4985.34
438.96	5018.11
439.14	4877.68
439.33	5060.24
439.52	5135.14
439.70	5172.58
439.89	5210.03
440.08	5254.50
440.26	5254.50
440.45	5170.24
440.63	5219.39
440.82	5345.78
441.01	5317.70
441.19	5533.03
441.38	5434.72
441.57	5425.36
441.75	5486.22
441.94	5479.19
442.12	5640.69
442.31	5696.86
442.50	5741.33
442.68	5486.22
442.87	5841.98
443.05	5998.79
443.24	5809.21
443.43	5825.59
443.61	5830.27
443.80	5944.96
443.98	5619.63
444.17	5481.53
444.35	5717.93
444.54	5909.85
444.73	5818.57
444.91	5710.91
445.10	5839.64
445.28	5797.51
445.47	5820.91
445.65	5825.59
445.84	5874.74
446.02	5872.40
446.21	5851.34
446.39	5886.45
446.58	5820.91
446.77	5900.49
446.95	5959.00
447.14	6052.63
447.32	6136.88
447.51	5956.66
447.69	5968.37
447.88	5959.00
448.06	5919.21
448.25	6029.22
448.43	6179.01
448.62	6092.41
448.80	6026.88
448.99	6024.54
449.17	6244.55
449.36	6078.37
449.54	6141.57
449.73	6171.99
449.91	6452.86
450.10	6478.60
450.28	6429.45
450.46	6265.61
450.65	6356.90
450.83	6502.01
451.02	6230.51
451.20	6380.30
451.39	6525.41
451.57	6478.60
451.76	6326.47
451.94	6422.43
452.13	6518.39
452.31	6546.48
452.49	6473.92
452.68	6562.86
452.86	6509.03
453.05	6532.44
453.23	6567.54
453.42	6644.78
453.60	6642.44
453.78	6698.61
453.97	6469.24
454.15	6609.67
454.34	6630.74
454.52	6754.79
454.70	6810.96
454.89	7028.63
455.07	6839.05
455.26	6773.51
455.44	6787.55
455.62	7035.65
455.81	6789.89
455.99	7040.33
456.17	7119.91
456.36	6942.03
456.54	7073.10
456.73	7105.87
456.91	7311.83
457.09	7342.26
457.28	7396.09
457.46	7052.03
457.64	7272.04
457.83	7197.15
458.01	7119.91
458.19	7461.63
458.38	7480.35
458.56	7674.62
458.74	7258.00
458.93	7602.06
459.11	7452.27
459.29	7564.61
459.48	7489.71
459.66	7428.86
459.84	7667.60
460.03	7730.79
460.21	7562.27
460.39	7833.77
460.57	7768.24
460.76	7700.36
460.94	7702.70
461.12	7936.76
461.31	7751.85
461.49	7772.92
461.67	7845.48
461.85	7992.93
462.04	7826.75
462.22	8112.30
462.40	8049.10
462.59	8081.87
462.77	8156.77
462.95	8013.99
463.13	7903.99
463.32	8114.64
463.50	8243.37
463.68	8273.79
463.86	8299.54
464.05	8035.06
464.23	8128.68
464.41	8187.19
464.59	8006.97
464.78	8383.80
464.96	8257.41
465.14	8126.34
465.32	8273.79
465.50	8400.18
465.69	8491.46
465.87	8507.85
466.05	8423.59
466.23	8210.60
466.41	8255.07
466.60	8465.72
466.78	8245.71
466.96	8634.24
467.14	8531.25
467.32	8428.27
467.51	8482.10
467.69	8463.38
467.87	8454.02
468.05	8671.68
468.23	8545.30
468.41	8486.78
468.60	8561.68
468.78	8788.71
468.96	8601.47
469.14	8711.47
469.32	8826.16
469.50	8622.53
469.69	8798.07
469.87	8929.14
470.05	9130.43
470.23	8980.64
470.41	8882.33
470.59	9205.33
470.77	9102.34
470.95	9172.56
471.14	9259.16
471.32	8915.10
471.50	9336.40
471.68	9259.16
471.86	9235.75
472.04	9444.06
472.22	9640.67
472.40	9359.80
472.58	9256.82
472.77	9479.17
472.95	9568.11
473.13	9851.31
473.31	9467.47
473.49	9547.05
473.67	9537.68
473.85	9827.91
474.03	10022.17
474.21	9846.63
474.39	9994.09
474.57	10129.84
474.75	9991.75
474.93	10289.00
475.12	10047.92
475.30	10186.01
475.48	10171.97
475.66	10270.27
475.84	10097.07
476.02	10246.87
476.20	10546.45
476.38	10480.92
476.56	11054.35
476.74	10626.03
476.92	10771.15
477.10	10909.24
477.28	10977.11
477.46	10965.41
477.64	10862.43
477.82	11145.63
478.00	11370.32
478.18	11489.69
478.36	11482.67
478.54	11335.21
478.72	11580.97
478.90	11723.74
479.08	11948.43
479.26	11964.82
479.44	11985.88
479.62	12032.69
479.80	11918.01
479.98	12149.72
480.16	12496.12
480.34	12381.43
480.52	12521.87
480.70	12631.87
480.88	12325.26
481.06	12638.89
481.24	12601.44
481.41	12952.52
481.59	13034.44
481.77	12971.25
481.95	13130.41
482.13	13200.62
482.31	13324.67
482.49	13654.69
482.67	13554.04
482.85	13738.94
483.03	13757.67
483.21	13928.53
483.39	14139.18
483.57	14087.68
483.74	14359.19
483.92	14274.93
484.10	14260.88
484.28	14539.41
484.46	14778.14
484.64	15035.60
484.82	14630.69
485.00	14689.20
485.18	15173.69
485.35	15332.85
485.53	15119.86
485.71	15279.02
485.89	15328.17
486.07	15232.21
486.25	15414.77
486.43	15496.69
486.61	15634.78
486.78	16215.23
486.96	15903.94
487.14	16116.93
487.32	16147.36
487.50	16547.59
487.68	16734.83
487.85	16964.20
488.03	16938.46
488.21	17214.64
488.39	17053.14
488.57	17319.96
488.75	17102.29
488.92	17315.28
489.10	17729.56
489.28	17839.56
489.46	17996.38
489.64	17907.44
489.81	18396.61
489.99	18497.25
490.17	18396.61
490.35	18600.24
490.53	18501.93
490.70	18607.26
490.88	18588.53
491.06	19077.71
491.24	18970.04
491.41	18895.14
491.59	19145.58
491.77	19489.64
491.95	19634.75
492.13	19700.29
492.30	19948.39
492.48	19936.68
492.66	20121.59
492.84	19887.53
493.01	20201.16
493.19	20002.22
493.37	20238.61
493.54	20533.52
493.72	20849.49
493.90	20545.22
494.08	21088.23
494.25	21294.19
494.43	21493.14
494.61	21479.10
494.79	21296.53
494.96	21549.31
495.14	21610.17
495.32	21769.32
495.49	21729.53
495.67	21717.83
495.85	22153.17
496.02	22441.06
496.20	22614.26
496.38	22272.54
496.55	22757.03
496.73	23014.49
496.91	22635.32
497.09	22937.25
497.26	22745.33
497.44	23005.13
497.62	23285.99
497.79	23349.18
497.97	23447.49
498.14	23248.54
498.32	23676.86
498.50	23473.23
498.67	23796.23
498.85	23812.61
499.03	23997.51
499.20	24049.00
499.38	24266.67
499.56	24584.99
499.73	24388.38
499.91	24505.41
500.08	24837.76
500.26	24261.99
500.44	24594.35
500.61	24545.20
500.79	24751.17
500.97	24826.06
501.14	25209.91
501.32	25235.66
501.49	25076.50
501.67	25193.53
501.84	25675.68
502.02	25565.67
502.20	25820.79
502.37	26043.14
502.55	26019.74
502.72	25577.37
502.90	26115.70
503.07	25820.79
503.25	26188.25
503.43	25865.26
503.60	26036.12
503.78	26288.90
503.95	26235.06
504.13	26251.45
504.30	26731.26
504.48	26450.39
504.65	26808.50
504.83	26593.17
505.01	27304.69
505.18	27285.97
505.36	27150.21
505.53	26984.04
505.71	27564.49
505.88	27735.35
506.06	27044.89
506.23	27398.31
506.41	27660.45
506.58	27807.90
506.76	27868.76
506.93	27871.10
507.11	27559.81
507.28	27777.48
507.46	27742.37
507.63	28407.08
507.81	28048.98
507.98	27964.72
508.16	28034.94
508.33	28086.43
508.50	28739.44
508.68	28631.77
508.85	29046.05
509.03	28926.68
509.20	28804.97
509.38	28713.69
509.55	29069.45
509.73	29312.87
509.90	28975.83
510.08	29500.11
510.25	29366.70
510.42	29401.81
510.60	29345.64
510.77	29734.17
510.95	29841.83
511.12	29429.90
511.30	30176.53
511.47	30022.05
511.64	30277.17
511.82	30441.01
511.99	30160.14
512.17	29977.58
512.34	30352.07
512.51	30246.74
512.69	30525.27
512.86	30637.61
513.04	30422.28
513.21	30693.79
513.38	30536.97
513.56	30691.44
513.73	30445.69
513.90	30614.21
514.08	30349.73
514.25	30827.20
514.43	31077.63
514.60	31098.70
514.77	30946.56
514.95	31630.00
515.12	31009.76
515.29	31346.79
515.47	31941.29
515.64	31854.69
515.81	31391.26
515.99	31218.07
516.16	31938.95
516.33	31786.82
516.51	31922.57
516.68	31421.69
516.85	31814.90
517.03	31770.43
517.20	31901.50
517.37	32217.47
517.54	32402.38
517.72	32313.44
517.89	32168.32
518.06	31990.44
518.24	32196.41
518.41	32364.93
518.58	32397.70
518.75	32048.96
518.93	32919.63
519.10	32474.93
519.27	32809.63
519.45	32938.36
519.62	33090.49
519.79	33099.86
519.96	33343.27
520.14	33493.07
520.31	33284.76
520.48	33436.89
520.65	33090.49
520.83	33813.72
521.00	33881.60
521.17	33560.94
521.34	34019.69
521.52	33525.83
521.69	33570.30
521.86	34169.48
522.03	33855.85
522.20	34235.02
522.38	34515.88
522.55	34220.97
522.72	34541.63
522.89	34087.56
523.07	34511.20
523.24	34150.76
523.41	34607.16
523.58	34815.47
523.75	35065.91
523.92	35218.04
524.10	34672.70
524.27	35105.70
524.44	34993.35
524.61	35648.70
524.78	34988.67
524.96	34932.50
525.13	35695.51
525.30	35419.33
525.47	35538.69
525.64	35739.98
525.81	35082.29
525.98	35473.16
526.16	35157.19
526.33	35405.28
526.50	35950.63
526.67	35283.58
526.84	35487.20
527.01	35744.66
527.18	35367.84
527.36	36224.47
527.53	36048.93
527.70	36180.00
527.87	36245.54
528.04	36203.41
528.21	36205.75
528.38	36329.80
528.55	36624.70
528.72	36491.29
528.89	36479.59
529.07	36718.32
529.24	36037.23
529.41	36673.85
529.58	36512.36
529.75	36479.59
529.92	36678.54
530.09	37221.54
530.26	37104.51
530.43	36790.88
530.60	36903.23
530.77	36849.39
530.94	37148.98
531.11	37099.83
531.28	37390.06
531.46	37406.44
531.63	37146.64
531.80	37425.17
531.97	37380.70
532.14	37352.61
532.31	37425.17
532.48	37392.40
532.65	37507.08
532.82	37717.73
532.99	37923.70
533.16	37511.77
533.33	37820.72
533.50	38113.28
533.67	38068.81
533.84	37614.75
534.01	38082.86
534.18	37921.36
534.35	37787.95
534.52	37682.62
534.69	37797.31
534.86	38192.86
535.03	38115.62
535.20	38630.54
535.37	38124.99
535.54	38817.78
535.71	38253.72
535.88	38672.67
536.05	38775.66
536.22	38808.42
536.38	38693.74
536.55	38422.23
536.72	38312.23
536.89	38176.48
537.06	38670.33
537.23	38653.95
537.40	38766.29
537.57	38946.51
537.74	39461.43
537.91	39192.27
538.08	39058.86
538.25	38869.28
538.42	38834.17
538.59	39100.99
538.75	39056.52
538.92	39143.12
539.09	39360.79
539.26	39414.62
539.43	39386.54
539.60	39168.87
539.77	39414.62
539.94	39292.91
540.11	39358.45
540.28	39908.47
540.44	39487.18
540.61	39629.95
540.78	39732.93
540.95	39814.85
541.12	39370.15
541.29	39421.64
541.46	39201.63
541.62	39580.80
541.79	39812.51
541.96	39566.76
542.13	39414.62
542.30	39931.88
542.47	40336.79
542.63	39693.15
542.80	39810.17
542.97	40493.61
543.14	40598.93
543.31	40187.00
543.48	40275.94
543.64	40896.18
543.81	41193.43
543.98	40772.13
544.15	40486.59
544.32	40624.68
544.48	41045.97
544.65	40809.58
544.82	40940.65
544.99	40612.98
545.16	40928.95
545.32	41078.74
545.49	41270.67
545.66	41132.57
545.83	41207.47
546.00	41038.95
546.16	40982.78
546.33	40676.17
546.50	40582.55
546.67	41027.25
546.83	40994.48
547.00	41317.48
547.17	41296.41
547.34	41280.03
547.50	41670.90
547.67	41427.48
547.84	41514.08
548.00	41804.31
548.17	41926.02
548.34	41523.44
548.51	41694.30
548.67	41729.41
548.84	41977.51
549.01	41581.96
549.18	41614.72
549.34	41567.91
549.51	41942.40
549.68	41631.11
549.84	42337.95
550.01	42153.05
550.18	42045.38
550.34	41614.72
550.51	42218.58
550.68	42146.03
550.84	41865.16
551.01	41865.16
551.18	42218.58
551.34	41841.76
551.51	42089.85
551.68	42305.18
551.84	42047.72
552.01	42204.54
552.18	41832.39
552.34	42267.73
552.51	42333.27
552.68	42230.29
552.84	42653.92
553.01	42342.63
553.18	42642.22
553.34	42766.27
553.51	42625.84
553.67	42447.96
553.84	42653.92
554.01	42469.02
554.17	42768.61
554.34	42684.35
554.51	42665.63
554.67	42951.17
554.84	42440.93
555.00	42602.43
555.17	42440.93
555.33	42777.97
555.50	42651.58
555.67	42579.03
555.83	42569.66
556.00	43166.50
556.16	43386.51
556.33	42756.91
556.50	43009.68
556.66	42941.81
556.83	42677.33
556.99	43159.48
557.16	43758.66
557.32	43358.42
557.49	43115.01
557.65	43278.85
557.82	42862.23
557.98	43267.14
558.15	43426.30
558.32	43302.25
558.48	43091.60
558.65	43098.62
558.81	42993.30
558.98	43239.06
559.14	43019.05
559.31	43379.49
559.47	43545.67
559.64	43749.29
559.80	43709.50
559.97	44098.03
560.13	43384.17
560.30	43505.88
560.46	43445.02
560.63	43679.08
560.79	43646.31
560.96	43831.21
561.12	43753.97
561.29	43641.63
561.45	43622.90
561.61	43536.30
561.78	43246.08
561.94	43416.94
562.11	43583.12
562.27	43234.38
562.44	43566.73
562.60	43796.10
562.77	43615.88
562.93	43138.41
563.10	43636.95
563.26	43636.95
563.42	43924.83
563.59	43548.01
563.75	43833.55
563.92	43742.27
564.08	43714.19
564.24	43847.60
564.41	43739.93
564.57	43658.01
564.74	43634.61
564.90	44296.98
565.07	44030.16
565.23	44170.59
565.39	43503.54
565.56	43817.17
565.72	44179.95
565.88	43650.99
566.05	43892.07
566.21	43887.39
566.38	43861.64
566.54	43861.64
566.70	43913.13
566.87	44648.06
567.03	44184.63
567.19	44605.93
567.36	43924.83
567.52	44280.60
567.68	44058.24
567.85	43859.30
568.01	44161.23
568.17	44231.44
568.34	44032.50
568.50	43882.70
568.66	44018.46
568.83	43955.26
568.99	44100.37
569.15	44128.46
569.32	44046.54
569.48	43775.04
569.64	44357.83
569.81	44341.45
569.97	44280.60
570.13	44465.50
570.30	43679.08
570.46	44114.42
570.62	44296.98
570.78	43761.00
570.95	43981.01
571.11	44334.43
571.27	43863.98
571.43	44194.00
571.60	44285.28
571.76	44418.69
571.92	44079.31
572.09	44158.89
572.25	44013.77
572.41	43915.47
572.57	44465.50
572.74	44425.71
572.90	44224.42
573.06	44531.03
573.22	43894.41
573.38	44329.75
573.55	44123.78
573.71	44222.08
573.87	44458.48
574.03	44493.58
574.20	44526.35
574.36	44362.51
574.52	44751.04
574.68	44708.91
574.84	44280.60
575.01	44243.15
575.17	44563.80
575.33	44521.67
575.49	44121.44
575.65	44484.22
575.82	44533.37
575.98	44332.09
576.14	44470.18
576.30	44715.93
576.46	44198.68
576.62	44385.92
576.79	44383.58
576.95	43988.03
577.11	44231.44
577.27	44315.70
577.43	44217.40
577.59	44521.67
577.75	44416.35
577.92	44404.64
578.08	44119.10
578.24	44203.36
578.40	44158.89
578.56	44463.16
578.72	44287.62
578.88	44540.39
579.04	44802.53
579.21	44842.32
579.37	44570.82
579.53	44680.83
579.69	44271.23
579.85	44533.37
580.01	44301.66
580.17	44465.50
580.33	44694.87
580.49	44811.90
580.65	44788.49
580.82	44907.86
580.98	44781.47
581.14	44205.70
581.30	44673.81
581.46	44837.64
581.62	44406.98
581.78	44636.36
581.94	44980.42
582.10	44215.06
582.26	44285.28
582.42	44311.02
582.58	44435.07
582.74	44442.09
582.90	44638.70
583.06	44797.85
583.22	44561.46
583.38	44882.11
583.54	44463.16
583.70	44493.58
583.86	44589.55
584.02	44121.44
584.18	44687.85
584.34	44238.47
584.50	44685.51
584.66	44154.21
584.82	44547.42
584.98	44573.16
585.14	45127.87
585.30	44605.93
585.46	44645.72
585.62	44175.27
585.78	44346.13
585.94	44208.04
586.10	44676.15
586.26	44673.81
586.42	44573.16
586.58	45233.19
586.74	44505.29
586.90	44198.68
587.06	44589.55
587.22	44704.23
587.38	44294.64
587.54	44711.25
587.70	44921.90
587.86	44315.70
588.02	44863.39
588.18	44362.51
588.34	44643.38
588.49	44027.82
588.65	44161.23
588.81	44329.75
588.97	44285.28
589.13	44554.44
589.29	44381.24
589.45	44779.13
589.61	44903.18
589.77	44626.99
589.93	44671.46
590.08	44851.69
590.24	44924.24
590.40	45092.76
590.56	44954.67
590.72	44605.93
590.88	44762.75
591.04	44933.60
591.20	45067.02
591.35	45092.76
591.51	45205.11
591.67	45425.12
591.83	45207.45
591.99	45062.33
592.15	44376.56
592.31	44945.31
592.46	44949.99
592.62	44683.17
592.78	44917.22
592.94	45436.82
593.10	45085.74
593.26	45085.74
593.41	45158.30
593.57	44524.01
593.73	45181.70
593.89	44935.95
594.05	45048.29
594.20	44877.43
594.36	45310.43
594.52	44722.96
594.68	44968.71
594.84	44968.71
594.99	44942.97
595.15	44484.22
595.31	45413.41
595.47	44893.82
595.62	45062.33
595.78	45017.86
595.94	45436.82
596.10	44952.33
596.25	45593.64
596.41	45474.27
596.57	45170.00
596.73	45118.51
596.88	44594.23
597.04	45179.36
597.20	45003.82
597.36	44872.75
597.51	44849.35
597.67	45048.29
597.83	44954.67
597.99	45240.21
598.14	45074.04
598.30	44945.31
598.46	44577.84
598.61	44914.88
598.77	44837.64
598.93	44657.42
599.09	44781.47
599.24	45415.76
599.40	45329.16
599.56	45432.14
599.71	44926.58
599.87	45223.83
600.03	44861.05
600.18	44828.28
600.34	45310.43
600.50	45373.63
600.65	45198.09
600.81	45160.64
600.97	45439.16
601.12	45670.87
601.28	44711.25
601.44	45315.11
601.59	44919.56
601.75	44662.10
601.91	45090.42
602.06	44973.39
602.22	45029.57
602.37	44760.40
602.53	44877.43
602.69	45551.51
602.84	44945.31
603.00	44439.75
603.16	44961.69
603.31	45069.36
603.47	44858.71
603.62	44964.03
603.78	45162.98
603.94	45078.72
604.09	45338.52
604.25	45684.92
604.40	45022.54
604.56	44842.32
604.71	45130.21
604.87	44776.79
605.03	44821.26
605.18	44662.10
605.34	44685.51
605.49	44687.85
605.65	44285.28
605.80	44772.11
605.96	44898.50
606.12	44753.38
606.27	45081.06
606.43	44931.26
606.58	44664.44
606.74	44311.02
606.89	44987.44
607.05	44741.68
607.20	44788.49
607.36	44430.39
607.51	44671.46
607.67	44729.98
607.82	44744.02
607.98	45216.81
608.13	44428.05
608.29	44662.10
608.44	44886.79
608.60	44280.60
608.75	44378.90
608.91	44362.51
609.06	44666.78
609.22	44542.74
609.37	44907.86
609.53	44243.15
609.68	44744.02
609.84	44229.10
609.99	44266.55
610.15	44332.09
610.30	43938.88
610.46	44287.62
610.61	44339.11
610.76	44608.27
610.92	44502.95
611.07	44402.30
611.23	44575.50
611.38	44163.57
611.54	44236.12
611.69	44062.93
611.84	44229.10
612.00	44561.46
612.15	44177.61
612.31	44418.69
612.46	44336.77
612.62	44451.45
612.77	44374.22
612.92	44575.50
613.08	44285.28
613.23	44168.25
613.39	44414.01
613.54	43856.96
613.69	43910.79
613.85	44102.71
614.00	44301.66
614.15	44383.58
614.31	44371.88
614.46	44257.19
614.62	44364.85
614.77	43800.79
614.92	44121.44
615.08	44175.27
615.23	43782.06
615.38	43824.19
615.54	43407.58
615.69	43711.84
615.84	43849.94
616.00	43709.50
616.15	43662.69
616.30	44170.59
616.46	43629.93
616.61	43407.58
616.76	43723.55
616.92	43033.09
617.07	42981.60
617.22	43285.87
617.37	43054.15
617.53	43643.97
617.68	43824.19
617.83	43564.39
617.99	43789.08
618.14	43330.34
618.29	43489.49
618.45	43255.44
618.60	43426.30
618.75	43044.79
618.90	43365.45
619.06	43934.20
619.21	43325.66
619.36	43482.47
619.51	43290.55
619.67	43349.06
619.82	43615.88
619.97	43814.83
620.12	42937.13
620.28	42937.13
620.43	43370.13
620.58	43225.01
620.73	43145.44
620.89	43236.72
621.04	43119.69
621.19	43133.73
621.34	43154.80
621.49	42993.30
621.65	42752.23
621.80	42981.60
621.95	42937.13
622.10	42883.30
622.25	42951.17
622.41	42396.46
622.56	42401.14
622.71	42948.83
622.86	42740.52
623.01	42529.87
623.16	42962.87
623.32	42487.74
623.47	42707.76
623.62	42953.51
623.77	42504.13
623.92	42712.44
624.07	42490.09
624.23	42204.54
624.38	42567.32
624.53	42337.95
624.68	42415.19
624.83	42251.35
624.98	42270.08
625.13	41982.19
625.29	42110.92
625.44	42450.30
625.59	41918.99
625.74	41965.81
625.89	42005.59
626.04	42005.59
626.19	41841.76
626.34	42197.52
626.49	42026.66
626.65	42300.50
626.80	42284.12
626.95	42319.23
627.10	42000.91
627.25	42155.39
627.40	41766.86
627.55	41296.41
627.70	41947.08
627.85	41481.31
628.00	41654.51
628.15	41778.56
628.30	41191.09
628.45	41951.76
628.60	41909.63
628.76	41500.04
628.91	41876.86
629.06	41486.00
629.21	41614.72
629.36	41268.33
629.51	41713.03
629.66	41373.65
629.81	41504.72
629.96	41406.42
630.11	41464.93
630.26	41186.41
630.41	41998.57
630.56	41502.38
630.71	41368.97
630.86	41036.61
631.01	40861.07
631.16	41158.32
631.31	40933.63
631.46	40708.94
631.61	41200.45
631.76	41083.42
631.91	41546.85
632.06	41247.26
632.21	41343.22
632.36	41216.83
632.51	40992.14
632.66	40634.04
632.81	40687.87
632.96	40783.83
633.10	40678.51
633.25	40587.23
633.40	40961.72
633.55	41258.96
633.70	40837.67
633.85	40725.32
634.00	40685.53
634.15	40968.74
634.30	40992.14
634.45	40823.62
634.60	40875.12
634.75	40378.92
634.90	40587.23
635.05	40610.64
635.19	40353.18
635.34	40650.42
635.49	40627.02
635.64	40442.12
635.79	40275.94
635.94	40311.05
636.09	40636.38
636.24	40484.25
636.39	39910.82
636.53	40355.52
636.68	40039.54
636.83	40058.27
636.98	40128.48
637.13	39861.66
637.28	40418.71
637.43	40435.10
637.57	40308.71
637.72	40481.91
637.87	39772.72
638.02	40451.48
638.17	40109.76
638.32	40018.48
638.46	40032.52
638.61	39693.15
638.76	39615.91
638.91	40009.12
639.06	40093.38
639.20	40034.86
639.35	39922.52
639.50	40179.98
639.65	40261.90
639.80	40058.27
639.94	40105.08
640.09	39875.71
640.24	39611.23
640.39	39531.65
640.54	39508.24
640.68	39585.48
640.83	39555.05
640.98	39545.69
641.13	39161.84
641.27	39749.32
641.42	39459.09
641.57	39552.71
641.72	39723.57
641.86	38944.17
642.01	39044.82
642.16	39309.30
642.31	38569.69
642.45	39496.54
642.60	39096.31
642.75	39260.15
642.90	39124.40
643.04	39014.39
643.19	39386.54
643.34	39232.06
643.48	38667.99
643.63	38754.59
643.78	38857.57
643.93	38946.51
644.07	39026.09
644.22	38731.18
644.37	39096.31
644.51	38998.01
644.66	38883.32
644.81	39299.94
644.95	39077.58
645.10	38738.21
645.25	38792.04
645.39	38995.67
645.54	38979.28
645.69	38527.56
645.83	38782.68
645.98	38796.72
646.13	38899.70
646.27	38618.84
646.42	38452.66
646.57	38726.50
646.71	38595.43
646.86	38719.48
647.00	38422.23
647.15	38642.24
647.30	38478.41
647.44	38714.80
647.59	38656.29
647.74	38508.83
647.88	38450.32
648.03	38206.90
648.17	38174.14
648.32	38162.43
648.47	38415.21
648.61	37680.28
648.76	38705.44
648.90	38581.39
649.05	37851.14
649.20	38628.20
649.34	38192.86
649.49	38117.96
649.63	37687.31
649.78	37565.60
649.92	37998.60
650.07	38462.02
650.21	37764.54
650.36	38071.15
650.51	37596.03
650.65	37965.83
650.80	38040.73
650.94	37928.38
651.09	38148.39
651.23	38253.72
651.38	37825.40
651.52	37455.59
651.67	37780.93
651.81	37502.40
651.96	37338.57
652.10	37324.52
652.25	37219.20
652.39	38064.13
652.54	37521.13
652.68	37961.15
652.83	38019.66
652.97	37904.98
653.12	37635.81
653.26	37200.47
653.41	37841.78
653.55	37123.24
653.70	37434.53
653.84	37326.86
653.99	37490.70
654.13	37633.47
654.27	37373.67
654.42	37493.04
654.56	36837.69
654.71	37364.31
654.85	37514.11
655.00	37471.98
655.14	37301.12
655.29	36893.86
655.43	37216.86
655.57	36566.19
655.72	36657.47
655.86	36856.42
656.01	36446.82
656.15	36327.45
656.30	37006.21
656.44	36547.47
656.58	36664.49
656.73	36470.23
656.87	36821.31
657.01	36758.11
657.16	36858.76
657.30	36362.56
657.45	36774.50
657.59	36706.62
657.73	36411.71
657.88	36903.23
658.02	37001.53
658.16	36985.15
658.31	36671.51
658.45	36507.68
658.60	36397.67
658.74	36435.12
658.88	36474.91
659.03	36079.36
659.17	35957.65
659.31	35936.59
659.46	35601.89
659.60	36521.72
659.74	36507.68
659.89	35882.75
660.03	35707.21
660.17	36161.28
660.32	36053.61
660.46	35763.39
660.60	35482.52
660.74	36025.53
660.89	36271.28
661.03	35913.18
661.17	35344.43
661.32	35374.86
661.46	35536.35
661.60	35271.87
661.74	35445.07
661.89	35702.53
662.03	35236.77
662.17	35461.46
662.31	35416.99
662.46	35416.99
662.60	35620.61
662.74	35204.00
662.88	35026.12
663.03	34714.83
663.17	34773.34
663.31	34998.03
663.45	34747.59
663.60	34822.49
663.74	34754.61
663.88	34689.08
664.02	34838.87
664.17	34738.23
664.31	34682.06
664.45	34883.34
664.59	35005.05
664.73	34522.90
664.88	34593.12
665.02	34700.78
665.16	34494.82
665.30	33839.47
665.44	34033.73
665.59	34251.40
665.73	33851.17
665.87	33914.36
666.01	34242.04
666.15	33897.98
666.29	33963.51
666.44	34171.82
666.58	33809.04
666.72	33907.34
666.86	33776.27
667.00	34108.63
667.14	33963.51
667.28	33706.05
667.43	33235.61
667.57	33406.47
667.71	33523.49
667.85	33574.98
667.99	33514.13
668.13	33390.08
668.27	33413.49
668.41	33397.10
668.56	33198.16
668.70	33113.90
668.84	32999.21
668.98	32613.02
669.12	32762.82
669.26	32886.87
669.40	32521.74
669.54	32687.92
669.68	32957.08
669.82	32606.00
669.96	32510.04
670.10	32582.60
670.25	32870.48
670.39	32311.10
670.53	32561.53
670.67	32320.46
670.81	32446.85
670.95	32165.98
671.09	32180.03
671.23	32334.50
671.37	32070.02
671.51	32109.81
671.65	32044.27
671.79	31915.54
671.93	31798.52
672.07	31693.19
672.21	31798.52
672.35	31714.26
672.49	31599.57
672.63	31658.09
672.77	31405.31
672.91	31704.90
673.05	31512.97
673.19	31587.87
673.33	31386.58
673.47	31105.72
673.61	30916.14
673.75	30843.58
673.89	30698.47
674.03	30651.66
674.17	30663.36
674.31	30691.44
674.45	30721.87
674.59	31030.82
674.73	30824.86
674.87	30696.13
675.01	30778.04
675.15	30548.67
675.29	30567.40
675.43	30204.61
675.56	30176.53
675.70	30108.65
675.84	29790.34
675.98	29165.42
676.12	29685.01
676.26	29792.68
676.40	29717.78
676.54	29869.92
676.68	29731.83
676.82	29500.11
676.96	29446.28
677.10	29589.05
677.23	29635.86
677.37	29235.63
677.51	29034.35
677.65	28938.38
677.79	28811.99
677.93	28826.04
678.07	28758.16
678.21	28191.75
678.34	28346.23
678.48	27896.85
678.62	28208.14
678.76	27688.54
678.90	27793.86
679.04	28123.88
679.18	28156.64
679.31	27784.50
679.45	27665.13
679.59	27604.28
679.73	27393.63
679.87	27288.31
680.00	27419.38
680.14	27372.57
680.28	27288.31
680.42	27264.90
680.56	27234.47
680.70	26944.25
680.83	27445.12
680.97	27119.79
681.11	26859.99
681.25	26677.43
681.39	26705.51
681.52	26946.59
681.66	26529.97
681.80	26665.72
681.94	26195.28
682.07	26525.29
682.21	26106.34
682.35	26003.35
682.49	26298.26
682.62	25816.11
682.76	25809.09
682.90	26134.42
683.04	25542.27
683.17	25245.02
683.31	25418.22
683.45	25596.10
683.59	25245.02
683.72	25118.63
683.86	24882.24
684.00	24973.52
684.13	25366.73
684.27	24893.94
684.41	24720.74
684.55	24666.91
684.68	24320.51
684.82	24730.10
684.96	24929.05
685.09	24697.33
685.23	24425.83
685.37	24182.42
685.50	24484.34
685.64	24357.96
685.78	23924.96
685.91	24086.45
686.05	23812.61
686.19	23611.32
686.32	23501.32
686.46	23087.04
686.60	23108.11
686.73	23431.10
686.87	23297.69
687.01	23047.26
687.14	22878.74
687.28	23007.47
687.42	22955.97
687.55	23005.13
687.69	23105.77
687.82	22759.37
687.96	22892.78
688.10	22515.95
688.23	22635.32
688.37	22157.85
688.50	21790.39
688.64	22122.74
688.78	22092.32
688.91	22059.55
689.05	21951.88
689.18	22389.56
689.32	21284.83
689.46	21561.02
689.59	21750.60
689.73	22183.60
689.86	21544.63
690.00	21734.21
690.13	21671.02
690.27	21331.64
690.41	21280.15
690.54	21345.69
690.68	20575.65
690.81	20936.09
690.95	20889.28
691.08	20713.74
691.22	20915.03
691.35	20800.34
691.49	21050.78
691.62	20900.98
691.76	20437.56
691.89	20704.38
692.03	20060.73
692.16	20365.00
692.30	20004.56
692.43	20304.15
692.57	20130.95
692.70	20023.28
692.84	19974.13
692.97	19445.17
693.11	19517.73
693.24	19667.52
693.38	19447.51
693.51	19470.92
693.65	19534.11
693.78	19597.31
693.92	19543.47
694.05	19314.10
694.19	19325.80
694.32	19166.65
694.45	18853.02
694.59	18429.38
694.72	18724.29
694.86	18855.36
694.99	18604.92
695.13	18462.15
695.26	18237.45
695.39	18251.50
695.53	18352.14
695.66	18452.78
695.80	18445.76
695.93	18090.00
696.07	17874.67
696.20	17991.70
696.33	17975.31
696.47	18001.06
696.60	17851.27
696.73	17699.13
696.87	17516.57
697.00	17425.29
697.14	17348.05
697.27	17511.89
697.40	17366.78
697.54	17404.22
697.67	17179.53
697.80	17099.95
697.94	16828.45
698.07	16793.34
698.21	16458.65
698.34	16800.37
698.47	16734.83
698.61	16510.14
698.74	16666.95
698.87	16463.33
699.01	16102.89
699.14	16194.17
699.27	16184.80
699.40	16194.17
699.54	16023.31
699.67	15662.86
699.80	15908.62
699.94	15894.58
700.07	15826.70
700.20	15957.77
700.34	15536.48
700.47	15611.37
700.60	15637.12
700.73	15768.19
700.87	15735.42
701.00	15482.64
701.13	15283.70
701.26	15218.16
701.40	15108.16
701.53	14974.75
701.66	15037.94
701.79	15255.61
701.93	15075.39
702.06	15112.84
702.19	14555.79
702.32	14747.72
702.46	14651.75
702.59	14567.49
702.72	14560.47
702.85	14588.56
702.99	14457.49
703.12	14448.13
703.25	14333.44
703.38	14317.06
703.51	13956.61
703.65	14001.08
703.78	14221.10
703.91	14101.73
704.04	14005.77
704.17	13926.19
704.31	13872.36
704.44	13745.97
704.57	13706.18
704.70	13575.11
704.83	13692.13
704.96	13724.90
705.10	13659.37
705.23	13738.94
>>>>>End Processed Spectral Data<<<<<
