SpectraSuite Data File
++++++++++++++++++++++++++++++++++++
Date: Fri Oct 25 11:24:07 EDT 2013
User: price-jones
Dark Spectrum Present: No
Reference Spectrum Present: No
Number of Sampled Component Spectra: 1
Spectrometers: USB2+H05261
Integration Time (usec): 100000 (USB2+H05261)
Spectra Averaged: 1 (USB2+H05261)
Boxcar Smoothing: 0 (USB2+H05261)
Correct for Electrical Dark: No (USB2+H05261)
Strobe/Lamp Enabled: No (USB2+H05261)
Correct for Detector Non-linearity: No (USB2+H05261)
Correct for Stray Light: No (USB2+H05261)
Number of Pixels in Processed Spectrum: 2048
>>>>>Begin Processed Spectral Data<<<<<
365.73	255.12
365.92	255.12
366.12	255.12
366.32	196.60
366.52	74.90
366.72	189.58
366.91	152.13
367.11	163.84
367.31	191.92
367.51	140.43
367.70	117.03
367.90	147.45
368.10	135.75
368.30	138.09
368.49	135.75
368.69	131.07
368.89	135.75
369.09	135.75
369.28	65.54
369.48	182.56
369.68	117.03
369.87	194.26
370.07	168.52
370.27	210.65
370.47	348.74
370.66	545.34
370.86	653.01
371.06	664.71
371.25	678.76
371.45	690.46
371.65	702.16
371.84	695.14
372.04	774.72
372.24	774.72
372.44	732.59
372.63	704.50
372.83	734.93
373.03	713.86
373.22	772.38
373.42	697.48
373.62	784.08
373.81	704.50
374.01	837.91
374.21	819.19
374.40	772.38
374.60	875.36
374.79	734.93
374.99	821.53
375.19	823.87
375.38	896.43
375.58	835.57
375.78	915.15
375.97	847.27
376.17	840.25
376.37	901.11
376.56	943.24
376.76	814.51
376.95	861.32
377.15	929.19
377.35	861.32
377.54	940.90
377.74	844.93
377.93	840.25
378.13	997.07
378.33	884.72
378.52	894.08
378.72	966.64
378.91	884.72
379.11	908.13
379.31	891.74
379.50	943.24
379.70	1015.79
379.89	1011.11
380.09	971.32
380.28	889.40
380.48	940.90
380.68	896.43
380.87	898.77
381.07	1053.24
381.26	1069.62
381.46	1097.71
381.65	999.41
381.85	1039.20
382.04	931.53
382.24	1076.65
382.43	1018.13
382.63	971.32
382.83	966.64
383.02	1013.45
383.22	1060.26
383.41	1118.78
383.61	1057.92
383.80	1158.57
384.00	1102.39
384.19	1107.07
384.39	1193.67
384.58	1071.97
384.78	1078.99
384.97	1160.91
385.17	1132.82
385.36	1142.18
385.56	1203.04
385.75	1163.25
385.95	1210.06
386.14	1165.59
386.34	1179.63
386.53	1172.61
386.72	1184.31
386.92	1207.72
387.11	1228.78
387.31	1228.78
387.50	1327.08
387.70	1303.68
387.89	1242.82
388.09	1228.78
388.28	1270.91
388.48	1284.95
388.67	1306.02
388.86	1291.98
389.06	1301.34
389.25	1261.55
389.45	1327.08
389.64	1238.14
389.84	1392.62
390.03	1472.20
390.22	1392.62
390.42	1397.30
390.61	1334.11
390.81	1376.24
391.00	1430.07
391.19	1453.47
391.39	1495.60
391.58	1364.53
391.78	1523.69
391.97	1465.18
392.16	1479.22
392.36	1472.20
392.55	1612.63
392.75	1493.26
392.94	1455.81
393.13	1554.12
393.33	1591.56
393.52	1551.78
393.71	1561.14
393.91	1540.07
394.10	1579.86
394.29	1629.01
394.49	1570.50
394.68	1687.53
394.88	1617.31
395.07	1647.74
395.26	1661.78
395.46	1717.95
395.65	1682.85
395.84	1790.51
396.04	1785.83
396.23	1792.85
396.42	1750.72
396.62	1827.96
396.81	1757.74
397.00	1900.52
397.19	1795.19
397.39	1732.00
397.58	1891.15
397.77	1856.04
397.97	1937.96
398.16	1923.92
398.35	1928.60
398.55	1877.11
398.74	1944.99
398.93	2010.52
399.12	1954.35
399.32	2026.90
399.51	1919.24
399.70	1980.09
399.90	2008.18
400.09	2101.80
400.28	2097.12
400.47	2040.95
400.67	2073.71
400.86	2143.93
401.05	2101.80
401.24	2083.08
401.44	2153.29
401.63	2157.97
401.82	2188.40
402.01	2129.89
402.21	2235.21
402.40	2279.68
402.59	2176.70
402.78	2174.36
402.97	2249.25
403.17	2200.10
403.36	2232.87
403.55	2338.20
403.74	2317.13
403.93	2377.98
404.13	2415.43
404.32	2272.66
404.51	2338.20
404.70	2349.90
404.89	2370.96
405.09	2473.95
405.28	2403.73
405.47	2487.99
405.66	2438.84
405.85	2520.76
406.05	2441.18
406.24	2558.21
406.43	2602.68
406.62	2656.51
406.81	2640.12
407.00	2560.55
407.20	2628.42
407.39	2621.40
407.58	2738.43
407.77	2675.23
407.96	2768.85
408.15	2808.64
408.34	2801.62
408.54	2888.22
408.73	2869.50
408.92	2848.43
409.11	2937.37
409.30	2822.69
409.49	2935.03
409.68	2860.13
409.87	2871.84
410.07	2993.55
410.26	3042.70
410.45	2942.05
410.64	3038.02
410.83	3089.51
411.02	3028.65
411.21	3232.28
411.40	3157.38
411.59	3288.45
411.78	3101.21
411.98	3176.11
412.17	3290.79
412.36	3185.47
412.55	3262.71
412.74	3438.25
412.93	3475.70
413.12	3391.44
413.31	3562.30
413.50	3583.36
413.69	3566.98
413.88	3688.68
414.07	3609.11
414.26	3513.14
414.45	3653.58
414.64	3630.17
414.83	3728.47
415.02	3779.97
415.22	3857.20
415.41	3892.31
415.60	3777.62
415.79	3953.16
415.98	3772.94
416.17	4077.21
416.36	4147.43
416.55	3995.29
416.74	4170.83
416.93	4056.15
417.12	4196.58
417.31	4142.75
417.50	4187.22
417.69	4287.86
417.88	4222.33
418.07	4201.26
418.26	4259.78
418.45	4425.95
418.64	4447.02
418.83	4592.13
419.02	4301.90
419.21	4505.53
419.39	4655.33
419.58	4512.55
419.77	4578.09
419.96	4648.30
420.15	4638.94
420.34	4535.96
420.53	4627.24
420.72	4774.69
420.91	4603.83
421.10	4770.01
421.29	4751.29
421.48	4650.64
421.67	4793.42
421.86	4786.40
422.05	4826.18
422.24	4784.06
422.43	4950.23
422.61	4947.89
422.80	5053.22
422.99	4903.42
423.18	5062.58
423.37	5027.47
423.56	4889.38
423.75	4774.69
423.94	4791.08
424.13	4669.37
424.32	4688.09
424.50	4975.98
424.69	5053.22
424.88	5200.67
425.07	4959.60
425.26	4987.68
425.45	4887.04
425.64	5053.22
425.83	4847.25
426.01	5191.31
426.20	5144.50
426.39	5139.82
426.58	5179.61
426.77	5081.30
426.96	5093.01
427.15	5125.77
427.33	5308.34
427.52	5109.39
427.71	5268.55
427.90	5247.48
428.09	5352.81
428.28	5341.10
428.46	5341.10
428.65	5371.53
428.84	5600.90
429.03	5544.73
429.22	5305.99
429.40	5462.81
429.59	5572.82
429.78	5411.32
429.97	5308.34
430.16	5507.28
430.34	5603.24
430.53	5846.66
430.72	5713.25
430.91	5795.17
431.10	5563.45
431.28	5675.80
431.47	5762.40
431.66	5839.64
431.85	5722.61
432.03	5895.81
432.22	6005.81
432.41	5966.03
432.60	5858.36
432.79	5923.90
432.97	6029.22
433.16	5984.75
433.35	5951.98
433.54	5940.28
433.72	6169.65
433.91	6197.74
434.10	6113.48
434.28	6139.23
434.47	6239.87
434.66	6263.27
434.85	6279.66
435.03	6368.60
435.22	6345.19
435.41	6487.96
435.59	6399.02
435.78	6459.88
435.97	6604.99
436.16	6469.24
436.34	6490.31
436.53	6541.80
436.72	6518.39
436.90	6523.07
437.09	6663.51
437.28	6499.67
437.46	6511.37
437.65	6686.91
437.84	6813.30
438.02	6698.61
438.21	6796.92
438.40	6705.63
438.58	6960.75
438.77	7061.40
438.96	6977.14
439.14	7136.29
439.33	7122.25
439.52	7208.85
439.70	7468.65
439.89	7344.60
440.08	7232.26
440.26	7426.52
440.45	7356.30
440.63	7541.21
440.82	7714.41
441.01	7545.89
441.19	7573.97
441.38	7735.47
441.57	7857.18
441.75	7630.15
441.94	7957.82
442.12	7847.82
442.31	8149.75
442.50	8056.12
442.68	7988.25
442.87	8161.45
443.05	7981.23
443.24	8166.13
443.43	7955.48
443.61	8065.49
443.80	8456.36
443.98	8032.72
444.17	7808.03
444.35	8182.51
444.54	8432.95
444.73	8315.92
444.91	8276.13
445.10	8465.72
445.28	8538.27
445.47	8226.98
445.65	8458.70
445.84	8400.18
446.02	8549.98
446.21	8554.66
446.39	8479.76
446.58	8468.06
446.77	8554.66
446.95	8344.01
447.14	8390.82
447.32	8561.68
447.51	8528.91
447.69	8484.44
447.88	8603.81
448.06	8454.02
448.25	8437.63
448.43	8411.89
448.62	8557.00
448.80	8610.83
448.99	8725.52
449.17	8634.24
449.36	8676.37
449.54	8901.06
449.73	8985.32
449.91	9109.36
450.10	8966.59
450.28	9046.17
450.46	8835.52
450.65	9025.11
450.83	9123.41
451.02	9102.34
451.20	9315.33
451.39	9212.35
451.57	9294.27
451.76	9102.34
451.94	9160.86
452.13	9357.46
452.31	9303.63
452.49	9270.86
452.68	9500.23
452.86	9156.18
453.05	9376.19
453.23	9446.40
453.42	9451.08
453.60	9423.00
453.78	9577.47
453.97	9516.62
454.15	9348.10
454.34	9659.39
454.52	9507.26
454.70	9675.77
454.89	10003.45
455.07	9966.00
455.26	9792.80
455.44	10061.96
455.62	9778.76
455.81	9966.00
455.99	10118.14
456.17	9816.21
456.36	10202.40
456.54	10317.08
456.73	10480.92
456.91	10511.35
457.09	10621.35
457.28	10548.79
457.46	10370.91
457.64	10509.01
457.83	10649.44
458.01	10511.35
458.19	10609.65
458.38	10619.01
458.56	10743.06
458.74	10677.52
458.93	10764.12
459.11	10839.02
459.29	10719.65
459.48	10771.15
459.66	10689.23
459.84	10998.18
460.03	11119.89
460.21	11159.67
460.39	10988.82
460.57	11040.31
460.76	11101.16
460.94	11325.85
461.12	11206.48
461.31	11342.24
461.49	11267.34
461.67	11272.02
461.85	11452.24
462.04	11265.00
462.22	11353.94
462.40	11866.52
462.59	11503.73
462.77	11435.86
462.95	11611.40
463.13	11517.78
463.32	11634.80
463.50	11831.41
463.68	11730.76
463.86	11992.90
464.05	11789.28
464.23	11777.58
464.41	11981.20
464.59	11817.36
464.78	12037.38
464.96	11871.20
465.14	11908.65
465.32	12018.65
465.50	12013.97
465.69	12229.30
465.87	12257.39
466.05	12231.64
466.23	12250.36
466.41	12248.02
466.60	12791.03
466.78	12168.45
466.96	12353.35
467.14	12470.37
467.32	12414.20
467.51	12751.24
467.69	12255.04
467.87	12798.05
468.05	12957.21
468.23	12524.21
468.41	12828.48
468.60	12884.65
468.78	12844.86
468.96	12727.83
469.14	13018.06
469.32	13144.45
469.50	12671.66
469.69	13025.08
469.87	13378.50
470.05	13076.57
470.23	13219.35
470.41	13336.37
470.59	13324.67
470.77	13322.33
470.95	13357.44
471.14	13635.96
471.32	13341.05
471.50	13610.22
471.68	13399.57
471.86	13818.52
472.04	13783.41
472.22	14031.51
472.40	13474.46
472.58	13776.39
472.77	14190.67
472.95	14478.55
473.13	14560.47
473.31	14087.68
473.49	14281.95
473.67	13874.70
473.85	14270.25
474.03	14771.12
474.21	14616.65
474.39	14867.08
474.57	14906.87
474.75	14979.43
474.93	15012.20
475.12	15021.56
475.30	15293.06
475.48	15126.88
475.66	15274.34
475.84	15517.75
476.02	15351.57
476.20	15391.36
476.38	15917.98
476.56	15791.59
476.74	15929.69
476.92	16350.98
477.10	15880.53
477.28	16507.80
477.46	16397.79
477.64	16451.63
477.82	16575.67
478.00	17123.36
478.18	16662.27
478.36	17032.08
478.54	17221.66
478.72	17228.68
478.90	17432.31
479.08	17556.36
479.26	17790.41
479.44	17661.68
479.62	18078.30
479.80	18134.47
479.98	18244.48
480.16	18546.40
480.34	18485.55
480.52	18820.25
480.70	18649.39
480.88	18403.63
481.06	18897.49
481.24	18890.46
481.41	18974.72
481.59	19510.71
481.77	19793.91
481.95	19660.50
482.13	19688.59
482.31	19620.71
482.49	20109.88
482.67	20451.60
482.85	20585.01
483.03	20725.44
483.21	20561.61
483.39	21106.95
483.57	20910.35
483.74	21109.29
483.92	21226.32
484.10	21027.37
484.28	21654.64
484.46	22174.24
484.64	22284.24
484.82	22298.28
485.00	22373.18
485.18	22712.56
485.35	23000.44
485.53	22967.68
485.71	23115.13
485.89	23658.14
486.07	23461.53
486.25	23484.94
486.43	23707.29
486.61	24070.07
486.78	24474.98
486.96	24411.79
487.14	24945.43
487.32	24634.14
487.50	24669.25
487.68	25436.94
487.85	25568.01
488.03	25699.08
488.21	25872.28
488.39	25701.42
488.57	26286.56
488.75	26108.68
488.92	26391.88
489.10	26998.08
489.28	26714.87
489.46	27234.47
489.64	27143.19
489.81	27461.51
489.99	27835.99
490.17	27917.91
490.35	28456.23
490.53	28418.78
490.70	28566.24
490.88	28191.75
491.06	29310.53
491.24	28849.44
491.41	29270.74
491.59	29298.83
491.77	29713.10
491.95	29848.85
492.13	30015.03
492.30	30118.01
492.48	29993.97
492.66	30522.93
492.84	30705.49
493.01	30747.62
493.19	30845.92
493.37	31295.30
493.54	31309.35
493.72	31622.98
493.90	31248.49
494.08	32067.68
494.25	32158.96
494.43	32318.12
494.61	32259.60
494.79	32563.87
494.96	32397.70
495.14	32818.99
495.32	33317.53
495.49	33572.64
495.67	33544.56
495.85	33518.81
496.02	34096.92
496.20	34202.25
496.38	34258.42
496.55	34160.12
496.73	34998.03
496.91	34895.05
497.09	34941.86
497.26	35199.32
497.44	34876.32
497.62	35061.22
497.79	35791.47
497.97	35412.31
498.14	36070.00
498.32	36025.53
498.50	36236.17
498.67	37106.85
498.85	36825.99
499.03	37085.79
499.20	36734.71
499.38	37046.00
499.56	37448.57
499.73	37881.57
499.91	37387.72
500.08	38043.07
500.26	37397.08
500.44	38092.22
500.61	38263.08
500.79	38160.09
500.97	38419.89
501.14	38543.94
501.32	38471.39
501.49	39084.61
501.67	39000.35
501.84	39213.34
502.02	39009.71
502.20	39054.18
502.37	39143.12
502.55	39339.72
502.72	39543.35
502.90	39449.73
503.07	39428.66
503.25	39728.25
503.43	39974.01
503.60	40023.16
503.78	40397.65
503.95	40612.98
504.13	40959.38
504.30	41392.37
504.48	40769.79
504.65	40900.86
504.83	41216.83
505.01	41291.73
505.18	41361.95
505.36	41881.55
505.53	41659.20
505.71	41904.95
505.88	42162.41
506.06	41724.73
506.23	42211.56
506.41	42010.28
506.58	42347.31
506.76	42401.14
506.93	43100.97
507.11	42326.25
507.28	42768.61
507.46	43126.71
507.63	43040.11
507.81	43159.48
507.98	43328.00
508.16	43320.98
508.33	43800.79
508.50	43978.67
508.68	43899.09
508.85	44313.36
509.03	44062.93
509.20	44533.37
509.38	44402.30
509.55	44430.39
509.73	44964.03
509.90	45230.85
510.08	44744.02
510.25	44945.31
510.42	44882.11
510.60	44886.79
510.77	45205.11
510.95	45595.98
511.12	45226.17
511.30	45268.30
511.47	45823.01
511.64	45951.74
511.82	46387.08
511.99	45776.20
512.17	45996.21
512.34	45989.19
512.51	46714.75
512.69	46892.63
512.86	46361.33
513.04	46937.10
513.21	46457.29
513.38	46979.23
513.56	46913.70
513.73	47180.52
513.90	47232.01
514.08	47051.79
514.25	47416.91
514.43	47608.84
514.60	47765.65
514.77	47349.04
514.95	47917.79
515.12	47419.25
515.29	47547.98
515.47	48222.06
515.64	48446.75
515.81	48119.07
515.99	48399.94
516.16	48739.32
516.33	48467.81
516.51	48842.30
516.68	48664.42
516.85	48208.01
517.03	49055.29
517.20	49008.48
517.37	48987.41
517.54	48891.45
517.72	49200.40
517.89	49345.51
518.06	49420.41
518.24	49443.82
518.41	49469.56
518.58	49303.38
518.75	49614.68
518.93	49743.41
519.10	49357.22
519.27	49815.96
519.45	50115.55
519.62	50248.96
519.79	49982.14
519.96	50129.59
520.14	50279.39
520.31	50089.80
520.48	50644.51
520.65	50518.12
520.83	50960.48
521.00	50415.14
521.17	50951.12
521.34	50869.20
521.52	50777.92
521.69	51334.97
521.86	51295.18
522.03	51222.62
522.20	51480.08
522.38	51812.44
522.55	51559.66
522.72	51529.23
522.89	51428.59
523.07	51819.46
523.24	51854.57
523.41	52088.62
523.58	51679.03
523.75	51962.23
523.92	51847.55
524.10	52222.03
524.27	52065.22
524.44	52055.85
524.61	52245.44
524.78	52676.10
524.96	52406.94
525.13	52680.78
525.30	52360.12
525.47	52767.38
525.64	52760.36
525.81	52870.36
525.98	52949.94
526.16	52711.20
526.33	52872.70
526.50	53153.57
526.67	52849.30
526.84	53130.16
527.01	53036.54
527.18	52949.94
527.36	53406.34
527.53	53160.59
527.70	53567.84
527.87	53577.20
528.04	53544.44
528.21	53612.31
528.38	53649.76
528.55	53602.95
528.72	53455.50
528.89	53380.60
529.07	53502.31
529.24	53638.06
529.41	53792.53
529.58	53977.43
529.75	53865.09
529.92	53806.58
530.09	53939.99
530.26	54040.63
530.43	54080.42
530.60	53666.14
530.77	53886.15
530.94	54380.01
531.11	53958.71
531.28	54120.21
531.46	54609.38
531.63	54670.23
531.80	54550.87
531.97	54791.94
532.14	54698.32
532.31	54457.24
532.48	54738.11
532.65	54625.76
532.82	54522.78
532.99	54908.97
533.16	54934.71
533.33	55084.51
533.50	55227.28
533.67	54897.27
533.84	54801.30
534.01	54876.20
534.18	55140.68
534.35	55421.55
534.52	55379.42
534.69	55248.35
534.86	55105.57
535.03	55297.50
535.20	55316.22
535.37	55566.66
535.54	55437.93
535.71	55388.78
535.88	55737.52
536.05	55540.91
536.22	55686.03
536.38	55618.15
536.55	55856.88
536.72	55679.00
536.89	55704.75
537.06	55856.88
537.23	56116.68
537.40	55688.37
537.57	55901.36
537.74	55866.25
537.91	56236.05
538.08	56069.87
538.25	55877.95
538.42	56039.45
538.59	56243.07
538.75	56058.17
538.92	56343.72
539.09	56336.69
539.26	56151.79
539.43	56179.88
539.60	56367.12
539.77	56514.58
539.94	56486.49
540.11	56528.62
540.28	56575.43
540.44	56629.26
540.61	56437.34
540.78	56493.51
540.95	56837.57
541.12	56456.06
541.29	56811.82
541.46	56554.36
541.62	56619.90
541.79	56912.47
541.96	56624.58
542.13	56636.28
542.30	56804.80
542.47	56928.85
542.63	56903.10
542.80	56907.79
542.97	57144.18
543.14	57509.30
543.31	57256.53
543.48	57350.15
543.64	57731.65
543.81	57523.35
543.98	57518.67
544.15	57392.28
544.32	57516.32
544.48	57516.32
544.65	57399.30
544.82	57609.95
544.99	57532.71
545.16	57682.50
545.32	57565.48
545.49	57729.31
545.66	57869.75
545.83	57790.17
546.00	57872.09
546.16	57785.49
546.33	57722.29
546.50	57623.99
546.67	57790.17
546.83	57509.30
547.00	57862.72
547.17	58005.50
547.34	57696.55
547.50	57923.58
547.67	58239.55
547.84	58157.63
548.00	58129.54
548.17	58291.04
548.34	58092.10
548.51	58452.54
548.67	58323.81
548.84	58234.87
549.01	58244.23
549.18	58522.76
549.34	58342.53
549.51	58478.28
549.68	58475.94
549.84	58363.60
550.01	58471.26
550.18	58361.26
550.34	58571.91
550.51	58562.54
550.68	58686.59
550.84	58337.85
551.01	58752.13
551.18	58688.93
551.34	58569.57
551.51	58588.29
551.68	58749.79
551.84	58674.89
552.01	58838.73
552.18	58646.80
552.34	58426.79
552.51	58993.20
552.68	58576.59
552.84	58827.02
553.01	58997.88
553.18	58932.35
553.34	58953.41
553.51	58686.59
553.67	58967.46
553.84	58911.28
554.01	58981.50
554.17	59164.06
554.34	59105.55
554.51	59288.11
554.67	59381.73
554.84	59037.67
555.00	59196.83
555.17	58934.69
555.33	59297.47
555.50	59325.56
555.67	59168.74
555.83	59150.02
556.00	59341.94
556.16	59199.17
556.33	59299.81
556.50	59416.84
556.66	59475.35
556.83	59327.90
556.99	59426.20
557.16	59704.73
557.32	59653.23
557.49	59632.17
557.65	59414.50
557.82	59288.11
557.98	59330.24
558.15	59613.44
558.32	59786.64
558.48	59540.89
558.65	59522.16
558.81	59494.08
558.98	59686.00
559.14	59817.07
559.31	59875.58
559.47	59777.28
559.64	59877.93
559.80	59824.09
559.97	59700.04
560.13	59561.95
560.30	59805.37
560.46	59938.78
560.63	59973.89
560.79	59856.86
560.96	60027.72
561.12	59723.45
561.29	60116.66
561.45	60009.00
561.61	60062.83
561.78	59875.58
561.94	60055.81
562.11	59913.03
562.27	60083.89
562.44	60142.41
562.60	60135.38
562.77	60111.98
562.93	59807.71
563.10	60107.30
563.26	59882.61
563.42	60331.99
563.59	59976.23
563.75	60074.53
563.92	60205.60
564.08	60161.13
564.24	60390.50
564.41	60292.20
564.57	60229.01
564.74	60268.79
564.90	60231.35
565.07	60163.47
565.23	60130.70
565.39	60154.11
565.56	60205.60
565.72	60409.23
565.88	60214.96
566.05	60182.19
566.21	60221.98
566.38	60301.56
566.54	60472.42
566.70	60399.86
566.87	60465.40
567.03	60207.94
567.19	60512.21
567.36	60334.33
567.52	60287.52
567.68	60507.53
567.85	60573.06
568.01	60664.35
568.17	60388.16
568.34	60528.59
568.50	60444.33
568.66	60533.28
568.83	60523.91
568.99	60498.17
569.15	60554.34
569.32	60406.89
569.48	60547.32
569.64	60654.98
569.81	60767.33
569.97	60477.10
570.13	60521.57
570.30	60109.64
570.46	60514.55
570.62	60736.90
570.78	60697.11
570.95	60631.58
571.11	60767.33
571.27	60601.15
571.43	60561.36
571.60	60772.01
571.76	60589.45
571.92	60790.73
572.09	60573.06
572.25	60760.31
572.41	60584.77
572.57	60746.26
572.74	61059.90
572.90	60633.92
573.06	60746.26
573.22	60727.54
573.38	60914.78
573.55	60683.07
573.71	60886.70
573.87	60856.27
574.03	60781.37
574.20	60729.88
574.36	60919.46
574.52	60851.59
574.68	61010.74
574.84	60924.14
575.01	60842.23
575.17	60776.69
575.33	60884.36
575.49	60708.82
575.65	60729.88
575.82	60907.76
575.98	60954.57
576.14	61027.13
576.30	60926.49
576.46	60837.54
576.62	60783.71
576.79	61062.24
576.95	60699.45
577.11	60945.21
577.27	61095.00
577.43	60891.38
577.59	60968.61
577.75	60921.80
577.92	60767.33
578.08	61013.08
578.24	60828.18
578.40	61059.90
578.56	61062.24
578.72	61099.68
578.88	61116.07
579.04	61130.11
579.21	61102.03
579.37	61132.45
579.53	61034.15
579.69	60704.13
579.85	60980.32
580.01	61006.06
580.17	61050.53
580.33	61055.21
580.49	60980.32
580.65	61132.45
580.82	60970.96
580.98	61024.79
581.14	60788.39
581.30	61158.20
581.46	60996.70
581.62	61118.41
581.78	61144.16
581.94	60963.93
582.10	60860.95
582.26	61134.79
582.42	60790.73
582.58	61052.87
582.74	60928.83
582.90	61036.49
583.06	61073.94
583.22	60919.46
583.38	60959.25
583.54	61104.37
583.70	61080.96
583.86	61116.07
584.02	61183.94
584.18	61104.37
584.34	61050.53
584.50	60926.49
584.66	60837.54
584.82	60973.30
584.98	61317.35
585.14	61087.98
585.30	61008.40
585.46	61282.25
585.62	61069.26
585.78	61291.61
585.94	61069.26
586.10	61193.31
586.26	61090.32
586.42	61181.60
586.58	61104.37
586.74	61216.71
586.90	61275.22
587.06	61078.62
587.22	61263.52
587.38	60956.91
587.54	61336.08
587.70	61450.77
587.86	61272.88
588.02	61441.40
588.18	61221.39
588.34	60985.00
588.49	61319.70
588.65	61132.45
588.81	61141.81
588.97	61450.77
589.13	61497.58
589.29	61385.23
589.45	61296.29
589.61	61249.48
589.77	61551.41
589.93	61263.52
590.08	61439.06
590.24	61605.24
590.40	61464.81
590.56	61609.92
590.72	61542.05
590.88	61141.81
591.04	61331.40
591.20	61712.91
591.35	61635.67
591.51	61591.20
591.67	61628.65
591.83	61476.51
591.99	61434.38
592.15	61434.38
592.31	61324.38
592.46	61464.81
592.62	61455.45
592.78	61509.28
592.94	61778.44
593.10	61542.05
593.26	61670.78
593.41	61619.28
593.57	61284.59
593.73	61546.73
593.89	61836.95
594.05	61586.52
594.20	61598.22
594.36	61630.99
594.52	61656.73
594.68	61680.14
594.84	61389.91
594.99	61687.16
595.15	61659.07
595.31	61621.62
595.47	61448.42
595.62	61478.85
595.78	61586.52
595.94	61659.07
596.10	61806.53
596.25	61832.27
596.41	61794.82
596.57	61591.20
596.73	61745.67
596.88	61715.25
597.04	61946.96
597.20	61687.16
597.36	61843.98
597.51	61862.70
597.67	61750.35
597.83	61478.85
597.99	61776.10
598.14	61851.00
598.30	61879.08
598.46	61787.80
598.61	61911.85
598.77	61673.12
598.93	61862.70
599.09	61792.48
599.24	61937.60
599.40	62049.94
599.56	61893.13
599.71	61811.21
599.87	61965.68
600.03	61780.78
600.18	61755.03
600.34	61804.19
600.50	61771.42
600.65	61769.08
600.81	61820.57
600.97	62014.83
601.12	61743.33
601.28	61708.22
601.44	61684.82
601.59	61748.01
601.75	61684.82
601.91	62031.22
602.06	61951.64
602.22	61881.42
602.37	61904.83
602.53	61731.63
602.69	61820.57
602.84	61677.80
603.00	61907.17
603.16	62000.79
603.31	62078.03
603.47	61972.70
603.62	61684.82
603.78	62099.09
603.94	61996.11
604.09	61937.60
604.25	61946.96
604.40	61794.82
604.56	61869.72
604.71	61986.75
604.87	61939.94
605.03	61820.57
605.18	61869.72
605.34	61935.26
605.49	61626.31
605.65	61918.87
605.80	61893.13
605.96	61869.72
606.12	62110.80
606.27	61888.45
606.43	61647.37
606.58	61815.89
606.74	61750.35
606.89	61904.83
607.05	61815.89
607.20	62019.52
607.36	61806.53
607.51	61773.76
607.67	61516.30
607.82	61874.40
607.98	61813.55
608.13	61918.87
608.29	61787.80
608.44	61694.18
608.60	61579.49
608.75	61876.74
608.91	61745.67
609.06	61544.39
609.22	61780.78
609.37	61375.87
609.53	61750.35
609.68	61848.66
609.84	61506.94
609.99	61633.33
610.15	61647.37
610.30	61729.29
610.46	61682.48
610.61	61776.10
610.76	61642.69
610.92	61762.06
611.07	61979.73
611.23	61649.71
611.38	61588.86
611.54	61701.20
611.69	61745.67
611.84	61663.75
612.00	61659.07
612.15	61558.43
612.31	61684.82
612.46	61513.96
612.62	61574.81
612.77	61455.45
612.92	61736.31
613.08	61675.46
613.23	61780.78
613.39	61525.66
613.54	61312.67
613.69	61698.86
613.85	61436.72
614.00	61677.80
614.15	61736.31
614.31	61350.12
614.46	61652.05
614.62	61586.52
614.77	61532.68
614.92	61319.70
615.08	61394.59
615.23	61509.28
615.38	61539.71
615.54	61544.39
615.69	61408.64
615.84	61567.79
616.00	61434.38
616.15	61373.53
616.30	61462.47
616.46	61354.80
616.61	61418.00
616.76	61420.34
616.92	61307.99
617.07	61446.08
617.22	61422.68
617.37	61392.25
617.53	61630.99
617.68	61361.82
617.83	61469.49
617.99	61399.27
618.14	61315.01
618.29	61439.06
618.45	61167.56
618.60	61139.47
618.75	61282.25
618.90	61226.07
619.06	61373.53
619.21	61315.01
619.36	61532.68
619.51	61371.19
619.67	61057.56
619.82	61048.19
619.97	61310.33
620.12	61193.31
620.28	60989.68
620.43	61059.90
620.58	61120.75
620.73	61123.09
620.89	61249.48
621.04	61153.52
621.19	61162.88
621.34	60992.02
621.49	61085.64
621.65	61080.96
621.80	61202.67
621.95	60949.89
622.10	61045.85
622.25	61099.68
622.41	60935.85
622.56	61064.58
622.71	61230.75
622.86	60900.74
623.01	60837.54
623.16	60687.75
623.32	61066.92
623.47	61134.79
623.62	61022.45
623.77	60935.85
623.92	61038.83
624.07	60910.10
624.23	61006.06
624.38	60851.59
624.53	60769.67
624.68	60722.86
624.83	60743.92
624.98	60830.52
625.13	60500.51
625.29	60882.02
625.44	60584.77
625.59	60626.90
625.74	60619.88
625.89	60640.94
626.04	60327.31
626.19	60680.73
626.34	60662.00
626.49	60612.85
626.65	60521.57
626.80	60491.15
626.95	60701.79
627.10	60463.06
627.25	60416.25
627.40	60603.49
627.55	60577.75
627.70	60411.57
627.85	60598.81
628.00	60439.65
628.15	60474.76
628.30	60322.63
628.45	60360.08
628.60	60350.71
628.76	60254.75
628.91	60434.97
629.06	60467.74
629.21	60472.42
629.36	60523.91
629.51	60168.15
629.66	60264.11
629.81	60074.53
629.96	60074.53
630.11	60315.61
630.26	60425.61
630.41	60601.15
630.56	60317.95
630.71	60348.37
630.86	60203.26
631.01	60104.96
631.16	60313.26
631.31	59938.78
631.46	59913.03
631.61	59966.87
631.76	60081.55
631.91	60133.04
632.06	59971.55
632.21	60243.05
632.36	60004.31
632.51	59646.21
632.66	59833.46
632.81	59976.23
632.96	60189.22
633.10	60163.47
633.25	59966.87
633.40	60123.68
633.55	59999.63
633.70	59964.52
633.85	59835.80
634.00	59777.28
634.15	59847.50
634.30	59898.99
634.45	60023.04
634.60	59894.31
634.75	59791.33
634.90	59660.26
635.05	59683.66
635.19	59735.15
635.34	59866.22
635.49	59774.94
635.64	59760.90
635.79	59742.17
635.94	59852.18
636.09	59845.16
636.24	59554.93
636.39	59784.30
636.53	59962.18
636.68	59590.04
636.83	59791.33
636.98	59781.96
637.13	59643.87
637.28	59346.62
637.43	59601.74
637.57	59784.30
637.72	59437.90
637.87	59398.12
638.02	59489.40
638.17	59547.91
638.32	59519.82
638.46	59311.52
638.61	59306.83
638.76	59199.17
638.91	59262.36
639.06	59288.11
639.20	59281.09
639.35	59510.46
639.50	59194.49
639.65	59173.42
639.80	59545.57
639.94	59393.43
640.09	59213.21
640.24	59435.56
640.39	59194.49
640.54	58988.52
640.68	59351.30
640.83	59135.98
640.98	59341.94
641.13	59112.57
641.27	59494.08
641.42	59157.04
641.57	58908.94
641.72	59175.76
641.86	59007.25
642.01	58906.60
642.16	59124.27
642.31	59054.06
642.45	59332.58
642.60	59068.10
642.75	59274.07
642.90	59124.27
643.04	58965.12
643.19	58880.86
643.34	59058.74
643.48	58972.14
643.63	58974.48
643.78	58869.15
643.93	58974.48
644.07	58841.07
644.22	58745.11
644.37	58812.98
644.51	58724.04
644.66	58827.02
644.81	58997.88
644.95	58688.93
645.10	58838.73
645.25	58728.72
645.39	58607.01
645.54	58665.53
645.69	58670.21
645.83	58838.73
645.98	58656.17
646.13	58710.00
646.27	58775.53
646.42	58588.29
646.57	58649.14
646.71	58838.73
646.86	58777.87
647.00	58429.13
647.15	58644.46
647.30	58447.86
647.44	58363.60
647.59	58829.37
647.74	58651.48
647.88	58670.21
648.03	58651.48
648.17	58553.18
648.32	58258.27
648.47	58616.38
648.61	58422.11
648.76	58520.41
648.90	58398.71
649.05	58450.20
649.20	58464.24
649.34	58595.31
649.49	58272.32
649.63	58468.92
649.78	58674.89
649.92	58305.09
650.07	58445.52
650.21	58468.92
650.36	58298.06
650.51	58410.41
650.65	58307.43
650.80	58653.82
650.94	58038.26
651.09	58272.32
651.23	58005.50
651.38	58145.93
651.52	57928.26
651.67	57989.11
651.81	58396.37
651.96	58113.16
652.10	58035.92
652.25	57855.70
652.39	57956.35
652.54	57946.98
652.68	57862.72
652.83	57991.45
652.97	58080.39
653.12	58035.92
653.26	57839.32
653.41	57846.34
653.55	57937.62
653.70	57762.08
653.84	58038.26
653.99	57729.31
654.13	57851.02
654.27	57799.53
654.42	57851.02
654.56	57893.15
654.71	57743.36
654.85	57897.83
655.00	57790.17
655.14	57558.45
655.29	57726.97
655.43	57642.71
655.57	57708.25
655.72	57626.33
655.86	57750.38
656.01	57602.92
656.15	57614.63
656.30	57598.24
656.44	57829.96
656.58	57579.52
656.73	57715.27
656.87	57717.61
657.01	57434.41
657.16	57726.97
657.30	57425.04
657.45	57471.85
657.59	57460.15
657.73	57270.57
657.88	57528.03
658.02	57219.08
658.16	57298.65
658.31	57240.14
658.45	57354.83
658.60	57537.39
658.74	57338.44
658.88	57392.28
659.03	57289.29
659.17	57045.88
659.31	56893.74
659.46	57188.65
659.60	57080.98
659.74	57127.80
659.89	56940.55
660.03	57057.58
660.17	57078.64
660.32	56963.96
660.46	56882.04
660.60	56856.29
660.74	57162.90
660.89	57062.26
661.03	56816.50
661.17	56491.17
661.32	56388.19
661.46	56460.74
661.60	56746.29
661.74	56549.68
661.89	56535.64
662.03	56722.88
662.17	56444.36
662.31	56317.97
662.46	56624.58
662.60	56289.88
662.74	56226.69
662.88	56226.69
663.03	55941.14
663.17	56060.51
663.31	56116.68
663.45	56123.71
663.60	55891.99
663.74	55611.13
663.88	56027.74
664.02	55945.83
664.17	55980.93
664.31	55833.48
664.45	55627.51
664.59	55880.29
664.73	55826.46
664.88	55789.01
665.02	55618.15
665.16	55718.79
665.30	55440.27
665.44	55482.40
665.59	55884.97
665.73	55454.31
665.87	55491.76
666.01	55189.83
666.15	55311.54
666.29	55550.27
666.44	55676.66
666.58	55309.20
666.72	55203.88
666.86	54915.99
667.00	55201.53
667.14	54930.03
667.28	54494.69
667.43	54859.82
667.57	55011.95
667.71	54754.49
667.85	54752.15
667.99	54717.04
668.13	54843.43
668.27	54831.73
668.41	54817.69
668.56	54726.41
668.70	54588.31
668.84	54223.19
668.98	54248.94
669.12	54597.68
669.26	54539.16
669.40	54152.97
669.54	54497.03
669.68	54422.14
669.82	54110.85
669.96	53951.69
670.10	54176.38
670.25	54284.04
670.39	54167.02
670.53	54134.25
670.67	53858.07
670.81	54258.30
670.95	54162.34
671.09	53757.42
671.23	53635.72
671.37	53546.78
671.51	53680.19
671.65	53609.97
671.79	53525.71
671.93	53385.28
672.07	53471.88
672.21	53242.51
672.35	52914.83
672.49	52982.71
672.63	52797.80
672.77	52877.38
672.91	52900.79
673.05	52662.05
673.19	52750.99
673.33	52671.42
673.47	52526.30
673.61	52582.48
673.75	52381.19
673.89	52299.27
674.03	52217.35
674.17	52367.15
674.31	51995.00
674.45	51945.85
674.59	52053.51
674.73	52062.88
674.87	52067.56
675.01	51714.14
675.15	51503.49
675.29	51704.77
675.43	51440.29
675.56	51554.98
675.70	51255.39
675.84	51159.43
675.98	50499.40
676.12	51098.58
676.26	50993.25
676.40	50632.81
676.54	50688.98
676.68	50815.37
676.82	50155.34
676.96	50370.67
677.10	50040.65
677.23	49841.71
677.37	50326.20
677.51	50656.21
677.65	49380.62
677.79	49413.39
677.93	49055.29
678.07	49319.77
678.21	49471.90
678.34	49373.60
678.48	49188.70
678.62	48669.10
678.76	48975.71
678.90	48615.27
679.04	48942.94
679.18	48839.96
679.31	48442.07
679.45	48016.09
679.59	48278.23
679.73	48376.53
679.87	48030.13
680.00	47531.60
680.14	47585.43
680.28	47498.83
680.42	47178.18
680.56	47196.90
680.70	46679.64
680.83	47040.09
680.97	46946.47
681.11	46911.36
681.25	46651.56
681.39	46686.67
681.52	46485.38
681.66	46543.89
681.80	46199.83
681.94	45834.71
682.07	46248.99
682.21	45872.16
682.35	46160.05
682.49	45223.83
682.62	45593.64
682.76	45495.33
682.90	45883.86
683.04	45275.32
683.17	44823.60
683.31	44652.74
683.45	44844.66
683.59	44498.26
683.72	44315.70
683.86	44147.18
684.00	44086.33
684.13	44376.56
684.27	44179.95
684.41	44123.78
684.55	43650.99
684.68	43676.74
684.82	43320.98
684.96	42810.74
685.09	42899.68
685.23	42876.27
685.37	43203.95
685.50	42305.18
685.64	42876.27
685.78	42417.53
685.91	42492.43
686.05	42506.47
686.19	42089.85
686.32	41918.99
686.46	41516.42
686.60	40837.67
686.73	41083.42
686.87	40919.59
687.01	41170.02
687.14	41008.53
687.28	40233.81
687.42	40636.38
687.55	40268.92
687.69	40577.87
687.82	39667.40
687.96	39882.73
688.10	39503.56
688.23	40418.71
688.37	39763.36
688.50	39414.62
688.64	39395.90
688.78	38831.83
688.91	38518.20
689.05	38789.70
689.18	38738.21
689.32	37893.27
689.46	37392.40
689.59	38134.35
689.73	37832.42
689.86	37998.60
690.00	37537.51
690.13	37853.48
690.27	37558.58
690.41	37729.44
690.54	36943.02
690.68	36865.78
690.81	36877.48
690.95	36601.30
691.08	36776.84
691.22	36458.52
691.35	36037.23
691.49	36673.85
691.62	36273.62
691.76	35810.20
691.89	35938.93
692.03	35676.79
692.16	35695.51
692.30	35290.60
692.43	35323.36
692.57	35208.68
692.70	34878.66
692.84	34635.25
692.97	34803.77
693.11	34656.31
693.24	34260.76
693.38	33752.87
693.51	33542.22
693.65	34045.43
693.78	33858.19
693.92	33919.04
694.05	33745.84
694.19	33448.60
694.32	33528.17
694.45	33383.06
694.59	32893.89
694.72	32720.69
694.86	32664.52
694.99	32378.97
695.13	31742.35
695.26	32051.30
695.39	31737.66
695.53	32084.06
695.66	32053.64
695.80	31625.32
695.93	31545.74
696.07	31094.02
696.20	30888.05
696.33	31012.10
696.47	31021.46
696.60	30679.74
696.73	30764.00
696.87	30551.01
697.00	30232.70
697.14	30176.53
697.27	30115.67
697.40	30036.09
697.54	30265.47
697.67	29298.83
697.80	29539.90
697.94	29261.38
698.07	29064.77
698.21	29123.29
698.34	29050.73
698.47	28758.16
698.61	28617.73
698.74	28554.54
698.87	28863.49
699.01	28259.63
699.14	28444.53
699.27	28236.22
699.40	28102.81
699.54	28114.52
699.67	27728.33
699.80	27730.67
699.94	27101.06
700.07	27388.95
700.20	27007.44
700.34	27033.19
700.47	26967.65
700.60	26719.56
700.73	26302.94
700.87	26356.77
701.00	25858.24
701.13	26113.36
701.26	25958.88
701.40	26469.12
701.53	25610.14
701.66	26244.43
701.79	25479.07
701.93	24896.28
702.06	25008.62
702.19	24746.48
702.32	24952.45
702.46	24734.78
702.59	24858.83
702.72	24685.63
702.85	24556.90
702.99	24435.19
703.12	24439.87
703.25	24332.21
703.38	23779.84
703.51	23466.21
703.65	23632.39
703.78	23213.43
703.91	23887.51
704.04	23571.54
704.17	23658.14
704.31	23199.39
704.44	22995.76
704.57	22663.41
704.70	22677.45
704.83	22778.09
704.96	22728.94
705.10	22199.98
705.23	22380.20
>>>>>End Processed Spectral Data<<<<<
