SpectraSuite Data File
++++++++++++++++++++++++++++++++++++
Date: Fri Oct 25 11:23:52 EDT 2013
User: price-jones
Dark Spectrum Present: No
Reference Spectrum Present: No
Number of Sampled Component Spectra: 1
Spectrometers: USB2+H05261
Integration Time (usec): 100000 (USB2+H05261)
Spectra Averaged: 1 (USB2+H05261)
Boxcar Smoothing: 0 (USB2+H05261)
Correct for Electrical Dark: No (USB2+H05261)
Strobe/Lamp Enabled: No (USB2+H05261)
Correct for Detector Non-linearity: No (USB2+H05261)
Correct for Stray Light: No (USB2+H05261)
Number of Pixels in Processed Spectrum: 2048
>>>>>Begin Processed Spectral Data<<<<<
365.73	287.89
365.92	287.89
366.12	287.89
366.32	100.64
366.52	138.09
366.72	72.56
366.91	147.45
367.11	152.13
367.31	107.66
367.51	117.03
367.70	81.92
367.90	131.07
368.10	117.03
368.30	149.79
368.49	135.75
368.69	156.82
368.89	140.43
369.09	86.60
369.28	159.16
369.48	163.84
369.68	145.11
369.87	231.71
370.07	175.54
370.27	236.39
370.47	311.29
370.66	580.45
370.86	662.37
371.06	566.41
371.25	681.10
371.45	748.97
371.65	688.12
371.84	636.63
372.04	697.48
372.24	734.93
372.44	676.41
372.63	676.41
372.83	791.10
373.03	711.52
373.22	758.33
373.42	713.86
373.62	755.99
373.81	755.99
374.01	748.97
374.21	814.51
374.40	816.85
374.60	856.64
374.79	760.67
374.99	854.30
375.19	784.08
375.38	887.06
375.58	884.72
375.78	821.53
375.97	856.64
376.17	866.00
376.37	837.91
376.56	898.77
376.76	842.59
376.95	901.11
377.15	896.43
377.35	856.64
377.54	901.11
377.74	933.87
377.93	889.40
378.13	887.06
378.33	917.49
378.52	985.37
378.72	917.49
378.91	952.60
379.11	1006.43
379.31	959.62
379.50	961.96
379.70	961.96
379.89	999.41
380.09	940.90
380.28	968.98
380.48	999.41
380.68	917.49
380.87	1100.05
381.07	1020.47
381.26	933.87
381.46	992.39
381.65	1020.47
381.85	1025.15
382.04	1015.79
382.24	1048.56
382.43	1020.47
382.63	983.02
382.83	1050.90
383.02	983.02
383.22	1067.28
383.41	1043.88
383.61	1102.39
383.80	1184.31
384.00	1048.56
384.19	1062.60
384.39	1116.44
384.58	1144.52
384.78	1095.37
384.97	1210.06
385.17	1188.99
385.36	1170.27
385.56	1114.10
385.75	1107.07
385.95	1163.25
386.14	1214.74
386.34	1158.57
386.53	1179.63
386.72	1165.59
386.92	1261.55
387.11	1233.46
387.31	1254.53
387.50	1249.85
387.70	1252.19
387.89	1219.42
388.09	1226.44
388.28	1352.83
388.48	1249.85
388.67	1280.27
388.86	1287.29
389.06	1348.15
389.25	1214.74
389.45	1366.87
389.64	1324.74
389.84	1357.51
390.03	1380.92
390.22	1336.45
390.42	1348.15
390.61	1401.98
390.81	1418.36
391.00	1380.92
391.19	1430.07
391.39	1416.02
391.58	1455.81
391.78	1425.39
391.97	1397.30
392.16	1504.96
392.36	1504.96
392.55	1495.60
392.75	1465.18
392.94	1654.76
393.13	1530.71
393.33	1549.43
393.52	1568.16
393.71	1568.16
393.91	1589.22
394.10	1547.09
394.29	1603.27
394.49	1631.35
394.68	1652.42
394.88	1657.10
395.07	1629.01
395.26	1685.19
395.46	1591.56
395.65	1750.72
395.84	1806.89
396.04	1858.39
396.23	1710.93
396.42	1743.70
396.62	1790.51
396.81	1748.38
397.00	1703.91
397.19	1849.02
397.39	1842.00
397.58	1816.26
397.77	1753.06
397.97	1926.26
398.16	1720.29
398.35	1884.13
398.55	1813.92
398.74	1877.11
398.93	1923.92
399.12	1905.20
399.32	1870.09
399.51	1907.54
399.70	2043.29
399.90	1919.24
400.09	1982.43
400.28	2111.16
400.47	2148.61
400.67	2143.93
400.86	2073.71
401.05	2115.84
401.24	2139.25
401.44	2125.21
401.63	2136.91
401.82	2197.76
402.01	2113.50
402.21	2139.25
402.40	2190.74
402.59	2083.08
402.78	2242.23
402.97	2225.85
403.17	2218.83
403.36	2235.21
403.55	2408.41
403.74	2373.30
403.93	2452.88
404.13	2392.03
404.32	2298.41
404.51	2370.96
404.70	2408.41
404.89	2401.39
405.09	2466.92
405.28	2455.22
405.47	2473.95
405.66	2499.69
405.85	2497.35
406.05	2511.39
406.24	2523.10
406.43	2492.67
406.62	2609.70
406.81	2595.65
407.00	2602.68
407.20	2612.04
407.39	2590.97
407.58	2679.91
407.77	2736.09
407.96	2710.34
408.15	2738.43
408.34	2764.17
408.54	2768.85
408.73	2923.33
408.92	2918.65
409.11	2918.65
409.30	2906.95
409.49	2993.55
409.68	2843.75
409.87	3045.04
410.07	2956.10
410.26	3087.17
410.45	2902.26
410.64	2970.14
410.83	3091.85
411.02	3016.95
411.21	3005.25
411.40	3171.43
411.59	3204.19
411.78	3068.44
411.98	3178.45
412.17	3337.60
412.36	3220.58
412.55	3243.98
412.74	3449.95
412.93	3421.86
413.12	3267.39
413.31	3576.34
413.50	3508.46
413.69	3543.57
413.88	3508.46
414.07	3672.30
414.26	3637.19
414.45	3784.65
414.64	3674.64
414.83	3693.37
415.02	3789.33
415.22	3817.41
415.41	3885.29
415.60	3791.67
415.79	3885.29
415.98	4049.13
416.17	3983.59
416.36	4032.74
416.55	3983.59
416.74	4109.98
416.93	4145.09
417.12	4222.33
417.31	4231.69
417.50	4198.92
417.69	4367.44
417.88	4248.07
418.07	4133.39
418.26	4205.94
418.45	4456.38
418.64	4610.86
418.83	4552.34
419.02	4383.82
419.21	4425.95
419.39	4645.96
419.58	4486.81
419.77	4479.79
419.96	4482.13
420.15	4702.14
420.34	4655.33
420.53	4758.31
420.72	4788.74
420.91	4500.85
421.10	4702.14
421.29	4678.73
421.48	4718.52
421.67	4784.06
421.86	4732.56
422.05	4730.22
422.24	4816.82
422.43	4875.34
422.61	4805.12
422.80	5109.39
422.99	4964.28
423.18	5060.24
423.37	5071.94
423.56	4961.94
423.75	4807.46
423.94	4875.34
424.13	4561.70
424.32	4734.90
424.50	4940.87
424.69	5139.82
424.88	5025.13
425.07	4964.28
425.26	4812.14
425.45	4968.96
425.64	4938.53
425.83	4968.96
426.01	5043.85
426.20	5114.07
426.39	5041.51
426.58	5048.54
426.77	5074.28
426.96	5203.01
427.15	5008.75
427.33	5224.08
427.52	4994.70
427.71	5284.93
427.90	5469.83
428.09	5364.51
428.28	5336.42
428.46	5294.29
428.65	5416.00
428.84	5451.11
429.03	5521.32
429.22	5345.78
429.40	5497.92
429.59	5441.75
429.78	5448.77
429.97	5432.38
430.16	5413.66
430.34	5528.35
430.53	5626.65
430.72	5720.27
430.91	5776.44
431.10	5645.37
431.28	5701.54
431.47	5767.08
431.66	5734.31
431.85	5797.51
432.03	5912.19
432.22	6080.71
432.41	5849.00
432.60	5935.60
432.79	6052.63
432.97	5968.37
433.16	6120.50
433.35	5863.04
433.54	6153.27
433.72	6146.25
433.91	6211.78
434.10	6134.54
434.28	5989.43
434.47	6202.42
434.66	6132.20
434.85	6277.32
435.03	6289.02
435.22	6354.55
435.41	6469.24
435.59	6445.84
435.78	6469.24
435.97	6487.96
436.16	6408.39
436.34	6499.67
436.53	6583.93
436.72	6593.29
436.90	6604.99
437.09	6614.35
437.28	6504.35
437.46	6586.27
437.65	6525.41
437.84	6841.39
438.02	6759.47
438.21	6757.13
438.40	6679.89
438.58	6815.64
438.77	6967.77
438.96	7087.14
439.14	7176.08
439.33	6991.18
439.52	7218.21
439.70	7227.57
439.89	7314.17
440.08	7442.90
440.26	7449.93
440.45	7375.03
440.63	7424.18
440.82	7527.16
441.01	7503.76
441.19	7562.27
441.38	7665.25
441.57	7562.27
441.75	7878.24
441.94	7969.52
442.12	7981.23
442.31	8037.40
442.50	8119.32
442.68	8088.89
442.87	8018.68
443.05	8067.83
443.24	8278.47
443.43	7901.65
443.61	8229.32
443.80	8482.10
443.98	8198.90
444.17	8067.83
444.35	8109.96
444.54	8404.86
444.73	8245.71
444.91	8374.44
445.10	8259.75
445.28	8493.80
445.47	8468.06
445.65	8369.76
445.84	8365.07
446.02	8224.64
446.21	8290.18
446.39	8388.48
446.58	8540.61
446.77	8491.46
446.95	8376.78
447.14	8409.54
447.32	8594.45
447.51	8393.16
447.69	8423.59
447.88	8491.46
448.06	8594.45
448.25	8592.11
448.43	8695.09
448.62	8655.30
448.80	8500.83
448.99	8894.04
449.17	8744.24
449.36	8601.47
449.54	8903.40
449.73	8861.27
449.91	8961.91
450.10	9055.53
450.28	9118.73
450.46	9092.98
450.65	9252.14
450.83	9142.13
451.02	8877.65
451.20	9132.77
451.39	9191.28
451.57	9109.36
451.76	9025.11
451.94	9104.68
452.13	9317.67
452.31	9270.86
452.49	9348.10
452.68	9242.78
452.86	9479.17
453.05	9380.87
453.23	9598.54
453.42	9312.99
453.60	9551.73
453.78	9727.27
453.97	9439.38
454.15	9432.36
454.34	9619.60
454.52	9832.59
454.70	9596.20
454.89	9860.68
455.07	9624.28
455.26	9790.46
455.44	9841.95
455.62	9717.90
455.81	9830.25
455.99	10134.52
456.17	10136.86
456.36	10066.64
456.54	10139.20
456.73	10272.61
456.91	10651.78
457.09	10375.59
457.28	10511.35
457.46	10422.41
457.64	10604.97
457.83	10651.78
458.01	10525.39
458.19	10604.97
458.38	10497.30
458.56	10714.97
458.74	10817.96
458.93	10752.42
459.11	10689.23
459.29	10729.02
459.48	10834.34
459.66	10855.40
459.84	11016.90
460.03	11098.82
460.21	10909.24
460.39	10986.47
460.57	10963.07
460.76	11131.59
460.94	11162.01
461.12	11208.83
461.31	11054.35
461.49	11276.70
461.67	11124.57
461.85	11515.44
462.04	11379.68
462.22	11470.97
462.40	11564.59
462.59	11576.29
462.77	11620.76
462.95	11674.59
463.13	11534.16
463.32	12042.06
463.50	11756.51
463.68	11733.11
463.86	11681.61
464.05	11705.02
464.23	11772.89
464.41	11840.77
464.59	11789.28
464.78	12147.38
464.96	11960.14
465.14	12133.34
465.32	12252.70
465.50	12107.59
465.69	12229.30
465.87	12365.05
466.05	12205.89
466.23	12226.96
466.41	12360.37
466.60	12252.70
466.78	12308.88
466.96	12128.66
467.14	12184.83
467.32	12332.28
467.51	12353.35
467.69	12505.48
467.87	12517.18
468.05	12725.49
468.23	12353.35
468.41	12580.38
468.60	12554.63
468.78	12690.38
468.96	12372.07
469.14	12842.52
469.32	12863.58
469.50	12407.18
469.69	12954.87
469.87	13046.15
470.05	13158.49
470.23	13240.41
470.41	13167.85
470.59	13633.62
470.77	13348.08
470.95	13256.79
471.14	13521.27
471.32	13472.12
471.50	13752.99
471.68	13586.81
471.86	13516.59
472.04	13912.14
472.22	14129.81
472.40	13610.22
472.58	13921.51
472.77	13947.25
472.95	14125.13
473.13	14464.51
473.31	14218.75
473.49	14232.80
473.67	14075.98
473.85	14286.63
474.03	14677.50
474.21	14824.95
474.39	14621.33
474.57	14721.97
474.75	14963.04
474.93	14831.97
475.12	15005.17
475.30	15159.65
475.48	15068.37
475.66	15164.33
475.84	15316.47
476.02	15494.35
476.20	15508.39
476.38	15831.38
476.56	15899.26
476.74	15932.03
476.92	15981.18
477.10	15899.26
477.28	16208.21
477.46	16430.56
477.64	16510.14
477.82	16580.36
478.00	16898.67
478.18	16919.73
478.36	17329.33
478.54	17188.89
478.72	17319.96
478.90	17472.10
479.08	17525.93
479.26	17809.14
479.44	17825.52
479.62	17919.14
479.80	18050.21
479.98	18094.68
480.16	18766.42
480.34	18345.12
480.52	18492.57
480.70	18864.72
480.88	18359.16
481.06	18492.57
481.24	18679.82
481.41	19122.18
481.59	19358.57
481.77	19580.92
481.95	19529.43
482.13	19653.48
482.31	19697.95
482.49	20137.97
482.67	20205.84
482.85	20631.82
483.03	20629.48
483.21	21069.50
483.39	20716.08
483.57	20975.88
483.74	21238.02
483.92	21401.86
484.10	21106.95
484.28	21617.19
484.46	22167.21
484.64	22412.97
484.82	21816.13
485.00	22272.54
485.18	23002.78
485.35	22831.93
485.53	22806.18
485.71	23110.45
485.89	23543.45
486.07	23187.69
486.25	23461.53
486.43	23821.97
486.61	24004.53
486.78	24233.91
486.96	24617.75
487.14	24673.93
487.32	24711.38
487.50	25001.60
487.68	24718.40
487.85	25418.22
488.03	25722.49
488.21	25802.07
488.39	25738.87
488.57	26438.69
488.75	26373.16
488.92	26785.09
489.10	26913.82
489.28	27211.07
489.46	27154.90
489.64	27072.98
489.81	27475.55
489.99	27630.02
490.17	27852.38
490.35	28063.02
490.53	28119.20
490.70	28802.63
490.88	28390.70
491.06	28823.70
491.24	29048.39
491.41	29116.26
491.59	29532.88
491.77	29259.04
491.95	29652.25
492.13	30019.71
492.30	30089.93
492.48	30178.87
492.66	30455.05
492.84	30281.85
493.01	30494.84
493.19	30731.23
493.37	31330.41
493.54	31309.35
493.72	31622.98
493.90	31412.33
494.08	31847.67
494.25	32259.60
494.43	32177.68
494.61	32219.81
494.79	32453.87
494.96	32409.40
495.14	32456.21
495.32	33586.69
495.49	33333.91
495.67	33663.93
495.85	33324.55
496.02	33308.16
496.20	33820.74
496.38	34094.58
496.55	34305.23
496.73	34672.70
496.91	34555.67
497.09	35241.45
497.26	34710.14
497.44	35023.78
497.62	35140.80
497.79	35885.09
497.97	36032.55
498.14	35763.39
498.32	36231.49
498.50	36261.92
498.67	36624.70
498.85	36723.01
499.03	36739.39
499.20	37090.47
499.38	37235.58
499.56	37132.60
499.73	37106.85
499.91	37350.27
500.08	37684.97
500.26	37408.78
500.44	37912.00
500.61	37736.46
500.79	37654.54
500.97	38199.88
501.14	38366.06
501.32	38211.59
501.49	38817.78
501.67	38494.79
501.84	38960.56
502.02	39175.89
502.20	38972.26
502.37	39416.96
502.55	39526.97
502.72	39510.58
502.90	39423.98
503.07	39576.12
503.25	40025.50
503.43	40105.08
503.60	40339.13
503.78	40388.28
503.95	40683.19
504.13	40685.53
504.30	41146.62
504.48	40638.72
504.65	41567.91
504.83	40994.48
505.01	41834.74
505.18	41160.66
505.36	41851.12
505.53	41710.69
505.71	41289.39
505.88	41862.82
506.06	41741.11
506.23	42218.58
506.41	41628.77
506.58	42553.28
506.76	42555.62
506.93	42696.05
507.11	42433.91
507.28	42880.95
507.46	42731.16
507.63	43009.68
507.81	43526.94
507.98	42974.58
508.16	43246.08
508.33	43702.48
508.50	43290.55
508.68	43674.40
508.85	44032.50
509.03	43629.93
509.20	44289.96
509.38	44643.38
509.55	44449.11
509.73	44692.53
509.90	44641.04
510.08	44737.00
510.25	44687.85
510.42	44509.97
510.60	45109.14
510.77	45345.54
510.95	45579.59
511.12	45228.51
511.30	45471.93
511.47	45509.38
511.64	45783.22
511.82	46157.70
511.99	45743.43
512.17	46073.45
512.34	46298.14
512.51	47035.41
512.69	46248.99
512.86	46382.40
513.04	46593.04
513.21	46815.40
513.38	46738.16
513.56	47058.81
513.73	47023.70
513.90	47131.37
514.08	47192.22
514.25	47260.10
514.43	47082.22
514.60	47779.70
514.77	47536.28
514.95	47739.91
515.12	47620.54
515.29	47552.66
515.47	48116.73
515.64	48538.03
515.81	48362.49
515.99	48266.53
516.16	48786.13
516.33	48596.54
516.51	48662.08
516.68	48526.33
516.85	48566.12
517.03	48818.89
517.20	49251.89
517.37	48898.47
517.54	49219.13
517.72	49153.59
517.89	48978.05
518.06	49394.67
518.24	49357.22
518.41	49202.74
518.58	49432.11
518.75	49399.35
518.93	49626.38
519.10	49572.55
519.27	50068.74
519.45	49954.05
519.62	50087.46
519.79	50349.60
519.96	50003.20
520.14	50160.02
520.31	50368.33
520.48	50487.70
520.65	50391.73
520.83	50707.71
521.00	50731.11
521.17	50560.25
521.34	50681.96
521.52	50871.54
521.69	51168.79
521.86	50878.57
522.03	51178.15
522.20	51304.54
522.38	51697.75
522.55	51407.53
522.72	51908.40
522.89	51433.27
523.07	51842.87
523.24	51669.67
523.41	51889.68
523.58	51711.80
523.75	52013.73
523.92	51959.89
524.10	52126.07
524.27	52219.69
524.44	52360.12
524.61	52484.17
524.78	52439.70
524.96	52074.58
525.13	52165.86
525.30	52329.70
525.47	52381.19
525.64	52594.18
525.81	52535.66
525.98	52781.42
526.16	52341.40
526.33	52601.20
526.50	53214.42
526.67	52704.18
526.84	53146.54
527.01	52807.17
527.18	53076.33
527.36	53148.88
527.53	53078.67
527.70	53256.55
527.87	53469.54
528.04	52961.64
528.21	53385.28
528.38	53612.31
528.55	53680.19
528.72	53535.07
528.89	53670.82
529.07	53759.76
529.24	53607.63
529.41	53820.62
529.58	53698.91
529.75	53794.87
529.92	53970.41
530.09	54223.19
530.26	54087.44
530.43	53869.77
530.60	53514.01
530.77	54068.72
530.94	54045.31
531.11	53916.58
531.28	53893.18
531.46	54384.69
531.63	54185.74
531.80	54279.36
531.97	54548.53
532.14	54384.69
532.31	54695.98
532.48	54960.46
532.65	54658.53
532.82	54787.26
532.99	54915.99
533.16	54607.04
533.33	54817.69
533.50	54946.42
533.67	54913.65
533.84	54735.77
534.01	55079.83
534.18	54794.28
534.35	55449.63
534.52	55208.56
534.69	55327.92
534.86	55269.41
535.03	55070.46
535.20	55236.64
535.37	55533.89
535.54	55365.37
535.71	55231.96
535.88	55482.40
536.05	55590.06
536.22	55627.51
536.38	55730.50
536.55	55774.97
536.72	55538.57
536.89	55725.81
537.06	55838.16
537.23	55929.44
537.40	55725.81
537.57	55976.25
537.74	55849.86
537.91	56051.15
538.08	55920.08
538.25	55945.83
538.42	55938.80
538.59	56072.21
538.75	56109.66
538.92	55999.66
539.09	56523.94
539.26	56313.29
539.43	55994.98
539.60	56523.94
539.77	56264.14
539.94	56240.73
540.11	56453.72
540.28	56802.46
540.44	56512.23
540.61	56411.59
540.78	56324.99
540.95	56395.21
541.12	56467.76
541.29	56713.52
541.46	56615.22
541.62	56460.74
541.79	56545.00
541.96	56568.41
542.13	56608.20
542.30	56718.20
542.47	56828.21
542.63	56945.23
542.80	56893.74
542.97	56931.19
543.14	57310.36
543.31	57291.63
543.48	57499.94
543.64	57614.63
543.81	57584.20
543.98	57312.70
544.15	57530.37
544.32	57528.03
544.48	57993.79
544.65	57427.38
544.82	57511.64
544.99	57434.41
545.16	57418.02
545.32	57392.28
545.49	57743.36
545.66	57942.30
545.83	57640.37
546.00	57656.76
546.16	57483.56
546.33	57523.35
546.50	57598.24
546.67	57890.81
546.83	57666.12
547.00	57986.77
547.17	57965.71
547.34	57888.47
547.50	57944.64
547.67	58159.97
547.84	58176.36
548.00	58134.23
548.17	58157.63
548.34	58040.60
548.51	58211.46
548.67	58433.81
548.84	58363.60
549.01	58007.84
549.18	58117.84
549.34	58480.63
549.51	58319.13
549.68	58368.28
549.84	58419.77
550.01	58733.40
550.18	58377.64
550.34	58464.24
550.51	58621.06
550.68	58466.58
550.84	58394.03
551.01	58651.48
551.18	58447.86
551.34	58644.46
551.51	58557.86
551.68	58644.46
551.84	58646.80
552.01	58529.78
552.18	58944.05
552.34	58457.22
552.51	58981.50
552.68	58471.26
552.84	58679.57
553.01	58944.05
553.18	58866.81
553.34	59049.38
553.51	58653.82
553.67	59007.25
553.84	58930.01
554.01	59187.47
554.17	59124.27
554.34	59150.02
554.51	59014.27
554.67	59098.53
554.84	59007.25
555.00	58955.75
555.17	59025.97
555.33	59260.02
555.50	59222.58
555.67	58997.88
555.83	59269.39
556.00	59189.81
556.16	59370.03
556.33	59377.05
556.50	59327.90
556.66	59428.54
556.83	59344.28
556.99	59433.22
557.16	59681.32
557.32	59475.35
557.49	59732.81
557.65	59248.32
557.82	59337.26
557.98	59262.36
558.15	59473.01
558.32	59526.84
558.48	59285.77
558.65	59615.79
558.81	59653.23
558.98	59629.83
559.14	59693.02
559.31	59662.60
559.47	59819.41
559.64	59896.65
559.80	59608.76
559.97	59842.82
560.13	59805.37
560.30	59594.72
560.46	59976.23
560.63	59952.82
560.79	59655.57
560.96	60006.65
561.12	59826.43
561.29	59821.75
561.45	59821.75
561.61	60053.47
561.78	59987.93
561.94	59910.69
562.11	59798.35
562.27	59760.90
562.44	60104.96
562.60	59966.87
562.77	59931.76
562.93	59805.37
563.10	60030.06
563.26	59805.37
563.42	60348.37
563.59	59992.61
563.75	60168.15
563.92	60278.16
564.08	60285.18
564.24	60236.03
564.41	60189.22
564.57	60353.05
564.74	60158.79
564.90	60303.90
565.07	60186.88
565.23	60238.37
565.39	60271.14
565.56	60233.69
565.72	60280.50
565.88	60292.20
566.05	60252.41
566.21	60402.21
566.38	60287.52
566.54	60374.12
566.70	60416.25
566.87	60521.57
567.03	60465.40
567.19	60507.53
567.36	60308.58
567.52	60331.99
567.68	60617.53
567.85	60530.93
568.01	60526.25
568.17	60294.54
568.34	60537.96
568.50	60432.63
568.66	60441.99
568.83	60561.36
568.99	60451.36
569.15	60507.53
569.32	60626.90
569.48	60502.85
569.64	60526.25
569.81	60493.49
569.97	60264.11
570.13	60638.60
570.30	60479.44
570.46	60582.43
570.62	60413.91
570.78	60540.30
570.95	60353.05
571.11	60872.65
571.27	60643.28
571.43	60500.51
571.60	60926.49
571.76	60615.19
571.92	60690.09
572.09	60629.24
572.25	60809.46
572.41	60685.41
572.57	60704.13
572.74	60914.78
572.90	60748.60
573.06	60842.23
573.22	60835.20
573.38	60591.79
573.55	60683.07
573.71	60882.02
573.87	60781.37
574.03	60589.45
574.20	60804.78
574.36	60573.06
574.52	60666.69
574.68	60853.93
574.84	60865.63
575.01	60825.84
575.17	60743.92
575.33	60760.31
575.49	60767.33
575.65	60879.67
575.82	60956.91
575.98	60856.27
576.14	61085.64
576.30	61015.43
576.46	60870.31
576.62	60860.95
576.79	60729.88
576.95	60594.13
577.11	61048.19
577.27	61048.19
577.43	60893.72
577.59	60851.59
577.75	60889.04
577.92	60811.80
578.08	60898.40
578.24	60830.52
578.40	60811.80
578.56	60926.49
578.72	60889.04
578.88	61041.17
579.04	61092.66
579.21	60987.34
579.37	60999.04
579.53	61109.05
579.69	60718.18
579.85	61073.94
580.01	61085.64
580.17	60729.88
580.33	61106.71
580.49	61193.31
580.65	61022.45
580.82	61038.83
580.98	60842.23
581.14	61066.92
581.30	61134.79
581.46	61045.85
581.62	61041.17
581.78	60874.99
581.94	60903.08
582.10	61043.51
582.26	61148.84
582.42	60996.70
582.58	61057.56
582.74	60959.25
582.90	60977.98
583.06	60935.85
583.22	60921.80
583.38	61087.98
583.54	60935.85
583.70	61001.38
583.86	61155.86
584.02	60809.46
584.18	61219.05
584.34	60982.66
584.50	61099.68
584.66	61031.81
584.82	60898.40
584.98	61097.34
585.14	61298.63
585.30	61066.92
585.46	60865.63
585.62	61148.84
585.78	60903.08
585.94	60706.47
586.10	61010.74
586.26	61277.57
586.42	61359.48
586.58	61329.06
586.74	61073.94
586.90	60919.46
587.06	61031.81
587.22	61017.77
587.38	61024.79
587.54	61118.41
587.70	61394.59
587.86	61322.04
588.02	61256.50
588.18	61230.75
588.34	61031.81
588.49	61010.74
588.65	61113.73
588.81	61212.03
588.97	61331.40
589.13	61403.95
589.29	61258.84
589.45	61441.40
589.61	61226.07
589.77	61432.04
589.93	61132.45
590.08	61368.85
590.24	61553.75
590.40	61605.24
590.56	61413.32
590.72	61469.49
590.88	61155.86
591.04	61279.91
591.20	61520.98
591.35	61425.02
591.51	61588.86
591.67	61490.55
591.83	61462.47
591.99	61427.36
592.15	61284.59
592.31	61567.79
592.46	61420.34
592.62	61293.95
592.78	61366.51
592.94	61553.75
593.10	61675.46
593.26	61638.01
593.41	61638.01
593.57	61450.77
593.73	61446.08
593.89	61762.06
594.05	61467.15
594.20	61488.21
594.36	61619.28
594.52	61509.28
594.68	61425.02
594.84	61415.66
594.99	61623.96
595.15	61251.82
595.31	61736.31
595.47	61474.17
595.62	61509.28
595.78	61551.41
595.94	61661.41
596.10	61769.08
596.25	61766.74
596.41	61478.85
596.57	61680.14
596.73	61719.93
596.88	61642.69
597.04	61661.41
597.20	61949.30
597.36	61794.82
597.51	61783.12
597.67	61677.80
597.83	61729.29
597.99	62040.58
598.14	61694.18
598.30	61748.01
598.46	61415.66
598.61	61872.06
598.77	61659.07
598.93	61804.19
599.09	61691.84
599.24	62021.86
599.40	61956.32
599.56	61865.04
599.71	61787.80
599.87	61872.06
600.03	61785.46
600.18	61846.32
600.34	61635.67
600.50	61813.55
600.65	61757.38
600.81	61752.69
600.97	61598.22
601.12	61776.10
601.28	61668.44
601.44	61949.30
601.59	61595.88
601.75	61780.78
601.91	61993.77
602.06	61939.94
602.22	61867.38
602.37	61778.44
602.53	61621.62
602.69	61733.97
602.84	61621.62
603.00	61764.40
603.16	61961.00
603.31	61951.64
603.47	61869.72
603.62	61712.91
603.78	62028.88
603.94	61762.06
604.09	61855.68
604.25	61970.36
604.40	61872.06
604.56	61801.85
604.71	62063.99
604.87	61780.78
605.03	61799.50
605.18	61717.59
605.34	61799.50
605.49	61715.25
605.65	61909.51
605.80	61881.42
605.96	61867.38
606.12	61881.42
606.27	61851.00
606.43	61820.57
606.58	61928.23
606.74	61834.61
606.89	61635.67
607.05	61801.85
607.20	61902.49
607.36	61591.20
607.51	61778.44
607.67	61607.58
607.82	61776.10
607.98	61591.20
608.13	61858.02
608.29	61630.99
608.44	61712.91
608.60	61698.86
608.75	61719.93
608.91	61666.09
609.06	61544.39
609.22	61689.50
609.37	61420.34
609.53	61516.30
609.68	61762.06
609.84	61462.47
609.99	61673.12
610.15	61733.97
610.30	61785.46
610.46	61743.33
610.61	61647.37
610.76	61572.47
610.92	61530.34
611.07	61579.49
611.23	61537.36
611.38	61740.99
611.54	61492.89
611.69	61652.05
611.84	61794.82
612.00	61579.49
612.15	61499.92
612.31	61542.05
612.46	61530.34
612.62	61506.94
612.77	61588.86
612.92	61593.54
613.08	61483.53
613.23	61492.89
613.39	61382.89
613.54	61205.01
613.69	61609.92
613.85	61385.23
614.00	61595.88
614.15	61684.82
614.31	61382.89
614.46	61542.05
614.62	61230.75
614.77	61371.19
614.92	61460.13
615.08	61291.61
615.23	61193.31
615.38	61457.79
615.54	61462.47
615.69	61305.65
615.84	61511.62
616.00	61368.85
616.15	61378.21
616.30	61446.08
616.46	61193.31
616.61	61319.70
616.76	61488.21
616.92	61478.85
617.07	61371.19
617.22	61240.12
617.37	61352.46
617.53	61642.69
617.68	61331.40
617.83	61326.72
617.99	61291.61
618.14	61193.31
618.29	61277.57
618.45	61305.65
618.60	61251.82
618.75	61329.06
618.90	61244.80
619.06	61429.70
619.21	61415.66
619.36	61329.06
619.51	61284.59
619.67	61228.41
619.82	60977.98
619.97	61331.40
620.12	61001.38
620.28	61137.13
620.43	61078.62
620.58	61080.96
620.73	60893.72
620.89	61209.69
621.04	61230.75
621.19	60961.59
621.34	61050.53
621.49	60884.36
621.65	61240.12
621.80	61167.56
621.95	60774.35
622.10	60959.25
622.25	60926.49
622.41	61106.71
622.56	60739.24
622.71	60938.19
622.86	60839.89
623.01	60795.42
623.16	60790.73
623.32	60729.88
623.47	60954.57
623.62	60917.12
623.77	60746.26
623.92	60987.34
624.07	60816.48
624.23	60996.70
624.38	60851.59
624.53	60741.58
624.68	60800.10
624.83	60729.88
624.98	60874.99
625.13	60556.68
625.29	60893.72
625.44	60757.97
625.59	60729.88
625.74	60753.29
625.89	60495.83
626.04	60484.12
626.19	60362.42
626.34	60654.98
626.49	60427.95
626.65	60348.37
626.80	60535.62
626.95	60327.31
627.10	60226.66
627.25	60261.77
627.40	60327.31
627.55	60528.59
627.70	60282.84
627.85	60294.54
628.00	60097.94
628.15	60491.15
628.30	60432.63
628.45	60451.36
628.60	60350.71
628.76	60470.08
628.91	60348.37
629.06	60385.82
629.21	60317.95
629.36	60273.48
629.51	60320.29
629.66	60254.75
629.81	59999.63
629.96	60217.30
630.11	59987.93
630.26	60203.26
630.41	60156.45
630.56	60566.04
630.71	60285.18
630.86	60198.58
631.01	60065.17
631.16	60205.60
631.31	60009.00
631.46	59987.93
631.61	60065.17
631.76	59980.91
631.91	60140.07
632.06	60210.28
632.21	60088.57
632.36	59927.08
632.51	59770.26
632.66	59971.55
632.81	60027.72
632.96	60264.11
633.10	59957.50
633.25	59721.11
633.40	60116.66
633.55	59831.11
633.70	59711.75
633.85	59882.61
634.00	59674.30
634.15	59812.39
634.30	59770.26
634.45	59859.20
634.60	59962.18
634.75	59826.43
634.90	59531.53
635.05	59597.06
635.19	59774.94
635.34	59777.28
635.49	59662.60
635.64	59763.24
635.79	59536.21
635.94	59810.05
636.09	59753.88
636.24	59557.27
636.39	59590.04
636.53	59887.29
636.68	59463.65
636.83	59922.40
636.98	59873.24
637.13	59433.22
637.28	59606.42
637.43	59611.10
637.57	59496.42
637.72	59217.89
637.87	59423.86
638.02	59334.92
638.17	59503.44
638.32	59599.40
638.46	59278.75
638.61	59414.50
638.76	59330.24
638.91	59222.58
639.06	59351.30
639.20	59234.28
639.35	59245.98
639.50	59138.32
639.65	59274.07
639.80	59180.45
639.94	59283.43
640.09	59143.00
640.24	59316.20
640.39	59203.85
640.54	59025.97
640.68	59281.09
640.83	59341.94
640.98	59131.29
641.13	59011.93
641.27	59332.58
641.42	59025.97
641.57	58976.82
641.72	58990.86
641.86	59082.14
642.01	58983.84
642.16	58960.44
642.31	58920.65
642.45	59133.63
642.60	58894.90
642.75	59119.59
642.90	58934.69
643.04	59121.93
643.19	58850.43
643.34	59112.57
643.48	59082.14
643.63	58817.66
643.78	58925.33
643.93	59032.99
644.07	58827.02
644.22	58681.91
644.37	58567.23
644.51	58553.18
644.66	58791.92
644.81	58920.65
644.95	58915.96
645.10	58866.81
645.25	58642.12
645.39	58574.25
645.54	58602.33
645.69	58445.52
645.83	58663.19
645.98	58534.46
646.13	58616.38
646.27	58611.70
646.42	58656.17
646.57	58564.88
646.71	58567.23
646.86	58726.38
647.00	58557.86
647.15	58501.69
647.30	58382.32
647.44	58571.91
647.59	58688.93
647.74	58637.44
647.88	58649.14
648.03	58740.42
648.17	58557.86
648.32	58422.11
648.47	58328.49
648.61	58424.45
648.76	58702.98
648.90	58471.26
649.05	58312.11
649.20	58578.93
649.34	58288.70
649.49	58518.07
649.63	58569.57
649.78	58480.63
649.92	58216.14
650.07	58408.07
650.21	58305.09
650.36	58157.63
650.51	58059.33
650.65	58471.26
650.80	58260.62
650.94	58267.64
651.09	58178.70
651.23	57748.04
651.38	58089.76
651.52	58012.52
651.67	57921.24
651.81	58141.25
651.96	57762.08
652.10	58066.35
652.25	58099.12
652.39	57771.44
652.54	57827.62
652.68	58017.20
652.83	57801.87
652.97	58035.92
653.12	58019.54
653.26	57881.45
653.41	57881.45
653.55	58049.97
653.70	57799.53
653.84	57986.77
653.99	57825.28
654.13	57902.51
654.27	57766.76
654.42	57673.14
654.56	57563.14
654.71	57715.27
654.85	57719.95
655.00	57799.53
655.14	57670.80
655.29	57677.82
655.43	57724.63
655.57	57476.54
655.72	57680.16
655.86	57764.42
656.01	57570.16
656.15	57401.64
656.30	57696.55
656.44	57874.43
656.58	57769.10
656.73	57715.27
656.87	57315.04
657.01	57448.45
657.16	57506.96
657.30	57329.08
657.45	57205.03
657.59	57389.94
657.73	56994.39
657.88	57179.29
658.02	57305.68
658.16	57254.18
658.31	57256.53
658.45	57139.50
658.60	57228.44
658.74	57375.89
658.88	57275.25
659.03	57146.52
659.17	56781.40
659.31	57076.30
659.46	57036.51
659.60	57071.62
659.74	56992.04
659.89	56905.44
660.03	56645.65
660.17	56774.37
660.32	57013.11
660.46	56992.04
660.60	56694.80
660.74	56750.97
660.89	56720.54
661.03	56750.97
661.17	56444.36
661.32	56425.64
661.46	56432.66
661.60	56715.86
661.74	56699.48
661.89	56439.68
662.03	56280.52
662.17	56467.76
662.31	56495.85
662.46	56631.60
662.60	56530.96
662.74	56055.83
662.88	56411.59
663.03	56020.72
663.17	56088.60
663.31	55796.03
663.45	56104.98
663.60	55767.94
663.74	55627.51
663.88	55870.93
664.02	55817.10
664.17	55985.61
664.31	55557.30
664.45	55538.57
664.59	55632.19
664.73	55671.98
664.88	55683.69
665.02	55278.77
665.16	55730.50
665.30	55426.23
665.44	55356.01
665.59	55554.96
665.73	55178.13
665.87	55028.34
666.01	55264.73
666.15	55243.66
666.29	55281.11
666.44	55489.42
666.58	55028.34
666.72	54848.11
666.86	54995.57
667.00	55178.13
667.14	54894.92
667.28	54759.17
667.43	54745.13
667.57	55098.55
667.71	54841.09
667.85	54693.64
667.99	54691.30
668.13	54550.87
668.27	54651.51
668.41	54747.47
668.56	54237.23
668.70	54478.31
668.84	54246.60
668.98	54450.22
669.12	54288.73
669.26	54698.32
669.40	54244.26
669.54	54445.54
669.68	54054.67
669.82	54045.31
669.96	54003.18
670.10	53951.69
670.25	54447.88
670.39	54162.34
670.53	53911.90
670.67	53935.30
670.81	54211.49
670.95	53918.92
671.09	53633.38
671.23	53701.25
671.37	53268.25
671.51	53497.62
671.65	53757.42
671.79	53275.27
671.93	53616.99
672.07	53443.79
672.21	53052.92
672.35	53048.24
672.49	52877.38
672.63	52846.96
672.77	53296.34
672.91	52612.90
673.05	53240.17
673.19	52865.68
673.33	52704.18
673.47	52435.02
673.61	52776.74
673.75	52500.56
673.89	52109.69
674.03	51987.98
674.17	52128.41
674.31	52140.11
674.45	52002.02
674.59	51955.21
674.73	51760.95
674.87	51583.07
675.01	51379.44
675.15	51330.29
675.29	51723.50
675.43	51686.05
675.56	51475.40
675.70	51372.42
675.84	51194.54
675.98	50092.15
676.12	51182.84
676.26	50897.29
676.40	50911.33
676.54	50953.46
676.68	51100.92
676.82	50192.79
676.96	50284.07
677.10	50000.86
677.23	50035.97
677.37	50195.13
677.51	49935.33
677.65	49602.97
677.79	48931.24
677.93	49373.60
678.07	49689.57
678.21	49399.35
678.34	49078.69
678.48	49242.53
678.62	48814.21
678.76	48610.59
678.90	48142.48
679.04	48711.23
679.18	48615.27
679.31	48236.10
679.45	48109.71
679.59	48128.44
679.73	48676.12
679.87	47810.12
680.00	47442.66
680.14	46988.60
680.28	47232.01
680.42	47056.47
680.56	46988.60
680.70	46745.18
680.83	47147.75
680.97	46775.61
681.11	47318.61
681.25	46607.09
681.39	46478.36
681.52	46607.09
681.66	46373.03
681.80	45729.39
681.94	46080.47
682.07	46202.18
682.21	45521.08
682.35	45345.54
682.49	45289.37
682.62	45153.62
682.76	45626.40
682.90	45102.12
683.04	45368.94
683.17	44577.84
683.31	44676.15
683.45	44554.44
683.59	44516.99
683.72	44222.08
683.86	44289.96
684.00	44116.76
684.13	44016.11
684.27	43959.94
684.41	43873.34
684.55	43859.30
684.68	44100.37
684.82	43552.69
684.96	43274.16
685.09	42983.94
685.23	42763.93
685.37	42682.01
685.50	42473.70
685.64	42618.81
685.78	42396.46
685.91	42656.26
686.05	42066.45
686.19	41443.87
686.32	41734.09
686.46	41223.86
686.60	40994.48
686.73	40542.76
686.87	40624.68
687.01	41088.10
687.14	40823.62
687.28	40472.54
687.42	40547.44
687.55	40175.30
687.69	40053.59
687.82	39997.41
687.96	39814.85
688.10	40004.44
688.23	40158.91
688.37	39468.45
688.50	39028.43
688.64	39316.32
688.78	38794.38
688.91	39065.88
689.05	38834.17
689.18	38300.53
689.32	37937.74
689.46	37535.17
689.59	37787.95
689.73	38188.18
689.86	37619.43
690.00	37783.27
690.13	37975.19
690.27	37544.53
690.41	37710.71
690.54	37193.45
690.68	36952.38
690.81	36788.54
690.95	36849.39
691.08	36292.35
691.22	36189.36
691.35	35983.40
691.49	36570.87
691.62	36060.63
691.76	35887.43
691.89	35543.38
692.03	35754.02
692.16	35194.64
692.30	35297.62
692.43	35299.96
692.57	34536.94
692.70	34646.95
692.84	34424.60
692.97	34848.24
693.11	34955.90
693.24	34314.59
693.38	34099.26
693.51	33989.26
693.65	33872.23
693.78	33617.11
693.92	33792.65
694.05	33092.83
694.19	33476.68
694.32	33198.16
694.45	33369.02
694.59	32821.33
694.72	32664.52
694.86	32191.73
694.99	32517.06
695.13	31852.35
695.26	32013.85
695.39	31194.66
695.53	31824.26
695.66	32084.06
695.80	31906.18
695.93	31538.72
696.07	30768.68
696.20	30244.40
696.33	30651.66
696.47	31152.53
696.60	30822.51
696.73	30565.06
696.87	30082.91
697.00	30080.56
697.14	30363.77
697.27	29912.05
697.40	29818.42
697.54	29551.60
697.67	29879.28
697.80	29780.98
697.94	29221.59
698.07	28931.36
698.21	28734.76
698.34	29113.92
698.47	28861.15
698.61	28409.42
698.74	28648.16
698.87	28882.21
699.01	28166.01
699.14	28158.99
699.27	28093.45
699.40	28320.48
699.54	28360.27
699.67	27585.55
699.80	27501.29
699.94	27704.92
700.07	27470.87
700.20	27225.11
700.34	26742.96
700.47	26766.37
700.60	26422.31
700.73	26546.36
700.87	25942.50
701.00	26029.10
701.13	25736.53
701.26	26017.40
701.40	26206.98
701.53	25895.69
701.66	25993.99
701.79	25230.98
701.93	25085.86
702.06	24842.45
702.19	25202.89
702.32	25233.32
702.46	25022.67
702.59	24617.75
702.72	24238.59
702.85	24655.20
702.99	24664.57
703.12	23995.17
703.25	24290.08
703.38	23857.08
703.51	23836.02
703.65	23545.79
703.78	23566.85
703.91	23601.96
704.04	23552.81
704.17	23426.42
704.31	23199.39
704.44	22860.01
704.57	22827.24
704.70	22719.58
704.83	22333.39
704.96	22281.90
705.10	22478.50
705.23	22141.47
>>>>>End Processed Spectral Data<<<<<
