SpectraSuite Data File
++++++++++++++++++++++++++++++++++++
Date: Fri Oct 25 11:26:10 EDT 2013
User: price-jones
Dark Spectrum Present: No
Reference Spectrum Present: No
Number of Sampled Component Spectra: 1
Spectrometers: USB2+H05261
Integration Time (usec): 100000 (USB2+H05261)
Spectra Averaged: 1 (USB2+H05261)
Boxcar Smoothing: 0 (USB2+H05261)
Correct for Electrical Dark: No (USB2+H05261)
Strobe/Lamp Enabled: No (USB2+H05261)
Correct for Detector Non-linearity: No (USB2+H05261)
Correct for Stray Light: No (USB2+H05261)
Number of Pixels in Processed Spectrum: 2048
>>>>>Begin Processed Spectral Data<<<<<
365.73	215.33
365.92	215.33
366.12	215.33
366.32	93.62
366.52	107.66
366.72	119.37
366.91	149.79
367.11	112.35
367.31	147.45
367.51	91.28
367.70	156.82
367.90	154.48
368.10	205.97
368.30	100.64
368.49	142.77
368.69	182.56
368.89	112.35
369.09	117.03
369.28	227.03
369.48	119.37
369.68	198.95
369.87	131.07
370.07	128.73
370.27	187.24
370.47	346.40
370.66	601.52
370.86	664.71
371.06	678.76
371.25	690.46
371.45	674.07
371.65	716.20
371.84	657.69
372.04	683.44
372.24	763.01
372.44	784.08
372.63	720.88
372.83	793.44
373.03	779.40
373.22	711.52
373.42	788.76
373.62	830.89
373.81	744.29
374.01	758.33
374.21	868.34
374.40	833.23
374.60	844.93
374.79	837.91
374.99	823.87
375.19	835.57
375.38	851.96
375.58	898.77
375.78	903.45
375.97	866.00
376.17	961.96
376.37	821.53
376.56	826.21
376.76	847.27
376.95	847.27
377.15	835.57
377.35	891.74
377.54	894.08
377.74	880.04
377.93	945.58
378.13	823.87
378.33	1006.43
378.52	985.37
378.72	957.28
378.91	980.68
379.11	905.79
379.31	1013.45
379.50	861.32
379.70	933.87
379.89	985.37
380.09	961.96
380.28	1025.15
380.48	966.64
380.68	997.07
380.87	964.30
381.07	938.55
381.26	1118.78
381.46	938.55
381.65	1083.67
381.85	997.07
382.04	1032.18
382.24	1020.47
382.43	1057.92
382.63	1083.67
382.83	1116.44
383.02	1165.59
383.22	1184.31
383.41	1188.99
383.61	1121.12
383.80	1188.99
384.00	1165.59
384.19	1151.54
384.39	1034.52
384.58	1057.92
384.78	1088.35
384.97	1210.06
385.17	1163.25
385.36	1217.08
385.56	1170.27
385.75	1142.18
385.95	1071.97
386.14	1146.86
386.34	1226.44
386.53	1137.50
386.72	1179.63
386.92	1249.85
387.11	1174.95
387.31	1151.54
387.50	1217.08
387.70	1231.12
387.89	1348.15
388.09	1247.51
388.28	1242.82
388.48	1357.51
388.67	1364.53
388.86	1409.00
389.06	1366.87
389.25	1385.60
389.45	1341.13
389.64	1369.21
389.84	1320.06
390.03	1500.28
390.22	1345.81
390.42	1411.34
390.61	1387.94
390.81	1488.58
391.00	1401.98
391.19	1411.34
391.39	1472.20
391.58	1444.11
391.78	1357.51
391.97	1500.28
392.16	1540.07
392.36	1497.94
392.55	1497.94
392.75	1493.26
392.94	1509.65
393.13	1530.71
393.33	1547.09
393.52	1535.39
393.71	1565.82
393.91	1558.80
394.10	1558.80
394.29	1568.16
394.49	1610.29
394.68	1668.80
394.88	1589.22
395.07	1652.42
395.26	1713.27
395.46	1565.82
395.65	1652.42
395.84	1753.06
396.04	1741.36
396.23	1699.23
396.42	1696.89
396.62	1762.42
396.81	1797.53
397.00	1715.61
397.19	1799.87
397.39	1853.70
397.58	1804.55
397.77	1820.94
397.97	1851.36
398.16	1926.26
398.35	1879.45
398.55	1839.66
398.74	1926.26
398.93	1987.11
399.12	1937.96
399.32	1891.15
399.51	1900.52
399.70	2012.86
399.90	2026.90
400.09	1989.46
400.28	2108.82
400.47	2062.01
400.67	2104.14
400.86	2090.10
401.05	2139.25
401.24	2054.99
401.44	2155.63
401.63	2134.57
401.82	2129.89
402.01	2111.16
402.21	2157.97
402.40	2235.21
402.59	2277.34
402.78	2190.74
402.97	2293.72
403.17	2286.70
403.36	2174.36
403.55	2221.17
403.74	2310.11
403.93	2305.43
404.13	2354.58
404.32	2363.94
404.51	2422.45
404.70	2387.35
404.89	2385.01
405.09	2487.99
405.28	2359.26
405.47	2443.52
405.66	2516.08
405.85	2541.82
406.05	2539.48
406.24	2612.04
406.43	2480.97
406.62	2621.40
406.81	2743.11
407.00	2588.63
407.20	2527.78
407.39	2672.89
407.58	2715.02
407.77	2775.88
407.96	2719.70
408.15	2743.11
408.34	2813.32
408.54	2904.60
408.73	2815.66
408.92	2818.00
409.11	2832.05
409.30	2860.13
409.49	2836.73
409.68	2792.26
409.87	2942.05
410.07	2984.18
410.26	3033.33
410.45	3028.65
410.64	3117.59
410.83	3063.76
411.02	3155.04
411.21	3105.89
411.40	3164.40
411.59	3269.73
411.78	3103.55
411.98	3124.62
412.17	3248.66
412.36	3255.69
412.55	3325.90
412.74	3403.14
412.93	3421.86
413.12	3356.33
413.31	3524.85
413.50	3405.48
413.69	3585.70
413.88	3571.66
414.07	3595.06
414.26	3658.26
414.45	3754.22
414.64	3742.52
414.83	3794.01
415.02	3716.77
415.22	3735.50
415.41	3941.46
415.60	3836.14
415.79	3948.48
415.98	3922.74
416.17	4018.70
416.36	3988.27
416.55	3904.01
416.74	4088.92
416.93	4032.74
417.12	4198.92
417.31	4091.26
417.50	4196.58
417.69	4231.69
417.88	4337.01
418.07	4194.24
418.26	4203.60
418.45	4297.22
418.64	4498.51
418.83	4402.55
419.02	4468.08
419.21	4521.92
419.39	4437.66
419.58	4606.17
419.77	4517.23
419.96	4379.14
420.15	4657.67
420.34	4566.39
420.53	4517.23
420.72	4622.56
420.91	4674.05
421.10	4884.70
421.29	4770.01
421.48	4629.58
421.67	4564.04
421.86	4830.87
422.05	4805.12
422.24	4800.44
422.43	4870.65
422.61	4868.31
422.80	4964.28
422.99	4983.00
423.18	4873.00
423.37	4983.00
423.56	4929.17
423.75	5004.07
423.94	4898.74
424.13	4711.50
424.32	4615.54
424.50	4994.70
424.69	4931.51
424.88	4999.38
425.07	4990.02
425.26	4887.04
425.45	4950.23
425.64	5043.85
425.83	5048.54
426.01	5130.45
426.20	4938.53
426.39	5041.51
426.58	4987.68
426.77	5022.79
426.96	5191.31
427.15	5158.54
427.33	5123.43
427.52	5036.83
427.71	5497.92
427.90	5322.38
428.09	5383.23
428.28	5329.40
428.46	5341.10
428.65	5322.38
428.84	5479.19
429.03	5334.08
429.22	5298.97
429.40	5514.30
429.59	5425.36
429.78	5357.49
429.97	5111.73
430.16	5394.93
430.34	5453.45
430.53	5680.48
430.72	5640.69
430.91	5746.02
431.10	5607.92
431.28	5699.20
431.47	5647.71
431.66	5858.36
431.85	5685.16
432.03	6043.26
432.22	5959.00
432.41	5860.70
432.60	5949.64
432.79	6073.69
432.97	5977.73
433.16	6054.97
433.35	5963.68
433.54	6038.58
433.72	6052.63
433.91	6047.94
434.10	6129.86
434.28	5991.77
434.47	6258.59
434.66	6239.87
434.85	6324.13
435.03	6270.30
435.22	6307.74
435.41	6406.05
435.59	6349.87
435.78	6445.84
435.97	6382.64
436.16	6197.74
436.34	6427.11
436.53	6504.35
436.72	6597.97
436.90	6548.82
437.09	6686.91
437.28	6553.50
437.46	6499.67
437.65	6623.72
437.84	6630.74
438.02	6810.96
438.21	6871.81
438.40	6607.33
438.58	6869.47
438.77	7105.87
438.96	6881.18
439.14	7094.16
439.33	7201.83
439.52	7258.00
439.70	7204.17
439.89	7438.22
440.08	7290.77
440.26	7398.43
440.45	7274.38
440.63	7342.26
440.82	7609.08
441.01	7585.68
441.19	7606.74
441.38	7770.58
441.57	7712.07
441.75	7880.58
441.94	8023.36
442.12	7630.15
442.31	8072.51
442.50	8081.87
442.68	7962.50
442.87	7925.05
443.05	8145.06
443.24	8224.64
443.43	8049.10
443.61	8236.35
443.80	8339.33
443.98	8121.66
444.17	7903.99
444.35	8308.90
444.54	8269.11
444.73	8224.64
444.91	8079.53
445.10	8301.88
445.28	8231.66
445.47	8269.11
445.65	8425.93
445.84	8287.84
446.02	8435.29
446.21	8564.02
446.39	8329.97
446.58	8468.06
446.77	8505.51
446.95	8332.31
447.14	8554.66
447.32	8634.24
447.51	8446.99
447.69	8376.78
447.88	8493.80
448.06	8376.78
448.25	8500.83
448.43	8517.21
448.62	8662.32
448.80	8709.13
448.99	8702.11
449.17	8748.92
449.36	8685.73
449.54	8964.25
449.73	8809.78
449.91	8926.80
450.10	8922.12
450.28	8945.53
450.46	8868.29
450.65	9043.83
450.83	9064.89
451.02	9083.62
451.20	9317.67
451.39	8987.66
451.57	9090.64
451.76	9179.58
451.94	9167.88
452.13	9252.14
452.31	9207.67
452.49	9067.24
452.68	9238.09
452.86	9343.42
453.05	9373.85
453.23	9603.22
453.42	9329.38
453.60	9376.19
453.78	9680.46
453.97	9404.27
454.15	9476.83
454.34	9528.32
454.52	9703.86
454.70	9486.19
454.89	9774.08
455.07	9846.63
455.26	9951.96
455.44	9940.26
455.62	9888.76
455.81	9722.59
455.99	9923.87
456.17	10094.73
456.36	10104.09
456.54	10321.76
456.73	10181.33
456.91	10698.59
457.09	10438.79
457.28	10462.19
457.46	10134.52
457.64	10551.14
457.83	10422.41
458.01	10136.86
458.19	10789.87
458.38	10420.06
458.56	10743.06
458.74	10714.97
458.93	10736.04
459.11	10757.10
459.29	10794.55
459.48	10824.98
459.66	10785.19
459.84	10951.37
460.03	11094.14
460.21	10902.22
460.39	11070.73
460.57	11044.99
460.76	11229.89
460.94	11360.96
461.12	11187.76
461.31	11201.80
461.49	10979.45
461.67	11239.25
461.85	11587.99
462.04	11269.68
462.22	11808.00
462.40	11283.72
462.59	11641.82
462.77	11559.91
462.95	11569.27
463.13	11534.16
463.32	11487.35
463.50	11609.06
463.68	11716.72
463.86	11714.38
464.05	11496.71
464.23	11815.02
464.41	12025.67
464.59	11452.24
464.78	12252.70
464.96	11932.05
465.14	11796.30
465.32	12123.98
465.50	12248.02
465.69	12058.44
465.87	12023.33
466.05	12133.34
466.23	12114.61
466.41	12507.82
466.60	12390.80
466.78	12182.49
466.96	12224.62
467.14	12065.46
467.32	12458.67
467.51	12428.24
467.69	12205.89
467.87	12386.12
468.05	12599.10
468.23	12435.27
468.41	12652.94
468.60	12744.22
468.78	12929.12
468.96	12486.76
469.14	12765.28
469.32	13046.15
469.50	12505.48
469.69	12772.30
469.87	13179.56
470.05	13085.94
470.23	13308.29
470.41	13174.88
470.59	13200.62
470.77	13083.59
470.95	13291.90
471.14	13507.23
471.32	13111.68
471.50	13741.29
471.68	13694.47
471.86	13570.43
472.04	13809.16
472.22	14115.77
472.40	13593.83
472.58	13874.70
472.77	13858.31
472.95	14188.33
473.13	14485.58
473.31	14040.87
473.49	14279.61
473.67	14288.97
473.85	14118.11
474.03	14476.21
474.21	14768.78
474.39	14686.86
474.57	14424.72
474.75	14892.83
474.93	14829.63
475.12	14775.80
475.30	15208.80
475.48	15218.16
475.66	15098.80
475.84	15190.08
476.02	15477.96
476.20	15365.62
476.38	15466.26
476.56	16020.97
476.74	15896.92
476.92	15889.90
477.10	15709.68
477.28	16304.17
477.46	16381.41
477.64	16343.96
477.82	16519.50
478.00	16826.11
478.18	16552.27
478.36	16807.39
478.54	17216.98
478.72	16924.41
478.90	17497.84
479.08	17420.61
479.26	17465.08
479.44	17687.43
479.62	17694.45
479.80	18153.20
479.98	18235.11
480.16	18616.62
480.34	18132.13
480.52	18799.18
480.70	18480.87
480.88	18630.66
481.06	18705.56
481.24	18848.33
481.41	19300.06
481.59	19508.37
481.77	19644.12
481.95	19405.38
482.13	19697.95
482.31	19800.93
482.49	20154.35
482.67	19971.79
482.85	20350.96
483.03	20718.42
483.21	20774.60
483.39	21261.43
483.57	20889.28
483.74	21083.55
483.92	21326.96
484.10	21371.43
484.28	21905.07
484.46	22033.80
484.64	22555.74
484.82	21951.88
485.00	22539.36
485.18	22649.36
485.35	22731.28
485.53	23047.26
485.71	22689.15
485.89	23482.59
486.07	23372.59
486.25	23335.14
486.43	23793.89
486.61	23552.81
486.78	24051.34
486.96	24238.59
487.14	24732.44
487.32	24608.39
487.50	24945.43
487.68	24790.95
487.85	25230.98
488.03	25287.15
488.21	26155.49
488.39	25511.84
488.57	26258.47
488.75	26396.56
488.92	26438.69
489.10	26675.09
489.28	26775.73
489.46	27065.96
489.64	27145.53
489.81	27601.94
489.99	27634.71
490.17	27665.13
490.35	28102.81
490.53	28379.00
490.70	28463.25
490.88	28531.13
491.06	28861.15
491.24	29106.90
491.41	28994.56
491.59	29216.91
491.77	29247.33
491.95	29329.25
492.13	29757.57
492.30	29593.73
492.48	30031.41
492.66	30122.69
492.84	30188.23
493.01	30398.88
493.19	30597.82
493.37	31171.25
493.54	30923.16
493.72	31428.71
493.90	31501.27
494.08	31674.47
494.25	32205.77
494.43	32231.52
494.61	32304.07
494.79	32327.48
494.96	32673.88
495.14	32680.90
495.32	33261.35
495.49	33256.67
495.67	33369.02
495.85	33703.71
496.02	33954.15
496.20	33954.15
496.38	34117.99
496.55	34029.05
496.73	34738.23
496.91	34515.88
497.09	34595.46
497.26	34843.56
497.44	34651.63
497.62	34686.74
497.79	36048.93
497.97	35182.93
498.14	35894.46
498.32	36287.67
498.50	36285.33
498.67	36290.01
498.85	36329.80
499.03	36701.94
499.20	36615.34
499.38	36690.24
499.56	36931.31
499.73	36823.65
499.91	37125.58
500.08	37188.77
500.26	37270.69
500.44	37865.19
500.61	37881.57
500.79	38117.96
500.97	38092.22
501.14	38452.66
501.32	38347.34
501.49	38148.39
501.67	38721.82
501.84	38799.06
502.02	38782.68
502.20	39597.18
502.37	39086.95
502.55	39356.11
502.72	39353.77
502.90	39346.75
503.07	40065.29
503.25	39777.40
503.43	39103.33
503.60	40289.98
503.78	40161.25
503.95	40343.81
504.13	39992.73
504.30	40105.08
504.48	40287.64
504.65	41118.53
504.83	41273.01
505.01	41591.32
505.18	40872.78
505.36	41610.04
505.53	41209.81
505.71	41890.91
505.88	41738.77
506.06	40982.78
506.23	42040.70
506.41	41787.92
506.58	42267.73
506.76	42443.27
506.93	42288.80
507.11	41631.11
507.28	42930.11
507.46	42569.66
507.63	43208.63
507.81	43337.36
507.98	42632.86
508.16	43260.12
508.33	43875.68
508.50	43423.96
508.68	43667.37
508.85	43821.85
509.03	43793.76
509.20	43793.76
509.38	44348.47
509.55	44458.48
509.73	44493.58
509.90	44484.22
510.08	44353.15
510.25	44889.13
510.42	45104.46
510.60	44685.51
510.77	44793.17
510.95	45544.48
511.12	45209.79
511.30	45184.04
511.47	45340.86
511.64	45432.14
511.82	45825.35
511.99	45682.58
512.17	46251.33
512.34	45853.44
512.51	46307.50
512.69	46293.46
512.86	46382.40
513.04	46806.03
513.21	46520.49
513.38	46873.91
513.56	46866.89
513.73	47030.72
513.90	46728.80
514.08	46742.84
514.25	47290.52
514.43	47669.69
514.60	47084.56
514.77	47618.20
514.95	47676.71
515.12	47606.50
515.29	47161.79
515.47	47782.04
515.64	48100.35
515.81	47515.22
515.99	48416.32
516.16	48648.03
516.33	48112.05
516.51	48959.33
516.68	48264.19
516.85	48811.87
517.03	49184.02
517.20	48999.12
517.37	48699.53
517.54	48610.59
517.72	48828.26
517.89	49216.78
518.06	49074.01
518.24	49228.49
518.41	49457.86
518.58	49090.40
518.75	49322.11
518.93	49827.66
519.10	49350.20
519.27	49778.51
519.45	49340.83
519.62	49766.81
519.79	49895.54
519.96	49996.18
520.14	50162.36
520.31	50113.21
520.48	50122.57
520.65	50408.12
520.83	50674.94
521.00	50553.23
521.17	50370.67
521.34	50546.21
521.52	50815.37
521.69	50745.15
521.86	50955.80
522.03	51339.65
522.20	51302.20
522.38	51297.52
522.55	51395.82
522.72	51407.53
522.89	51054.11
523.07	51447.32
523.24	51793.71
523.41	51917.76
523.58	51285.82
523.75	51929.47
523.92	51716.48
524.10	51821.80
524.27	51995.00
524.44	52076.92
524.61	51765.63
524.78	52156.50
524.96	52179.90
525.13	51908.40
525.30	52348.42
525.47	52596.52
525.64	52493.54
525.81	52357.78
525.98	52861.00
526.16	52615.24
526.33	52790.78
526.50	53176.97
526.67	52961.64
526.84	52804.83
527.01	52903.13
527.18	52786.10
527.36	53071.65
527.53	53034.20
527.70	53310.38
527.87	53460.18
528.04	53312.72
528.21	53258.89
528.38	53088.03
528.55	53310.38
528.72	53408.68
528.89	53404.00
529.07	53411.02
529.24	53570.18
529.41	53556.14
529.58	53680.19
529.75	53972.75
529.92	53647.42
530.09	53968.07
530.26	54202.13
530.43	53961.05
530.60	54064.03
530.77	53881.47
530.94	54164.68
531.11	54213.83
531.28	54307.45
531.46	54396.39
531.63	54370.64
531.80	54288.73
531.97	54295.75
532.14	54630.44
532.31	54653.85
532.48	54567.25
532.65	54494.69
532.82	54454.90
532.99	54440.86
533.16	54663.21
533.33	54911.31
533.50	54712.36
533.67	54948.76
533.84	54698.32
534.01	54972.16
534.18	54784.92
534.35	55372.39
534.52	55082.17
534.69	55068.12
534.86	55159.41
535.03	55011.95
535.20	55110.25
535.37	55320.90
535.54	55117.28
535.71	55196.85
535.88	55297.50
536.05	55613.47
536.22	55325.58
536.38	55526.87
536.55	55496.44
536.72	55552.62
536.89	55545.59
537.06	55674.32
537.23	55824.12
537.40	55494.10
537.57	55700.07
537.74	55636.87
537.91	56058.17
538.08	55966.89
538.25	55653.26
538.42	55730.50
538.59	56296.91
538.75	55826.46
538.92	56296.91
539.09	56140.09
539.26	56046.47
539.43	56116.68
539.60	56184.56
539.77	56264.14
539.94	56474.79
540.11	56310.95
540.28	56481.81
540.44	56418.61
540.61	56292.22
540.78	56203.28
540.95	56313.29
541.12	56509.89
541.29	56289.88
541.46	56704.16
541.62	56432.66
541.79	56617.56
541.96	56587.13
542.13	56760.33
542.30	56694.80
542.47	56872.68
542.63	56966.30
542.80	56921.83
542.97	57137.16
543.14	57247.16
543.31	57055.24
543.48	57301.00
543.64	57406.32
543.81	57422.70
543.98	57340.78
544.15	57226.10
544.32	57425.04
544.48	57523.35
544.65	57317.38
544.82	57511.64
544.99	57277.59
545.16	57249.50
545.32	57481.22
545.49	57631.01
545.66	57663.78
545.83	57581.86
546.00	57755.06
546.16	57673.14
546.33	57663.78
546.50	57396.96
546.67	57698.89
546.83	57286.95
547.00	57806.55
547.17	57731.65
547.34	57759.74
547.50	57897.83
547.67	58033.58
547.84	58031.24
548.00	58232.53
548.17	58094.44
548.34	58010.18
548.51	58052.31
548.67	58253.59
548.84	58106.14
549.01	57970.39
549.18	58143.59
549.34	58197.42
549.51	58300.40
549.68	58225.51
549.84	58337.85
550.01	58319.13
550.18	58003.16
550.34	58260.62
550.51	58497.01
550.68	58408.07
550.84	58312.11
551.01	58424.45
551.18	58494.67
551.34	58583.61
551.51	58578.93
551.68	58431.47
551.84	58602.33
552.01	58513.39
552.18	58520.41
552.34	58415.09
552.51	58901.92
552.68	58501.69
552.84	58534.46
553.01	59049.38
553.18	58824.68
553.34	58939.37
553.51	58855.11
553.67	58780.21
553.84	58934.69
554.01	58707.66
554.17	59068.10
554.34	59042.35
554.51	59044.69
554.67	59140.66
554.84	58831.71
555.00	58862.13
555.17	59030.65
555.33	59208.53
555.50	59044.69
555.67	58937.03
555.83	59056.40
556.00	58887.88
556.16	59297.47
556.33	59381.73
556.50	59138.32
556.66	59465.99
556.83	59175.76
556.99	59201.51
557.16	59751.54
557.32	59484.72
557.49	59522.16
557.65	59327.90
557.82	59253.00
557.98	59374.71
558.15	59508.12
558.32	59363.01
558.48	59295.13
558.65	59650.89
558.81	59487.06
558.98	59611.10
559.14	59615.79
559.31	59676.64
559.47	59863.88
559.64	59854.52
559.80	59695.36
559.97	59777.28
560.13	59561.95
560.30	59477.69
560.46	59683.66
560.63	59950.48
560.79	59723.45
560.96	59922.40
561.12	59964.52
561.29	59913.03
561.45	59927.08
561.61	59728.13
561.78	59788.98
561.94	59643.87
562.11	59826.43
562.27	59693.02
562.44	59957.50
562.60	59945.80
562.77	59978.57
562.93	59597.06
563.10	59950.48
563.26	59992.61
563.42	60200.92
563.59	59931.76
563.75	59896.65
563.92	59966.87
564.08	59994.95
564.24	60116.66
564.41	60240.71
564.57	60191.56
564.74	60130.70
564.90	60060.49
565.07	60196.24
565.23	59798.35
565.39	60254.75
565.56	60142.41
565.72	60090.91
565.88	60198.58
566.05	60004.31
566.21	60254.75
566.38	60341.35
566.54	60310.92
566.70	60257.09
566.87	60437.31
567.03	60289.86
567.19	60444.33
567.36	60168.15
567.52	60102.62
567.68	60570.72
567.85	60566.04
568.01	60250.07
568.17	60374.12
568.34	60327.31
568.50	60238.37
568.66	60259.43
568.83	60392.84
568.99	60409.23
569.15	60376.46
569.32	60467.74
569.48	60385.82
569.64	60542.64
569.81	60320.29
569.97	60254.75
570.13	60423.27
570.30	60470.08
570.46	60514.55
570.62	60491.15
570.78	60355.39
570.95	60322.63
571.11	60521.57
571.27	60308.58
571.43	60596.47
571.60	60573.06
571.76	60441.99
571.92	60580.09
572.09	60500.51
572.25	60720.52
572.41	60467.74
572.57	60608.17
572.74	60928.83
572.90	60460.72
573.06	60549.66
573.22	60786.05
573.38	60580.09
573.55	60762.65
573.71	60741.58
573.87	60697.11
574.03	60732.22
574.20	60680.73
574.36	60608.17
574.52	60528.59
574.68	60554.34
574.84	60844.57
575.01	60851.59
575.17	60774.35
575.33	60739.24
575.49	60491.15
575.65	60683.07
575.82	60678.39
575.98	60790.73
576.14	60949.89
576.30	60853.93
576.46	60746.26
576.62	60788.39
576.79	60762.65
576.95	60568.38
577.11	60844.57
577.27	60804.78
577.43	60750.94
577.59	60694.77
577.75	60671.37
577.92	60914.78
578.08	60772.01
578.24	60800.10
578.40	60968.61
578.56	61029.47
578.72	60680.73
578.88	60999.04
579.04	60961.59
579.21	60949.89
579.37	60797.76
579.53	61034.15
579.69	60645.62
579.85	60528.59
580.01	60800.10
580.17	60769.67
580.33	60793.07
580.49	60940.53
580.65	60825.84
580.82	60760.31
580.98	60793.07
581.14	60706.47
581.30	60912.44
581.46	60945.21
581.62	60889.04
581.78	60853.93
581.94	60870.31
582.10	61031.81
582.26	60928.83
582.42	60980.32
582.58	60933.51
582.74	60793.07
582.90	61001.38
583.06	60704.13
583.22	60718.18
583.38	60898.40
583.54	60975.64
583.70	61048.19
583.86	60999.04
584.02	60924.14
584.18	61139.47
584.34	61069.26
584.50	61153.52
584.66	60867.97
584.82	60795.42
584.98	61289.27
585.14	60910.10
585.30	60945.21
585.46	61172.24
585.62	61123.09
585.78	60975.64
585.94	60858.61
586.10	61116.07
586.26	61097.34
586.42	61010.74
586.58	61195.65
586.74	60987.34
586.90	61003.72
587.06	60919.46
587.22	60945.21
587.38	60903.08
587.54	61197.99
587.70	61125.43
587.86	60931.17
588.02	61066.92
588.18	61359.48
588.34	60966.27
588.49	61099.68
588.65	60959.25
588.81	61057.56
588.97	61027.13
589.13	61141.81
589.29	61193.31
589.45	61361.82
589.61	61155.86
589.77	61436.72
589.93	61532.68
590.08	61219.05
590.24	61319.70
590.40	61286.93
590.56	61520.98
590.72	61291.61
590.88	61310.33
591.04	61272.88
591.20	61394.59
591.35	61364.17
591.51	61549.07
591.67	61366.51
591.83	61595.88
591.99	61544.39
592.15	61312.67
592.31	61336.08
592.46	61350.12
592.62	61336.08
592.78	61373.53
592.94	61626.31
593.10	61462.47
593.26	61551.41
593.41	61528.00
593.57	61389.91
593.73	61645.03
593.89	61518.64
594.05	61499.92
594.20	61462.47
594.36	61525.66
594.52	61504.60
594.68	61488.21
594.84	61183.94
594.99	61418.00
595.15	61270.54
595.31	61584.18
595.47	61520.98
595.62	61520.98
595.78	61471.83
595.94	61497.58
596.10	61724.61
596.25	61773.76
596.41	61759.72
596.57	61506.94
596.73	61502.26
596.88	61598.22
597.04	61808.87
597.20	61813.55
597.36	61682.48
597.51	61825.25
597.67	61670.78
597.83	61401.61
597.99	61614.60
598.14	61584.18
598.30	61645.03
598.46	61666.09
598.61	61600.56
598.77	61549.07
598.93	61729.29
599.09	61780.78
599.24	61808.87
599.40	61897.81
599.56	61766.74
599.71	61839.29
599.87	61928.23
600.03	61666.09
600.18	61890.79
600.34	61581.84
600.50	61663.75
600.65	61462.47
600.81	61862.70
600.97	61722.27
601.12	61846.32
601.28	61694.18
601.44	61598.22
601.59	61914.19
601.75	61729.29
601.91	61972.70
602.06	61818.23
602.22	61986.75
602.37	61738.65
602.53	61811.21
602.69	61757.38
602.84	61612.26
603.00	61848.66
603.16	61736.31
603.31	61680.14
603.47	61787.80
603.62	61626.31
603.78	61867.38
603.94	61687.16
604.09	61764.40
604.25	61743.33
604.40	61563.11
604.56	61958.66
604.71	61822.91
604.87	61731.63
605.03	61682.48
605.18	61649.71
605.34	61703.54
605.49	61593.54
605.65	61829.93
605.80	61724.61
605.96	61841.63
606.12	61932.92
606.27	61911.85
606.43	61975.05
606.58	61953.98
606.74	61661.41
606.89	61762.06
607.05	61818.23
607.20	61834.61
607.36	61605.24
607.51	61633.33
607.67	61448.42
607.82	61659.07
607.98	61483.53
608.13	61778.44
608.29	61703.54
608.44	61757.38
608.60	61471.83
608.75	61712.91
608.91	61539.71
609.06	61474.17
609.22	61991.43
609.37	61352.46
609.53	61621.62
609.68	61511.62
609.84	61516.30
609.99	61619.28
610.15	61691.84
610.30	61542.05
610.46	61729.29
610.61	61703.54
610.76	61738.65
610.92	61485.87
611.07	61448.42
611.23	61432.04
611.38	61509.28
611.54	61633.33
611.69	61455.45
611.84	61516.30
612.00	61577.15
612.15	61738.65
612.31	61549.07
612.46	61326.72
612.62	61488.21
612.77	61499.92
612.92	61410.98
613.08	61382.89
613.23	61574.81
613.39	61408.64
613.54	61263.52
613.69	61511.62
613.85	61307.99
614.00	61581.84
614.15	61385.23
614.31	61553.75
614.46	61436.72
614.62	61544.39
614.77	61315.01
614.92	61427.36
615.08	61471.83
615.23	61190.97
615.38	61364.17
615.54	61315.01
615.69	61373.53
615.84	61406.30
616.00	61453.11
616.15	61331.40
616.30	61345.44
616.46	61090.32
616.61	61315.01
616.76	61247.14
616.92	61095.00
617.07	61296.29
617.22	61205.01
617.37	61179.26
617.53	61368.85
617.68	61382.89
617.83	61095.00
617.99	61247.14
618.14	61310.33
618.29	61132.45
618.45	61113.73
618.60	61001.38
618.75	61134.79
618.90	60985.00
619.06	61146.50
619.21	61221.39
619.36	61317.35
619.51	60973.30
619.67	61097.34
619.82	61010.74
619.97	61038.83
620.12	61006.06
620.28	60952.23
620.43	60954.57
620.58	61197.99
620.73	60966.27
620.89	60989.68
621.04	61258.84
621.19	60933.51
621.34	61059.90
621.49	60870.31
621.65	60966.27
621.80	60921.80
621.95	60793.07
622.10	60884.36
622.25	60821.16
622.41	60795.42
622.56	60804.78
622.71	60872.65
622.86	60659.66
623.01	60802.44
623.16	60846.91
623.32	60905.42
623.47	60860.95
623.62	60886.70
623.77	60708.82
623.92	60956.91
624.07	60762.65
624.23	60839.89
624.38	60711.16
624.53	60617.53
624.68	60638.60
624.83	60533.28
624.98	60657.32
625.13	60636.26
625.29	60650.30
625.44	60563.70
625.59	60685.41
625.74	60587.11
625.89	60451.36
626.04	60467.74
626.19	60453.70
626.34	60509.87
626.49	60453.70
626.65	60275.82
626.80	60594.13
626.95	60261.77
627.10	60219.64
627.25	60341.35
627.40	60292.20
627.55	60341.35
627.70	60493.49
627.85	60126.02
628.00	60378.80
628.15	60484.12
628.30	60221.98
628.45	60411.57
628.60	60076.87
628.76	60348.37
628.91	60299.22
629.06	60135.38
629.21	60214.96
629.36	59980.91
629.51	60224.32
629.66	60126.02
629.81	60079.21
629.96	60011.34
630.11	60053.47
630.26	59985.59
630.41	60210.28
630.56	60212.62
630.71	60079.21
630.86	60074.53
631.01	60191.56
631.16	60048.78
631.31	59971.55
631.46	59611.10
631.61	59929.42
631.76	59917.71
631.91	60067.51
632.06	59896.65
632.21	60020.70
632.36	59730.47
632.51	59585.36
632.66	60121.34
632.81	59854.52
632.96	59985.59
633.10	59891.97
633.25	59868.56
633.40	59817.07
633.55	59875.58
633.70	59840.48
633.85	59781.96
634.00	59678.98
634.15	59784.30
634.30	59648.55
634.45	59622.81
634.60	59924.74
634.75	59657.91
634.90	59524.50
635.05	59690.68
635.19	59568.97
635.34	59657.91
635.49	59693.02
635.64	59449.61
635.79	59517.48
635.94	59784.30
636.09	59465.99
636.24	59559.61
636.39	59753.88
636.53	59695.36
636.68	59480.03
636.83	59840.48
636.98	59728.13
637.13	59288.11
637.28	59639.19
637.43	59435.56
637.57	59505.78
637.72	59363.01
637.87	59283.43
638.02	59552.59
638.17	59346.62
638.32	59288.11
638.46	59508.12
638.61	59363.01
638.76	59189.81
638.91	59395.77
639.06	59028.31
639.20	59126.61
639.35	59316.20
639.50	59100.87
639.65	59133.63
639.80	59339.60
639.94	59128.95
640.09	59227.26
640.24	59161.72
640.39	59161.72
640.54	58869.15
640.68	59224.92
640.83	59056.40
640.98	59000.22
641.13	58768.51
641.27	59267.05
641.42	58892.56
641.57	58752.13
641.72	58979.16
641.86	58759.15
642.01	58850.43
642.16	58831.71
642.31	58805.96
642.45	59011.93
642.60	58986.18
642.75	59093.85
642.90	59121.93
643.04	58728.72
643.19	58983.84
643.34	58925.33
643.48	58812.98
643.63	58731.06
643.78	58642.12
643.93	58986.18
644.07	58827.02
644.22	58672.55
644.37	58382.32
644.51	58567.23
644.66	58735.74
644.81	58831.71
644.95	58557.86
645.10	58695.95
645.25	58379.98
645.39	58576.59
645.54	58520.41
645.69	58745.11
645.83	58695.95
645.98	58482.97
646.13	58518.07
646.27	58588.29
646.42	58513.39
646.57	58607.01
646.71	58560.20
646.86	58712.34
647.00	58576.59
647.15	58298.06
647.30	58401.05
647.44	58333.17
647.59	58543.82
647.74	58461.90
647.88	58583.61
648.03	58520.41
648.17	58475.94
648.32	58354.24
648.47	58487.65
648.61	58265.30
648.76	58494.67
648.90	58305.09
649.05	58281.68
649.20	58279.34
649.34	58415.09
649.49	58354.24
649.63	58436.16
649.78	58401.05
649.92	58316.79
650.07	58358.92
650.21	58141.25
650.36	58218.49
650.51	58047.63
650.65	58321.47
650.80	58033.58
650.94	57972.73
651.09	57647.39
651.23	57654.42
651.38	57958.69
651.52	58127.20
651.67	57801.87
651.81	57989.11
651.96	58017.20
652.10	57897.83
652.25	57923.58
652.39	57670.80
652.54	57778.46
652.68	57591.22
652.83	57949.32
652.97	58026.56
653.12	57872.09
653.26	57659.10
653.41	57904.85
653.55	57867.40
653.70	57752.72
653.84	57928.26
653.99	57631.01
654.13	57502.28
654.27	57609.95
654.42	57497.60
654.56	57621.65
654.71	57757.40
654.85	57829.96
655.00	57820.59
655.14	57600.58
655.29	57574.84
655.43	57460.15
655.57	57450.79
655.72	57502.28
655.86	57712.93
656.01	57551.43
656.15	57469.51
656.30	57495.26
656.44	57623.99
656.58	57532.71
656.73	57652.08
656.87	57418.02
657.01	57462.49
657.16	57429.72
657.30	57270.57
657.45	57375.89
657.59	57460.15
657.73	57134.82
657.88	57024.81
658.02	57368.87
658.16	57380.57
658.31	56818.84
658.45	57080.98
658.60	57085.67
658.74	56884.38
658.88	57207.37
659.03	57219.08
659.17	56945.23
659.31	56926.51
659.46	57162.90
659.60	56772.03
659.74	57048.22
659.89	56860.97
660.03	56809.48
660.17	57024.81
660.32	56788.42
660.46	56853.95
660.60	56678.41
660.74	57097.37
660.89	56910.13
661.03	56603.52
661.17	56282.86
661.32	56114.34
661.46	56404.57
661.60	56470.11
661.74	56364.78
661.89	56044.13
662.03	56289.88
662.17	56327.33
662.31	56175.20
662.46	56453.72
662.60	56217.33
662.74	56236.05
662.88	56044.13
663.03	56004.34
663.17	56055.83
663.31	55760.92
663.45	55884.97
663.60	55870.93
663.74	55498.78
663.88	55599.43
664.02	55807.73
664.17	55662.62
664.31	55693.05
664.45	55510.49
664.59	55526.87
664.73	55468.36
664.88	55856.88
665.02	55412.18
665.16	55515.17
665.30	55337.29
665.44	55391.12
665.59	55353.67
665.73	55276.43
665.87	55103.23
666.01	55601.77
666.15	55089.19
666.29	55344.31
666.44	55393.46
666.58	54841.09
666.72	54688.96
666.86	55079.83
667.00	55009.61
667.14	55000.25
667.28	54653.85
667.43	54553.21
667.57	54625.76
667.71	54447.88
667.85	54316.81
667.99	54766.20
668.13	54667.89
668.27	54534.48
668.41	54485.33
668.56	54169.36
668.70	54340.22
668.84	54033.61
668.98	54099.14
669.12	54049.99
669.26	54260.64
669.40	54286.39
669.54	54473.63
669.68	54136.59
669.82	53963.39
669.96	54049.99
670.10	53925.94
670.25	53904.88
670.39	53787.85
670.53	53804.24
670.67	53677.85
670.81	54150.63
670.95	53528.05
671.09	53565.50
671.23	53572.52
671.37	53378.26
671.51	53439.11
671.65	53506.99
671.79	53268.25
671.93	53055.26
672.07	53422.73
672.21	52989.73
672.35	52706.52
672.49	52795.46
672.63	52629.29
672.77	52575.45
672.91	52816.53
673.05	52664.39
673.19	52538.01
673.33	52278.21
673.47	51945.85
673.61	52509.92
673.75	52481.83
673.89	51983.30
674.03	51955.21
674.17	51576.04
674.31	51559.66
674.45	51882.66
674.59	51861.59
674.73	51370.08
674.87	51447.32
675.01	51718.82
675.15	51510.51
675.29	51234.33
675.43	51536.26
675.56	51213.26
675.70	51189.86
675.84	51114.96
675.98	50188.11
676.12	51011.98
676.26	50813.03
676.40	50632.81
676.54	50532.17
676.68	50630.47
676.82	50092.15
676.96	50436.20
677.10	50206.83
677.23	49750.43
677.37	49879.16
677.51	49860.43
677.65	49516.37
677.79	48816.55
677.93	48870.39
678.07	48921.88
678.21	48676.12
678.34	48601.22
678.48	48996.77
678.62	48886.77
678.76	48722.93
678.90	48474.84
679.04	48633.99
679.18	48528.67
679.31	47908.43
679.45	48149.50
679.59	48313.34
679.73	47941.19
679.87	47423.93
680.00	47536.28
680.14	47445.00
680.28	47597.13
680.42	46990.94
680.56	46426.87
680.70	47072.85
680.83	46801.35
680.97	46696.03
681.11	46841.14
681.25	46419.84
681.39	46555.60
681.52	46356.65
681.66	46192.81
681.80	45853.44
681.94	45397.03
682.07	45827.69
682.21	45457.88
682.35	45551.51
682.49	45254.26
682.62	45331.50
682.76	45621.72
682.90	45067.02
683.04	44900.84
683.17	44397.62
683.31	44020.80
683.45	44687.85
683.59	43840.57
683.72	44004.41
683.86	43681.42
684.00	44060.58
684.13	43863.98
684.27	43672.06
684.41	44184.63
684.55	43725.89
684.68	43299.91
684.82	43379.49
684.96	42583.71
685.09	42581.37
685.23	42600.09
685.37	42574.34
685.50	42026.66
685.64	42359.02
685.78	42368.38
685.91	42204.54
686.05	41979.85
686.19	41329.18
686.32	41411.10
686.46	41062.36
686.60	40308.71
686.73	40722.98
686.87	40975.76
687.01	40615.32
687.14	40804.90
687.28	40046.57
687.42	40128.48
687.55	40177.64
687.69	40048.91
687.82	39704.85
687.96	39487.18
688.10	39552.71
688.23	39381.85
688.37	38918.43
688.50	38941.83
688.64	38981.62
688.78	38888.00
688.91	38710.12
689.05	38684.37
689.18	38600.12
689.32	38017.32
689.46	37200.47
689.59	37584.32
689.73	37722.41
689.86	37516.45
690.00	37027.28
690.13	37368.99
690.27	37495.38
690.41	37500.06
690.54	37010.89
690.68	36587.25
690.81	36790.88
690.95	36292.35
691.08	36713.64
691.22	36060.63
691.35	36018.50
691.49	36013.82
691.62	36191.70
691.76	35641.68
691.89	35644.02
692.03	35548.06
692.16	35672.10
692.30	35215.70
692.43	35386.56
692.57	34787.38
692.70	34663.33
692.84	34824.83
692.97	34515.88
693.11	34494.82
693.24	34314.59
693.38	33905.00
693.51	33446.26
693.65	33675.63
693.78	33378.38
693.92	33776.27
694.05	33081.13
694.19	33333.91
694.32	33205.18
694.45	33083.47
694.59	32652.81
694.72	32587.28
694.86	32194.07
694.99	32077.04
695.13	31821.92
695.26	32011.51
695.39	31882.78
695.53	31864.05
695.66	31955.33
695.80	31637.02
695.93	31070.61
696.07	30771.02
696.20	30644.63
696.33	30796.77
696.47	31016.78
696.60	30270.15
696.73	30279.51
696.87	30316.96
697.00	30054.82
697.14	30143.76
697.27	30017.37
697.40	29654.59
697.54	29713.10
697.67	29795.02
697.80	29308.19
697.94	29308.19
698.07	28786.25
698.21	28479.64
698.34	29006.26
698.47	28807.31
698.61	28070.04
698.74	28521.77
698.87	28329.84
699.01	28215.16
699.14	28114.52
699.27	28198.77
699.40	28013.87
699.54	27906.21
699.67	27824.29
699.80	27611.30
699.94	27213.41
700.07	27417.04
700.20	27143.19
700.34	26967.65
700.47	26544.02
700.60	26249.11
700.73	25806.75
700.87	25869.94
701.00	25783.34
701.13	25989.31
701.26	26094.63
701.40	26047.82
701.53	25509.50
701.66	25717.81
701.79	25663.97
701.93	25076.50
702.06	24971.18
702.19	24924.36
702.32	24971.18
702.46	24634.14
702.59	24334.55
702.72	24444.56
702.85	24643.50
702.99	24673.93
703.12	23941.34
703.25	23836.02
703.38	23676.86
703.51	23770.48
703.65	23578.56
703.78	23363.23
703.91	23152.58
704.04	23452.17
704.17	23285.99
704.31	23049.60
704.44	22860.01
704.57	22419.99
704.70	22651.70
704.83	22277.22
704.96	22104.02
705.10	22286.58
705.23	22389.56
>>>>>End Processed Spectral Data<<<<<
