SpectraSuite Data File
++++++++++++++++++++++++++++++++++++
Date: Fri Oct 25 10:47:57 EDT 2013
User: price-jones
Dark Spectrum Present: No
Reference Spectrum Present: No
Number of Sampled Component Spectra: 1
Spectrometers: USB2+H05261
Integration Time (usec): 100000 (USB2+H05261)
Spectra Averaged: 1 (USB2+H05261)
Boxcar Smoothing: 0 (USB2+H05261)
Correct for Electrical Dark: No (USB2+H05261)
Strobe/Lamp Enabled: No (USB2+H05261)
Correct for Detector Non-linearity: No (USB2+H05261)
Correct for Stray Light: No (USB2+H05261)
Number of Pixels in Processed Spectrum: 2048
>>>>>Begin Processed Spectral Data<<<<<
365.73	84.26
365.92	84.26
366.12	84.26
366.32	88.94
366.52	4.68
366.72	63.19
366.91	0.00
367.11	46.81
367.31	49.15
367.51	0.00
367.70	60.85
367.90	102.98
368.10	21.06
368.30	102.98
368.49	14.04
368.69	72.56
368.89	23.41
369.09	86.60
369.28	25.75
369.48	37.45
369.68	110.01
369.87	74.90
370.07	81.92
370.27	149.79
370.47	273.84
370.66	440.02
370.86	407.25
371.06	393.21
371.25	454.06
371.45	423.64
371.65	472.79
371.84	435.34
372.04	393.21
372.24	479.81
372.44	442.36
372.63	484.49
372.83	535.98
373.03	482.15
373.22	517.26
373.42	507.90
373.62	456.40
373.81	528.96
374.01	524.28
374.21	489.17
374.40	559.39
374.60	526.62
374.79	538.32
374.99	552.37
375.19	503.22
375.38	627.26
375.58	568.75
375.78	526.62
375.97	533.64
376.17	636.63
376.37	589.82
376.56	613.22
376.76	589.82
376.95	606.20
377.15	585.13
377.35	594.50
377.54	681.10
377.74	603.86
377.93	638.97
378.13	720.88
378.33	669.39
378.52	653.01
378.72	641.31
378.91	660.03
379.11	650.67
379.31	629.60
379.50	627.26
379.70	650.67
379.89	683.44
380.09	723.23
380.28	650.67
380.48	645.99
380.68	667.05
380.87	702.16
381.07	660.03
381.26	716.20
381.46	638.97
381.65	631.94
381.85	636.63
382.04	730.25
382.24	688.12
382.43	727.91
382.63	620.24
382.83	671.73
383.02	711.52
383.22	697.48
383.41	641.31
383.61	716.20
383.80	791.10
384.00	770.04
384.19	805.14
384.39	791.10
384.58	779.40
384.78	760.67
384.97	774.72
385.17	732.59
385.36	699.82
385.56	660.03
385.75	732.59
385.95	697.48
386.14	737.27
386.34	814.51
386.53	795.78
386.72	800.46
386.92	823.87
387.11	866.00
387.31	858.98
387.50	760.67
387.70	849.61
387.89	814.51
388.09	847.27
388.28	781.74
388.48	823.87
388.67	854.30
388.86	847.27
389.06	844.93
389.25	898.77
389.45	816.85
389.64	936.21
389.84	1027.50
390.03	915.15
390.22	887.06
390.42	912.81
390.61	929.19
390.81	971.32
391.00	917.49
391.19	999.41
391.39	983.02
391.58	936.21
391.78	971.32
391.97	973.66
392.16	875.36
392.36	978.34
392.55	954.94
392.75	968.98
392.94	1011.11
393.13	917.49
393.33	1008.77
393.52	973.66
393.71	1034.52
393.91	1020.47
394.10	1001.75
394.29	1048.56
394.49	1114.10
394.68	1163.25
394.88	1074.31
395.07	1191.33
395.26	1249.85
395.46	1128.14
395.65	1170.27
395.84	1158.57
396.04	1060.26
396.23	1104.73
396.42	1097.71
396.62	1118.78
396.81	1039.20
397.00	1158.57
397.19	1130.48
397.39	1104.73
397.58	1238.14
397.77	1296.66
397.97	1193.67
398.16	1179.63
398.35	1306.02
398.55	1270.91
398.74	1399.64
398.93	1238.14
399.12	1329.42
399.32	1273.25
399.51	1284.95
399.70	1315.38
399.90	1336.45
400.09	1273.25
400.28	1401.98
400.47	1467.52
400.67	1352.83
400.86	1432.41
401.05	1465.18
401.24	1486.24
401.44	1516.67
401.63	1556.46
401.82	1549.43
402.01	1434.75
402.21	1551.78
402.40	1488.58
402.59	1544.75
402.78	1575.18
402.97	1474.54
403.17	1493.26
403.36	1521.35
403.55	1556.46
403.74	1645.40
403.93	1650.08
404.13	1621.99
404.32	1582.20
404.51	1614.97
404.70	1753.06
404.89	1753.06
405.09	1652.42
405.28	1764.76
405.47	1703.91
405.66	1652.42
405.85	1729.66
406.05	1699.23
406.24	1792.85
406.43	1774.13
406.62	1811.57
406.81	1930.94
407.00	1956.69
407.20	1839.66
407.39	1844.34
407.58	1937.96
407.77	1874.77
407.96	1970.73
408.15	1973.07
408.34	2022.22
408.54	1973.07
408.73	2005.84
408.92	2087.76
409.11	2038.61
409.30	2064.35
409.49	2043.29
409.68	1977.75
409.87	2038.61
410.07	2083.08
410.26	2052.65
410.45	2129.89
410.64	2099.46
410.83	2183.72
411.02	2179.04
411.21	2324.15
411.40	2317.13
411.59	2443.52
411.78	2244.57
411.98	2216.49
412.17	2331.17
412.36	2413.09
412.55	2385.01
412.74	2375.64
412.93	2429.48
413.12	2361.60
413.31	2574.59
413.50	2506.71
413.69	2452.88
413.88	2616.72
414.07	2705.66
414.26	2609.70
414.45	2637.78
414.64	2590.97
414.83	2675.23
415.02	2806.30
415.22	2799.28
415.41	2703.32
415.60	2729.06
415.79	2785.24
415.98	2869.50
416.17	2705.66
416.36	2766.51
416.55	3023.97
416.74	2867.16
416.93	2892.90
417.12	2946.73
417.31	2953.76
417.50	2946.73
417.69	3112.91
417.88	3136.32
418.07	3094.19
418.26	3110.57
418.45	3052.06
418.64	3234.62
418.83	3248.66
419.02	3115.25
419.21	3119.93
419.39	3143.34
419.58	3091.85
419.77	3162.06
419.96	3321.22
420.15	3286.11
420.34	3255.69
420.53	3365.69
420.72	3412.50
420.91	3361.01
421.10	3260.37
421.29	3452.29
421.48	3302.50
421.67	3384.41
421.86	3274.41
422.05	3344.63
422.24	3314.20
422.43	3471.01
422.61	3342.28
422.80	3487.40
422.99	3475.70
423.18	3515.48
423.37	3461.65
423.56	3377.39
423.75	3583.36
423.94	3293.13
424.13	3386.76
424.32	3370.37
424.50	3536.55
424.69	3557.61
424.88	3590.38
425.07	3620.81
425.26	3499.10
425.45	3412.50
425.64	3478.04
425.83	3473.36
426.01	3644.21
426.20	3602.08
426.39	3534.21
426.58	3562.30
426.77	3513.14
426.96	3637.19
427.15	3562.30
427.33	3487.40
427.52	3630.17
427.71	3749.54
427.90	3801.03
428.09	3836.14
428.28	3726.13
428.46	3740.18
428.65	3688.68
428.84	3812.73
429.03	3833.80
429.22	3728.47
429.40	3754.22
429.59	3723.79
429.78	3653.58
429.97	3665.28
430.16	3730.81
430.34	3801.03
430.53	3852.52
430.72	3918.06
430.91	3768.26
431.10	3929.76
431.28	4028.06
431.47	4109.98
431.66	4077.21
431.85	4030.40
432.03	4131.05
432.22	4140.41
432.41	4212.96
432.60	4145.09
432.79	4189.56
432.97	4243.39
433.16	4255.09
433.35	4273.82
433.54	4173.18
433.72	4325.31
433.91	4414.25
434.10	4287.86
434.28	4264.46
434.47	4306.59
434.66	4376.80
434.85	4308.93
435.03	4571.07
435.22	4552.34
435.41	4552.34
435.59	4505.53
435.78	4540.64
435.97	4592.13
436.16	4484.47
436.34	4510.21
436.53	4519.57
436.72	4587.45
436.90	4519.57
437.09	4704.48
437.28	4601.49
437.46	4730.22
437.65	4617.88
437.84	4880.02
438.02	4669.37
438.21	4744.27
438.40	4620.22
438.58	4835.55
438.77	4788.74
438.96	4863.63
439.14	4936.19
439.33	4990.02
439.52	5062.58
439.70	5102.37
439.89	5036.83
440.08	5118.75
440.26	4992.36
440.45	5144.50
440.63	5172.58
440.82	5296.63
441.01	5170.24
441.19	5343.44
441.38	5357.49
441.57	5514.30
441.75	5577.50
441.94	5568.13
442.12	5755.38
442.31	5722.61
442.50	5511.96
442.68	5596.22
442.87	5650.05
443.05	5514.30
443.24	5533.03
443.43	5806.87
443.61	5849.00
443.80	6024.54
443.98	5692.18
444.17	5504.94
444.35	5844.32
444.54	5996.45
444.73	5680.48
444.91	5823.25
445.10	5870.06
445.28	5802.19
445.47	5846.66
445.65	5696.86
445.84	5767.08
446.02	5849.00
446.21	5792.83
446.39	5827.93
446.58	5886.45
446.77	5863.04
446.95	5841.98
447.14	5874.74
447.32	5909.85
447.51	5895.81
447.69	5963.68
447.88	5951.98
448.06	6026.88
448.25	5919.21
448.43	5956.66
448.62	5827.93
448.80	6017.52
448.99	5954.32
449.17	6092.41
449.36	6036.24
449.54	6314.77
449.73	6300.72
449.91	6209.44
450.10	6207.10
450.28	6438.81
450.46	6312.42
450.65	6410.73
450.83	6534.78
451.02	6342.85
451.20	6548.82
451.39	6424.77
451.57	6457.54
451.76	6455.20
451.94	6473.92
452.13	6541.80
452.31	6452.86
452.49	6328.81
452.68	6448.18
452.86	6555.84
453.05	6527.75
453.23	6471.58
453.42	6373.28
453.60	6614.35
453.78	6616.69
453.97	6661.16
454.15	6539.46
454.34	6537.12
454.52	6663.51
454.70	6665.85
454.89	6766.49
455.07	6810.96
455.26	6698.61
455.44	6815.64
455.62	6750.10
455.81	6796.92
455.99	7012.24
456.17	6960.75
456.36	6956.07
456.54	7096.50
456.73	7253.32
456.91	7316.51
457.09	7218.21
457.28	7126.93
457.46	7215.87
457.64	7185.44
457.83	7218.21
458.01	7159.70
458.19	7391.41
458.38	7405.46
458.56	7232.26
458.74	7225.23
458.93	7375.03
459.11	7435.88
459.29	7456.95
459.48	7557.59
459.66	7344.60
459.84	7438.22
460.03	7569.29
460.21	7639.51
460.39	7522.48
460.57	7740.15
460.76	7377.37
460.94	7688.66
461.12	7744.83
461.31	7791.64
461.49	7824.41
461.67	7709.72
461.85	7885.26
462.04	7796.32
462.22	8224.64
462.40	7908.67
462.59	7819.73
462.77	7857.18
462.95	7981.23
463.13	7974.21
463.32	8133.36
463.50	8049.10
463.68	8100.59
463.86	8154.43
464.05	8081.87
464.23	8028.04
464.41	8135.70
464.59	8067.83
464.78	8271.45
464.96	8226.98
465.14	8056.12
465.32	8231.66
465.50	8154.43
465.69	8212.94
465.87	8351.03
466.05	8222.30
466.23	8287.84
466.41	8304.22
466.60	8500.83
466.78	8304.22
466.96	8358.05
467.14	8435.29
467.32	8514.87
467.51	8524.23
467.69	8437.63
467.87	8514.87
468.05	8425.93
468.23	8547.64
468.41	8524.23
468.60	8685.73
468.78	8526.57
468.96	8702.11
469.14	8795.73
469.32	8833.18
469.50	8564.02
469.69	8837.86
469.87	8891.70
470.05	8840.20
470.23	8795.73
470.41	9013.40
470.59	8926.80
470.77	8982.98
470.95	8861.27
471.14	9172.56
471.32	8861.27
471.50	9226.39
471.68	9174.90
471.86	9308.31
472.04	9123.41
472.22	9418.32
472.40	9149.15
472.58	9200.65
472.77	9540.02
472.95	9453.42
473.13	9745.99
473.31	9603.22
473.49	9521.30
473.67	9544.70
473.85	9724.93
474.03	9874.72
474.21	9942.60
474.39	10160.27
474.57	9898.13
474.75	9902.81
474.93	10312.40
475.12	10085.37
475.30	10331.12
475.48	10230.48
475.66	10349.85
475.84	10190.69
476.02	10368.57
476.20	10450.49
476.38	10644.76
476.56	10874.13
476.74	10927.96
476.92	10506.66
477.10	10539.43
477.28	10679.86
477.46	10920.94
477.64	10993.50
477.82	11105.84
478.00	11346.92
478.18	11087.12
478.36	11309.47
478.54	11531.82
478.72	11339.90
478.90	11747.15
479.08	11712.04
479.26	11999.93
479.44	12018.65
479.62	11861.84
479.80	12102.91
479.98	12280.79
480.16	12538.25
480.34	12386.12
480.52	12571.02
480.70	12500.80
480.88	12250.36
481.06	12505.48
481.24	12582.72
481.41	12690.38
481.59	13163.17
481.77	12915.08
481.95	13149.13
482.13	13235.73
482.31	13076.57
482.49	13486.17
482.67	13605.53
482.85	13635.96
483.03	13591.49
483.21	13935.55
483.39	13844.27
483.57	14052.58
483.74	13977.68
483.92	14242.16
484.10	14036.19
484.28	14483.24
484.46	14429.40
484.64	14775.80
484.82	14331.10
485.00	14771.12
485.18	14988.79
485.35	15122.20
485.53	14817.93
485.71	15037.94
485.89	15227.53
486.07	15255.61
486.25	15419.45
486.43	15812.66
486.61	15707.34
486.78	16016.29
486.96	15946.07
487.14	16201.19
487.32	16343.96
487.50	16442.26
487.68	16655.25
487.85	16751.21
488.03	17013.35
488.21	16758.24
488.39	16870.58
488.57	17474.44
488.75	17249.75
488.92	17439.33
489.10	17682.75
489.28	17673.39
489.46	17879.35
489.64	17783.39
489.81	18242.14
489.99	18258.52
490.17	18569.81
490.35	18853.02
490.53	18286.61
490.70	18586.19
490.88	18948.98
491.06	19143.24
491.24	19042.60
491.41	18927.91
491.59	19339.85
491.77	18988.77
491.95	19337.51
492.13	19531.77
492.30	19974.13
492.48	19583.26
492.66	19733.06
492.84	19896.89
493.01	20137.97
493.19	20060.73
493.37	20491.39
493.54	20430.54
493.72	20842.47
493.90	20896.30
494.08	21212.28
494.25	21167.80
494.43	21146.74
494.61	21364.41
494.79	21523.57
494.96	21266.11
495.14	21633.57
495.32	21837.20
495.49	21596.12
495.67	22136.79
495.85	21839.54
496.02	21942.52
496.20	22370.84
496.38	22396.59
496.55	22466.80
496.73	23073.00
496.91	22841.29
497.09	23030.87
497.26	23089.38
497.44	22794.48
497.62	23094.07
497.79	23117.47
497.97	23049.60
498.14	23388.97
498.32	23838.36
498.50	23606.64
498.67	23733.03
498.85	24009.22
499.03	24346.25
499.20	24159.01
499.38	24329.87
499.56	24257.31
499.73	24257.31
499.91	24498.39
500.08	24783.93
500.26	24397.74
500.44	24638.82
500.61	24662.22
500.79	24486.68
500.97	25022.67
501.14	25001.60
501.32	25312.89
501.49	25085.86
501.67	25123.31
501.84	25455.67
502.02	25315.23
502.20	25645.25
502.37	25701.42
502.55	25565.67
502.72	25465.03
502.90	25706.10
503.07	25441.62
503.25	25799.73
503.43	25827.81
503.60	25982.29
503.78	26265.49
503.95	26469.12
504.13	26267.83
504.30	26738.28
504.48	26256.13
504.65	26881.05
504.83	26820.20
505.01	27002.76
505.18	27243.84
505.36	26775.73
505.53	26995.74
505.71	27012.12
505.88	27435.76
506.06	26979.36
506.23	27342.14
506.41	27171.28
506.58	27241.50
506.76	27946.00
506.93	28004.51
507.11	27749.39
507.28	27936.63
507.46	27529.38
507.63	27714.28
507.81	27634.71
507.98	28030.26
508.16	28217.50
508.33	28130.90
508.50	28313.46
508.68	28374.31
508.85	28847.10
509.03	28730.08
509.20	28872.85
509.38	29076.48
509.55	29212.23
509.73	29542.24
509.90	29153.71
510.08	28823.70
510.25	28992.22
510.42	29134.99
510.60	29544.58
510.77	29771.61
510.95	29607.78
511.12	29584.37
511.30	29731.83
511.47	29928.43
511.64	30302.92
511.82	30237.38
511.99	29528.20
512.17	29914.39
512.34	29832.47
512.51	30600.16
512.69	30607.19
512.86	29935.45
513.04	30387.18
513.21	30672.72
513.38	30260.79
513.56	30679.74
513.73	30679.74
513.90	30759.32
514.08	30492.50
514.25	30759.32
514.43	30815.49
514.60	30993.37
514.77	31133.81
514.95	31028.48
515.12	31384.24
515.29	31283.60
515.47	31328.07
515.64	31531.70
515.81	31227.43
515.99	31351.48
516.16	31201.68
516.33	31491.91
516.51	31878.10
516.68	31534.04
516.85	31496.59
517.03	31700.22
517.20	31791.50
517.37	31924.91
517.54	32161.30
517.72	32215.13
517.89	31985.76
518.06	31882.78
518.24	32116.83
518.41	32315.78
518.58	32416.42
518.75	32374.29
518.93	32919.63
519.10	32748.78
519.27	32734.73
519.45	32907.93
519.62	32833.04
519.79	33467.32
519.96	33326.89
520.14	33560.94
520.31	33130.28
520.48	33633.50
520.65	33251.99
520.83	33589.03
521.00	33427.53
521.17	33476.68
521.34	33422.85
521.52	33848.83
521.69	34064.16
521.86	33991.60
522.03	34300.55
522.20	34174.16
522.38	34078.20
522.55	34422.26
522.72	34087.56
522.89	34005.64
523.07	34574.39
523.24	34450.35
523.41	34375.45
523.58	34359.06
523.75	34593.12
523.92	35119.74
524.10	35157.19
524.27	34920.79
524.44	35178.25
524.61	34934.84
524.78	34871.64
524.96	35489.54
525.13	35344.43
525.30	35428.69
525.47	35552.74
525.64	34951.22
525.81	35374.86
525.98	35365.49
526.16	35426.35
526.33	35117.40
526.50	35768.07
526.67	35466.14
526.84	35262.51
527.01	35480.18
527.18	36039.57
527.36	35622.95
527.53	36306.39
527.70	36149.57
527.87	36451.50
528.04	36114.47
528.21	36055.95
528.38	36470.23
528.55	36563.85
528.72	36112.13
528.89	36507.68
529.07	36711.30
529.24	36205.75
529.41	36528.74
529.58	36556.83
529.75	36629.38
529.92	36570.87
530.09	37060.04
530.26	36699.60
530.43	36613.00
530.60	37022.59
530.77	36928.97
530.94	36947.70
531.11	37345.59
531.28	36872.80
531.46	37408.78
531.63	37483.68
531.80	36917.27
531.97	36844.71
532.14	37610.07
532.31	37202.82
532.48	37504.74
532.65	37460.27
532.82	37186.43
532.99	37745.82
533.16	37455.59
533.33	37912.00
533.50	37881.57
533.67	38026.68
533.84	37771.57
534.01	38094.56
534.18	37776.25
534.35	38029.02
534.52	38010.30
534.69	38117.96
534.86	38143.71
535.03	37961.15
535.20	38218.61
535.37	38576.71
535.54	38396.49
535.71	38043.07
535.88	38036.05
536.05	38265.42
536.22	38604.80
536.38	38651.61
536.55	38925.45
536.72	38134.35
536.89	38508.83
537.06	38625.86
537.23	38724.16
537.40	38670.33
537.57	39079.92
537.74	38712.46
537.91	39133.76
538.08	38742.89
538.25	38859.91
538.42	38862.26
538.59	39110.35
538.75	38721.82
538.92	39117.37
539.09	38976.94
539.26	39246.10
539.43	39419.30
539.60	39622.93
539.77	39503.56
539.94	39655.70
540.11	39328.02
540.28	38834.17
540.44	39461.43
540.61	39091.63
540.78	39400.58
540.95	39416.96
541.12	39281.21
541.29	39016.73
541.46	39337.38
541.62	39793.79
541.79	39742.30
541.96	39491.86
542.13	39695.49
542.30	39964.65
542.47	39927.20
542.63	39821.87
542.80	40247.85
542.97	40652.76
543.14	40521.69
543.31	40435.10
543.48	40612.98
543.64	41071.72
543.81	40840.01
543.98	40332.11
544.15	40224.45
544.32	41043.63
544.48	40891.50
544.65	40793.20
544.82	40652.76
544.99	40680.85
545.16	40591.91
545.32	40512.33
545.49	41029.59
545.66	41432.16
545.83	41036.61
546.00	41326.84
546.16	41153.64
546.33	40893.84
546.50	40453.82
546.67	41034.27
546.83	40722.98
547.00	41017.89
547.17	41181.73
547.34	41097.47
547.50	41471.95
547.67	41640.47
547.84	41237.90
548.00	41399.40
548.17	41455.57
548.34	41071.72
548.51	41736.43
548.67	41565.57
548.84	41947.08
549.01	41312.80
549.18	41890.91
549.34	42190.50
549.51	41933.04
549.68	41741.11
549.84	41846.44
550.01	41968.15
550.18	41801.97
550.34	42412.85
550.51	41729.41
550.68	41471.95
550.84	41464.93
551.01	41923.68
551.18	42232.63
551.34	42504.13
551.51	41834.74
551.68	42307.52
551.84	42637.54
552.01	42160.07
552.18	42167.09
552.34	42026.66
552.51	42169.43
552.68	42036.02
552.84	42663.28
553.01	42347.31
553.18	42593.07
553.34	42401.14
553.51	42417.53
553.67	42396.46
553.84	42838.83
554.01	42499.45
554.17	43005.00
554.34	42689.03
554.51	42761.59
554.67	42897.34
554.84	42466.68
555.00	42635.20
555.17	42454.98
555.33	42693.71
555.50	42597.75
555.67	42342.63
555.83	42614.13
556.00	42958.19
556.16	42763.93
556.33	43173.52
556.50	43122.03
556.66	43227.35
556.83	42911.38
556.99	43131.39
557.16	43299.91
557.32	43115.01
557.49	42906.70
557.65	42452.64
557.82	42902.02
557.98	42820.10
558.15	43061.18
558.32	43435.66
558.48	43262.46
558.65	42895.00
558.81	43044.79
558.98	43222.67
559.14	43360.76
559.31	42855.21
559.47	43192.25
559.64	43590.14
559.80	43468.43
559.97	43529.28
560.13	43316.29
560.30	43292.89
560.46	43997.39
560.63	43512.90
560.79	44039.52
560.96	43831.21
561.12	43510.56
561.29	43824.19
561.45	43503.54
561.61	43643.97
561.78	43515.24
561.94	43412.26
562.11	43557.37
562.27	43491.83
562.44	43707.16
562.60	44062.93
562.77	44449.11
562.93	44123.78
563.10	43730.57
563.26	43463.75
563.42	43688.44
563.59	43789.08
563.75	43910.79
563.92	44325.07
564.08	43976.33
564.24	44013.77
564.41	43840.57
564.57	43753.97
564.74	44294.64
564.90	43917.81
565.07	44191.65
565.23	43650.99
565.39	43943.56
565.56	44013.77
565.72	44198.68
565.88	44318.04
566.05	43866.32
566.21	44004.41
566.38	43910.79
566.54	43885.04
566.70	44399.96
566.87	44509.97
567.03	43901.43
567.19	44559.12
567.36	44435.07
567.52	43981.01
567.68	44339.11
567.85	44282.94
568.01	44095.69
568.17	44531.03
568.34	44531.03
568.50	44027.82
568.66	43718.87
568.83	44208.04
568.99	44076.97
569.15	44243.15
569.32	44107.40
569.48	44172.93
569.64	44524.01
569.81	44332.09
569.97	44381.24
570.13	44280.60
570.30	43922.49
570.46	44292.30
570.62	43948.24
570.78	44137.82
570.95	44233.78
571.11	44037.18
571.27	44570.82
571.43	44189.31
571.60	44538.05
571.76	44348.47
571.92	44467.84
572.09	44559.12
572.25	43791.42
572.41	44538.05
572.57	44453.79
572.74	44835.30
572.90	44601.25
573.06	44229.10
573.22	44465.50
573.38	44451.45
573.55	44711.25
573.71	44552.10
573.87	44135.48
574.03	44304.00
574.20	44320.38
574.36	44289.96
574.52	44589.55
574.68	44388.26
574.84	44598.91
575.01	44385.92
575.17	44126.12
575.33	44472.52
575.49	44575.50
575.65	44573.16
575.82	44823.60
575.98	44708.91
576.14	44828.28
576.30	44580.18
576.46	43852.28
576.62	44512.31
576.79	44081.65
576.95	43730.57
577.11	44383.58
577.27	44568.48
577.43	44610.61
577.59	44470.18
577.75	44430.39
577.92	44435.07
578.08	44198.68
578.24	44165.91
578.40	44292.30
578.56	44360.17
578.72	44615.29
578.88	44580.18
579.04	44421.03
579.21	44353.15
579.37	44364.85
579.53	44165.91
579.69	44823.60
579.85	44617.63
580.01	45228.51
580.17	44978.07
580.33	44795.51
580.49	44502.95
580.65	44863.39
580.82	44659.76
580.98	44603.59
581.14	44528.69
581.30	44767.43
581.46	44664.44
581.62	44746.36
581.78	44636.36
581.94	44928.92
582.10	44615.29
582.26	44563.80
582.42	44650.40
582.58	44655.08
582.74	44612.95
582.90	44851.69
583.06	44814.24
583.22	44793.17
583.38	44971.05
583.54	44554.44
583.70	44474.86
583.86	44870.41
584.02	44467.84
584.18	44641.04
584.34	44807.22
584.50	44886.79
584.66	44540.39
584.82	44502.95
584.98	44737.00
585.14	44854.03
585.30	45134.89
585.46	44821.26
585.62	44481.88
585.78	44664.44
585.94	44086.33
586.10	44498.26
586.26	44271.23
586.42	44657.42
586.58	44889.13
586.74	44872.75
586.90	44271.23
587.06	44659.76
587.22	45146.59
587.38	44839.98
587.54	44662.10
587.70	45132.55
587.86	44947.65
588.02	44816.58
588.18	44818.92
588.34	44690.19
588.49	44713.59
588.65	44615.29
588.81	44432.73
588.97	44624.65
589.13	44718.28
589.29	44615.29
589.45	44900.84
589.61	44807.22
589.77	45357.24
589.93	45043.61
590.08	45130.21
590.24	45106.80
590.40	45083.40
590.56	44683.17
590.72	44783.81
590.88	44748.70
591.04	45216.81
591.20	45237.87
591.35	45088.08
591.51	45099.78
591.67	45427.46
591.83	45095.10
591.99	44650.40
592.15	44982.76
592.31	44790.83
592.46	45364.26
592.62	44921.90
592.78	45500.01
592.94	45287.03
593.10	45088.08
593.26	44989.78
593.41	45085.74
593.57	44835.30
593.73	44980.42
593.89	45013.18
594.05	44767.43
594.20	44783.81
594.36	45607.68
594.52	45109.14
594.68	45158.30
594.84	45350.22
594.99	45364.26
595.15	45298.73
595.31	45209.79
595.47	44865.73
595.62	44905.52
595.78	45441.50
595.94	45408.73
596.10	45832.37
596.25	45680.24
596.41	45549.17
596.57	45230.85
596.73	45516.40
596.88	44966.37
597.04	45181.70
597.20	45249.58
597.36	45291.71
597.51	45610.02
597.67	45474.27
597.83	45233.19
597.99	45371.28
598.14	45083.40
598.30	45284.68
598.46	44882.11
598.61	45071.70
598.77	44701.89
598.93	44769.77
599.09	45104.46
599.24	45593.64
599.40	45237.87
599.56	45453.20
599.71	45469.59
599.87	45434.48
600.03	45144.25
600.18	45081.06
600.34	45006.16
600.50	45104.46
600.65	44924.24
600.81	45694.28
600.97	45588.95
601.12	45034.25
601.28	45301.07
601.44	44893.82
601.59	45008.50
601.75	45038.93
601.91	44989.78
602.06	45223.83
602.22	45167.66
602.37	45305.75
602.53	44832.96
602.69	45523.42
602.84	45251.92
603.00	44854.03
603.16	45125.53
603.31	45146.59
603.47	44861.05
603.62	44847.00
603.78	45434.48
603.94	44839.98
604.09	45251.92
604.25	45291.71
604.40	45331.50
604.56	45418.10
604.71	44933.60
604.87	45132.55
605.03	45191.06
605.18	45118.51
605.34	44954.67
605.49	44732.32
605.65	45497.67
605.80	45034.25
605.96	45272.98
606.12	45003.82
606.27	45282.34
606.43	44753.38
606.58	45170.00
606.74	45141.91
606.89	45127.87
607.05	45118.51
607.20	45148.93
607.36	45317.45
607.51	45418.10
607.67	44935.95
607.82	45158.30
607.98	45275.32
608.13	44985.10
608.29	44823.60
608.44	44903.18
608.60	44313.36
608.75	44390.60
608.91	44549.76
609.06	44598.91
609.22	45324.47
609.37	44575.50
609.53	44608.27
609.68	44575.50
609.84	44638.70
609.99	44612.95
610.15	44282.94
610.30	44669.12
610.46	44355.49
610.61	44278.25
610.76	44680.83
610.92	44570.82
611.07	44596.57
611.23	44371.88
611.38	44481.88
611.54	44453.79
611.69	44158.89
611.84	44552.10
612.00	44514.65
612.15	44807.22
612.31	44238.47
612.46	44648.06
612.62	44505.29
612.77	44542.74
612.92	44385.92
613.08	44360.17
613.23	44514.65
613.39	44053.56
613.54	44058.24
613.69	44156.55
613.85	44128.46
614.00	44334.43
614.15	44353.15
614.31	44299.32
614.46	44449.11
614.62	44149.53
614.77	44327.41
614.92	44137.82
615.08	44512.31
615.23	44292.30
615.38	43732.91
615.54	43346.72
615.69	43831.21
615.84	43784.40
616.00	44196.34
616.15	43885.04
616.30	43742.27
616.46	44020.80
616.61	43686.10
616.76	43934.20
616.92	43821.85
617.07	43772.70
617.22	43557.37
617.37	43803.13
617.53	43782.06
617.68	43828.87
617.83	44119.10
617.99	43931.86
618.14	43707.16
618.29	43430.98
618.45	43686.10
618.60	43679.08
618.75	43423.96
618.90	44027.82
619.06	43622.90
619.21	43669.72
619.36	43887.39
619.51	43674.40
619.67	43590.14
619.82	43854.62
619.97	43697.80
620.12	43337.36
620.28	42672.65
620.43	43119.69
620.58	43124.37
620.73	43491.83
620.89	43356.08
621.04	42946.49
621.19	43281.19
621.34	43117.35
621.49	43379.49
621.65	43044.79
621.80	43091.60
621.95	42674.99
622.10	43503.54
622.25	43014.37
622.41	42920.74
622.56	43335.02
622.71	43084.58
622.86	43220.33
623.01	43030.75
623.16	43068.20
623.32	42941.81
623.47	43278.85
623.62	43393.53
623.77	42586.05
623.92	42742.86
624.07	42911.38
624.23	42770.95
624.38	42459.66
624.53	42745.20
624.68	43463.75
624.83	42583.71
624.98	42700.73
625.13	42473.70
625.29	42850.53
625.44	42567.32
625.59	42527.53
625.74	41958.78
625.89	41848.78
626.04	42153.05
626.19	42438.59
626.34	42557.96
626.49	42593.07
626.65	42330.93
626.80	42462.00
626.95	42344.97
627.10	42232.63
627.25	41940.06
627.40	41738.77
627.55	41455.57
627.70	41598.34
627.85	41153.64
628.00	42330.93
628.15	42003.25
628.30	42120.28
628.45	42370.72
628.60	41888.57
628.76	41876.86
628.91	42183.48
629.06	42164.75
629.21	41345.56
629.36	41572.60
629.51	41823.03
629.66	41303.43
629.81	41352.58
629.96	41778.56
630.11	42157.73
630.26	41663.88
630.41	41521.10
630.56	41359.61
630.71	41673.24
630.86	41553.87
631.01	41010.87
631.16	41153.64
631.31	41471.95
631.46	40893.84
631.61	41464.93
631.76	41095.13
631.91	41420.46
632.06	41373.65
632.21	41315.14
632.36	41862.82
632.51	41670.90
632.66	41460.25
632.81	40615.32
632.96	41174.70
633.10	40797.88
633.25	41340.88
633.40	41057.68
633.55	41062.36
633.70	40889.16
633.85	41085.76
634.00	41148.96
634.15	40961.72
634.30	40744.05
634.45	40952.35
634.60	40580.21
634.75	41109.17
634.90	40713.62
635.05	40964.06
635.19	40767.45
635.34	41015.55
635.49	40671.49
635.64	40154.23
635.79	40772.13
635.94	40416.37
636.09	40875.12
636.24	40697.24
636.39	40456.16
636.53	40126.14
636.68	40060.61
636.83	40364.88
636.98	40856.39
637.13	40289.98
637.28	40802.56
637.43	40760.43
637.57	40484.25
637.72	40509.99
637.87	40474.88
638.02	40439.78
638.17	40257.21
638.32	40093.38
638.46	39990.39
638.61	40182.32
638.76	40060.61
638.91	40201.04
639.06	39981.03
639.20	39791.45
639.35	40589.57
639.50	40322.75
639.65	40601.27
639.80	40135.51
639.94	39782.09
640.09	39627.61
640.24	39800.81
640.39	39786.77
640.54	39889.75
640.68	40032.52
640.83	39498.88
640.98	39658.04
641.13	39681.44
641.27	39854.64
641.42	39311.64
641.57	39456.75
641.72	39821.87
641.86	39681.44
642.01	39370.15
642.16	39412.28
642.31	39196.95
642.45	39662.72
642.60	39601.86
642.75	39342.06
642.90	39299.94
643.04	39496.54
643.19	39292.91
643.34	39321.00
643.48	39379.51
643.63	39351.43
643.78	39016.73
643.93	39136.10
644.07	39360.79
644.22	39222.70
644.37	38972.26
644.51	39100.99
644.66	39126.74
644.81	39426.32
644.95	39012.05
645.10	39222.70
645.25	39302.28
645.39	39021.41
645.54	39667.40
645.69	39311.64
645.83	38728.84
645.98	38843.53
646.13	38792.04
646.27	39007.37
646.42	38747.57
646.57	38721.82
646.71	38731.18
646.86	38553.30
647.00	38873.96
647.15	39093.97
647.30	38895.02
647.44	38726.50
647.59	38808.42
647.74	38630.54
647.88	38616.50
648.03	38796.72
648.17	38485.43
648.32	38408.19
648.47	38321.59
648.61	38740.55
648.76	38609.48
648.90	38862.26
649.05	38583.73
649.20	38497.13
649.34	38651.61
649.49	38227.97
649.63	38698.42
649.78	38532.24
649.92	38012.64
650.07	38356.70
650.21	38029.02
650.36	38422.23
650.51	38005.62
650.65	38724.16
650.80	38962.90
650.94	38462.02
651.09	38223.29
651.23	38288.82
651.38	38155.41
651.52	38150.73
651.67	38316.91
651.81	37806.67
651.96	38050.09
652.10	37921.36
652.25	37900.29
652.39	37783.27
652.54	38043.07
652.68	38188.18
652.83	38087.54
652.97	37935.40
653.12	38066.47
653.26	37841.78
653.41	37886.25
653.55	37813.70
653.70	37965.83
653.84	37528.15
653.99	37844.12
654.13	37773.91
654.27	37535.17
654.42	37361.97
654.56	37673.26
654.71	38040.73
654.85	37493.04
655.00	37460.27
655.14	37123.24
655.29	37104.51
655.43	36931.31
655.57	36907.91
655.72	37450.91
655.86	37441.55
656.01	37235.58
656.15	37113.87
656.30	37214.52
656.44	36898.55
656.58	36545.12
656.73	37003.87
656.87	37237.92
657.01	37106.85
657.16	36795.56
657.30	36748.75
657.45	36624.70
657.59	36886.84
657.73	36945.36
657.88	37027.28
658.02	36769.82
658.16	37069.40
658.31	37221.54
658.45	37118.56
658.60	36720.66
658.74	36730.03
658.88	36807.26
659.03	36629.38
659.17	36308.73
659.31	36491.29
659.46	36905.57
659.60	36355.54
659.74	36437.46
659.89	36105.10
660.03	36065.31
660.17	36425.76
660.32	36313.41
660.46	36580.23
660.60	36203.41
660.74	36041.91
660.89	36196.38
661.03	35709.55
661.17	36142.55
661.32	35557.42
661.46	35768.07
661.60	35662.74
661.74	36074.68
661.89	35880.41
662.03	35695.51
662.17	35679.13
662.31	35447.41
662.46	35629.98
662.60	35754.02
662.74	35421.67
662.88	35288.26
663.03	35248.47
663.17	35606.57
663.31	35199.32
663.45	35590.19
663.60	35192.30
663.74	34799.08
663.88	35189.95
664.02	34948.88
664.17	35108.04
664.31	34934.84
664.45	34618.86
664.59	34855.26
664.73	34972.28
664.88	34911.43
665.02	34312.25
665.16	34941.86
665.30	34873.98
665.44	34405.88
665.59	33977.56
665.73	34335.66
665.87	34155.44
666.01	34206.93
666.15	34401.19
666.29	34525.24
666.44	34160.12
666.58	34295.87
666.72	33869.89
666.86	34354.38
667.00	34277.15
667.14	33916.70
667.28	33776.27
667.43	33907.34
667.57	33827.76
667.71	33544.56
667.85	34132.03
667.99	33317.53
668.13	33551.58
668.27	33668.61
668.41	33743.50
668.56	33221.56
668.70	33249.65
668.84	33549.24
668.98	32851.76
669.12	33383.06
669.26	33289.44
669.40	33165.39
669.54	33170.07
669.68	33064.75
669.82	32966.45
669.96	32790.91
670.10	32687.92
670.25	33130.28
670.39	32982.83
670.53	32477.27
670.67	32580.26
670.81	32882.19
670.95	32907.93
671.09	32634.09
671.23	32889.21
671.37	32879.85
671.51	32620.05
671.65	32081.72
671.79	31817.24
671.93	31960.02
672.07	32275.99
672.21	32163.64
672.35	31842.99
672.49	32093.43
672.63	31917.89
672.77	31515.31
672.91	31931.93
673.05	31793.84
673.19	31903.84
673.33	31840.65
673.47	31377.22
673.61	31512.97
673.75	31161.89
673.89	31564.46
674.03	30953.58
674.17	31110.40
674.31	30792.09
674.45	31037.84
674.59	30932.52
674.73	31082.31
674.87	31016.78
675.01	30597.82
675.15	31047.21
675.29	30724.21
675.43	30604.84
675.56	30789.75
675.70	30387.18
675.84	29937.79
675.98	29294.14
676.12	30206.95
676.26	30141.42
676.40	30277.17
676.54	29706.08
676.68	29879.28
676.82	29586.71
676.96	29633.52
677.10	29474.37
677.23	29558.63
677.37	29390.11
677.51	29174.78
677.65	29191.16
677.79	28830.72
677.93	29132.65
678.07	29181.80
678.21	28893.91
678.34	29153.71
678.48	28535.81
678.62	28563.90
678.76	28191.75
678.90	28074.73
679.04	28673.90
679.18	28561.56
679.31	28154.30
679.45	27672.15
679.59	27606.62
679.73	27812.59
679.87	28023.23
680.00	27725.99
680.14	27641.73
680.28	27365.54
680.42	27419.38
680.56	27386.61
680.70	27264.90
680.83	27295.33
680.97	27168.94
681.11	27082.34
681.25	26705.51
681.39	26930.20
681.52	26794.45
681.66	26696.15
681.80	26670.40
681.94	26616.57
682.07	27082.34
682.21	26654.02
682.35	26263.15
682.49	26249.11
682.62	26183.57
682.76	25575.03
682.90	26340.39
683.04	26017.40
683.17	25804.41
683.31	25640.57
683.45	26136.76
683.59	25717.81
683.72	25280.13
683.86	25333.96
684.00	25146.72
684.13	25525.88
684.27	25149.06
684.41	25198.21
684.55	24952.45
684.68	24746.48
684.82	24694.99
684.96	24678.61
685.09	24486.68
685.23	24592.01
685.37	24561.58
685.50	24458.60
685.64	24294.76
685.78	24135.60
685.91	24376.68
686.05	24208.16
686.19	23896.87
686.32	23716.65
686.46	23658.14
686.60	23349.18
686.73	23374.93
686.87	23262.58
687.01	23824.31
687.14	23407.70
687.28	22984.06
687.42	23007.47
687.55	23080.02
687.69	23035.55
687.82	23021.51
687.96	22752.35
688.10	22735.96
688.23	22635.32
688.37	22253.81
688.50	22511.27
688.64	22417.65
688.78	22508.93
688.91	22012.74
689.05	22080.61
689.18	22361.48
689.32	21818.47
689.46	21998.70
689.59	22019.76
689.73	22097.00
689.86	21970.61
690.00	21666.34
690.13	21785.71
690.27	21586.76
690.41	21575.06
690.54	21158.44
690.68	21177.17
690.81	21153.76
690.95	20989.92
691.08	20851.83
691.22	20973.54
691.35	20758.21
691.49	20767.57
691.62	21130.36
691.76	20531.18
691.89	20795.66
692.03	20496.07
692.16	20505.43
692.30	20294.79
692.43	20503.09
692.57	20072.43
692.70	20365.00
692.84	19992.86
692.97	19950.73
693.11	19634.75
693.24	19646.46
693.38	19541.13
693.51	19379.64
693.65	19250.91
693.78	19517.73
693.92	19328.14
694.05	19349.21
694.19	19253.25
694.32	19087.07
694.45	19463.90
694.59	19161.97
694.72	19091.75
694.86	18946.64
694.99	18874.08
695.13	18207.03
695.26	18478.53
695.39	18157.88
695.53	18602.58
695.66	18415.34
695.80	18523.00
695.93	18209.37
696.07	17994.04
696.20	18321.71
696.33	18162.56
696.47	18097.02
696.60	17841.90
696.73	17984.68
696.87	17598.49
697.00	17568.06
697.14	17460.40
697.27	17083.57
697.40	17422.95
697.54	17280.18
697.67	17317.62
697.80	17474.44
697.94	17156.13
698.07	17085.91
698.21	16652.91
698.34	16868.24
698.47	16802.71
698.61	16521.84
698.74	16741.85
698.87	16400.13
699.01	16542.91
699.14	16299.49
699.27	16599.08
699.40	16362.69
699.54	16119.27
699.67	15997.56
699.80	16369.71
699.94	15971.82
700.07	16154.38
700.20	15922.66
700.34	15758.83
700.47	15789.25
700.60	15852.45
700.73	15957.77
700.87	15557.54
701.00	15648.82
701.13	15740.10
701.26	15559.88
701.40	15428.81
701.53	15199.44
701.66	15206.46
701.79	15126.88
701.93	14986.45
702.06	14925.60
702.19	14920.92
702.32	14970.07
702.46	14738.35
702.59	14551.11
702.72	14843.68
702.85	14843.68
702.99	14696.22
703.12	14586.22
703.25	14427.06
703.38	14508.98
703.51	14207.05
703.65	14335.78
703.78	14214.07
703.91	13823.20
704.04	14075.98
704.17	13879.38
704.31	13760.01
704.44	13834.91
704.57	13837.25
704.70	13540.00
704.83	13631.28
704.96	13561.06
705.10	13521.27
705.23	13930.87
>>>>>End Processed Spectral Data<<<<<
