SpectraSuite Data File
++++++++++++++++++++++++++++++++++++
Date: Fri Oct 25 11:23:26 EDT 2013
User: price-jones
Dark Spectrum Present: No
Reference Spectrum Present: No
Number of Sampled Component Spectra: 1
Spectrometers: USB2+H05261
Integration Time (usec): 100000 (USB2+H05261)
Spectra Averaged: 1 (USB2+H05261)
Boxcar Smoothing: 0 (USB2+H05261)
Correct for Electrical Dark: No (USB2+H05261)
Strobe/Lamp Enabled: No (USB2+H05261)
Correct for Detector Non-linearity: No (USB2+H05261)
Correct for Stray Light: No (USB2+H05261)
Number of Pixels in Processed Spectrum: 2048
>>>>>Begin Processed Spectral Data<<<<<
365.73	196.60
365.92	196.60
366.12	196.60
366.32	212.99
366.52	170.86
366.72	159.16
366.91	77.24
367.11	114.69
367.31	117.03
367.51	135.75
367.70	161.50
367.90	112.35
368.10	70.22
368.30	133.41
368.49	74.90
368.69	138.09
368.89	124.05
369.09	147.45
369.28	156.82
369.48	161.50
369.68	133.41
369.87	217.67
370.07	210.65
370.27	285.55
370.47	259.80
370.66	601.52
370.86	676.41
371.06	676.41
371.25	631.94
371.45	671.73
371.65	690.46
371.84	645.99
372.04	641.31
372.24	788.76
372.44	727.91
372.63	744.29
372.83	781.74
373.03	807.48
373.22	770.04
373.42	798.12
373.62	720.88
373.81	718.54
374.01	863.66
374.21	741.95
374.40	844.93
374.60	807.48
374.79	840.25
374.99	870.68
375.19	851.96
375.38	786.42
375.58	826.21
375.78	851.96
375.97	858.98
376.17	894.08
376.37	887.06
376.56	882.38
376.76	816.85
376.95	875.36
377.15	849.61
377.35	880.04
377.54	882.38
377.74	844.93
377.93	985.37
378.13	835.57
378.33	926.85
378.52	882.38
378.72	924.51
378.91	952.60
379.11	884.72
379.31	964.30
379.50	1013.45
379.70	1034.52
379.89	1008.77
380.09	971.32
380.28	952.60
380.48	1022.81
380.68	950.26
380.87	1025.15
381.07	1027.50
381.26	1025.15
381.46	1011.11
381.65	1088.35
381.85	1025.15
382.04	1029.84
382.24	1006.43
382.43	1020.47
382.63	1093.03
382.83	1022.81
383.02	1078.99
383.22	1156.22
383.41	1130.48
383.61	1067.28
383.80	1144.52
384.00	1179.63
384.19	1196.01
384.39	1191.33
384.58	1160.91
384.78	1291.98
384.97	1146.86
385.17	1240.48
385.36	1205.38
385.56	1203.04
385.75	1116.44
385.95	1174.95
386.14	1357.51
386.34	1214.74
386.53	1125.80
386.72	1245.16
386.92	1219.42
387.11	1306.02
387.31	1233.46
387.50	1135.16
387.70	1228.78
387.89	1350.49
388.09	1184.31
388.28	1259.21
388.48	1341.13
388.67	1331.76
388.86	1310.70
389.06	1306.02
389.25	1397.30
389.45	1277.93
389.64	1313.04
389.84	1397.30
390.03	1366.87
390.22	1448.79
390.42	1432.41
390.61	1277.93
390.81	1420.71
391.00	1474.54
391.19	1427.73
391.39	1432.41
391.58	1423.05
391.78	1460.49
391.97	1486.24
392.16	1516.67
392.36	1476.88
392.55	1448.79
392.75	1558.80
392.94	1451.13
393.13	1453.47
393.33	1596.25
393.52	1598.59
393.71	1554.12
393.91	1540.07
394.10	1502.62
394.29	1600.93
394.49	1640.72
394.68	1621.99
394.88	1612.63
395.07	1657.10
395.26	1647.74
395.46	1664.12
395.65	1699.23
395.84	1626.67
396.04	1839.66
396.23	1689.87
396.42	1746.04
396.62	1881.79
396.81	1806.89
397.00	1736.68
397.19	1834.98
397.39	1804.55
397.58	1832.64
397.77	1863.07
397.97	1830.30
398.16	1884.13
398.35	1867.75
398.55	1860.73
398.74	2008.18
398.93	1898.17
399.12	1895.83
399.32	1778.81
399.51	1919.24
399.70	1933.28
399.90	1994.14
400.09	1996.48
400.28	2036.27
400.47	2031.58
400.67	2094.78
400.86	2136.91
401.05	2115.84
401.24	2118.18
401.44	2094.78
401.63	2157.97
401.82	2202.44
402.01	2200.10
402.21	2251.60
402.40	2216.49
402.59	2242.23
402.78	2237.55
402.97	2300.75
403.17	2289.04
403.36	2296.07
403.55	2188.40
403.74	2303.09
403.93	2410.75
404.13	2492.67
404.32	2438.84
404.51	2359.26
404.70	2392.03
404.89	2436.50
405.09	2373.30
405.28	2555.86
405.47	2586.29
405.66	2576.93
405.85	2569.91
406.05	2607.36
406.24	2605.02
406.43	2527.78
406.62	2647.15
406.81	2651.83
407.00	2539.48
407.20	2672.89
407.39	2658.85
407.58	2635.44
407.77	2862.48
407.96	2780.56
408.15	2691.62
408.34	2656.51
408.54	2754.81
408.73	2836.73
408.92	2857.79
409.11	2944.39
409.30	2825.03
409.49	2967.80
409.68	2932.69
409.87	3087.17
410.07	2923.33
410.26	2958.44
410.45	3033.33
410.64	2942.05
410.83	3150.36
411.02	3215.90
411.21	3253.34
411.40	3138.66
411.59	3159.72
411.78	3126.96
411.98	3204.19
412.17	3379.73
412.36	3321.22
412.55	3297.81
412.74	3363.35
412.93	3463.99
413.12	3510.80
413.31	3452.29
413.50	3353.99
413.69	3440.59
413.88	3630.17
414.07	3513.14
414.26	3674.64
414.45	3665.28
414.64	3686.34
414.83	3786.99
415.02	3840.82
415.22	3864.22
415.41	3957.85
415.60	3941.46
415.79	3948.48
415.98	4011.68
416.17	3892.31
416.36	3901.67
416.55	3894.65
416.74	4121.68
416.93	4046.79
417.12	4138.07
417.31	4149.77
417.50	4372.12
417.69	4386.16
417.88	4191.90
418.07	4325.31
418.26	4322.97
418.45	4191.90
418.64	4545.32
418.83	4444.68
419.02	4369.78
419.21	4519.57
419.39	4512.55
419.58	4496.17
419.77	4468.08
419.96	4603.83
420.15	4594.47
420.34	4683.41
420.53	4650.64
420.72	4746.61
420.91	4669.37
421.10	4594.47
421.29	4706.82
421.48	4695.11
421.67	4704.48
421.86	4760.65
422.05	4812.14
422.24	4805.12
422.43	4929.17
422.61	4990.02
422.80	4896.40
422.99	4891.72
423.18	5160.88
423.37	5107.05
423.56	5008.75
423.75	4889.38
423.94	4877.68
424.13	4545.32
424.32	4880.02
424.50	4938.53
424.69	5331.74
424.88	4994.70
425.07	5020.45
425.26	4997.04
425.45	4992.36
425.64	5011.09
425.83	5093.01
426.01	4992.36
426.20	5062.58
426.39	5097.69
426.58	5193.65
426.77	5188.97
426.96	5078.96
427.15	5226.42
427.33	5345.78
427.52	5156.20
427.71	5313.02
427.90	5252.16
428.09	5376.21
428.28	5458.13
428.46	5432.38
428.65	5289.61
428.84	5411.32
429.03	5474.51
429.22	5446.43
429.40	5603.24
429.59	5603.24
429.78	5371.53
429.97	5146.84
430.16	5460.47
430.34	5650.05
430.53	5685.16
430.72	5717.93
430.91	5685.16
431.10	5610.26
431.28	5743.67
431.47	5867.72
431.66	5879.43
431.85	5940.28
432.03	6017.52
432.22	5949.64
432.41	5881.77
432.60	5816.23
432.79	5830.27
432.97	5942.62
433.16	6195.40
433.35	5881.77
433.54	6003.47
433.72	6043.26
433.91	6059.65
434.10	6160.29
434.28	6136.88
434.47	6277.32
434.66	6422.43
434.85	6352.21
435.03	6186.04
435.22	6291.36
435.41	6487.96
435.59	6565.20
435.78	6504.35
435.97	6431.79
436.16	6434.13
436.34	6377.96
436.53	6588.61
436.72	6619.04
436.90	6296.04
437.09	6633.08
437.28	6551.16
437.46	6654.14
437.65	6619.04
437.84	6829.68
438.02	6693.93
438.21	6640.10
438.40	6801.60
438.58	7052.03
438.77	7037.99
438.96	6986.50
439.14	7138.63
439.33	7070.76
439.52	7325.88
439.70	7316.51
439.89	7417.16
440.08	7346.94
440.26	7318.86
440.45	7398.43
440.63	7562.27
440.82	7754.19
441.01	7403.11
441.19	7513.12
441.38	7625.47
441.57	7791.64
441.75	7712.07
441.94	7915.69
442.12	7871.22
442.31	8067.83
442.50	8063.15
442.68	8189.53
442.87	8091.23
443.05	8051.44
443.24	8215.28
443.43	8030.38
443.61	8131.02
443.80	8643.60
443.98	8056.12
444.17	7812.71
444.35	8297.20
444.54	8280.82
444.73	8353.37
444.91	8327.63
445.10	8475.08
445.28	8491.46
445.47	8346.35
445.65	8222.30
445.84	8580.40
446.02	8575.72
446.21	8393.16
446.39	8507.85
446.58	8418.91
446.77	8503.17
446.95	8362.73
447.14	8524.23
447.32	8493.80
447.51	8643.60
447.69	8552.32
447.88	8582.74
448.06	8573.38
448.25	8690.41
448.43	8564.02
448.62	8559.34
448.80	8613.17
448.99	8589.77
449.17	8685.73
449.36	8800.41
449.54	8858.93
449.73	8879.99
449.91	9092.98
450.10	8971.27
450.28	9170.22
450.46	8961.91
450.65	8982.98
450.83	9163.20
451.02	9090.64
451.20	9163.20
451.39	9266.18
451.57	9226.39
451.76	9111.71
451.94	8971.27
452.13	9397.25
452.31	9369.16
452.49	9282.56
452.68	9511.94
452.86	9451.08
453.05	9654.71
453.23	9549.39
453.42	9369.16
453.60	9301.29
453.78	9699.18
453.97	9493.21
454.15	9610.24
454.34	9425.34
454.52	9741.31
454.70	9671.09
454.89	9678.12
455.07	9720.24
455.26	9764.72
455.44	9802.16
455.62	9736.63
455.81	10045.58
455.99	10139.20
456.17	9996.43
456.36	10186.01
456.54	10031.54
456.73	10139.20
456.91	10424.75
457.09	10424.75
457.28	10572.20
457.46	10403.68
457.64	10579.22
457.83	10619.01
458.01	10597.95
458.19	10724.33
458.38	10654.12
458.56	10860.09
458.74	10738.38
458.93	10586.24
459.11	10562.84
459.29	11136.27
459.48	10857.75
459.66	10750.08
459.84	10953.71
460.03	11063.71
460.21	10995.84
460.39	10920.94
460.57	11016.90
460.76	11206.48
460.94	11328.19
461.12	11379.68
461.31	11211.17
461.49	11143.29
461.67	11358.62
461.85	11316.49
462.04	11370.32
462.22	11702.68
462.40	11562.25
462.59	11501.39
462.77	11555.22
462.95	11726.08
463.13	11723.74
463.32	11655.87
463.50	11861.84
463.68	11602.04
463.86	11854.81
464.05	11793.96
464.23	11782.26
464.41	12035.03
464.59	11700.34
464.78	12198.87
464.96	12112.27
465.14	11957.80
465.32	12051.42
465.50	12212.92
465.69	12229.30
465.87	12233.98
466.05	12013.97
466.23	12039.72
466.41	12425.90
466.60	12449.31
466.78	12088.87
466.96	12308.88
467.14	12252.70
467.32	12294.83
467.51	12482.08
467.69	12559.31
467.87	12627.19
468.05	12538.25
468.23	12299.52
468.41	12561.66
468.60	12865.92
468.78	12760.60
468.96	12723.15
469.14	12835.50
469.32	13163.17
469.50	12947.84
469.69	13198.28
469.87	13102.32
470.05	13256.79
470.23	13411.27
470.41	13207.64
470.59	13399.57
470.77	13294.24
470.95	13406.59
471.14	13467.44
471.32	13163.17
471.50	13422.97
471.68	13467.44
471.86	13722.56
472.04	13799.80
472.22	14256.20
472.40	13781.07
472.58	13984.70
472.77	13827.88
472.95	14389.61
473.13	14649.41
473.31	14024.49
473.49	14024.49
473.67	14125.13
473.85	14267.91
474.03	14792.19
474.21	14736.01
474.39	14839.00
474.57	14686.86
474.75	15290.72
474.93	15314.13
475.12	15215.82
475.30	15234.55
475.48	15101.14
475.66	15206.46
475.84	15047.30
476.02	15576.27
476.20	15545.84
476.38	15709.68
476.56	16077.14
476.74	15903.94
476.92	16149.70
477.10	15641.80
477.28	16091.18
477.46	16365.03
477.64	16262.04
477.82	16596.74
478.00	16985.27
478.18	16875.26
478.36	17067.19
478.54	17151.45
478.72	17476.78
478.90	17359.75
479.08	17703.81
479.26	17549.34
479.44	17937.87
479.62	17490.82
479.80	18188.30
479.98	18398.95
480.16	18504.28
480.34	18527.68
480.52	18735.99
480.70	18698.54
480.88	18480.87
481.06	18773.44
481.24	18948.98
481.41	19187.71
481.59	19522.41
481.77	19536.45
481.95	19740.08
482.13	19812.63
482.31	19777.53
482.49	20240.95
482.67	20313.51
482.85	20341.60
483.03	20250.32
483.21	20889.28
483.39	21128.02
483.57	20840.13
483.74	21341.00
483.92	21561.02
484.10	21310.58
484.28	21905.07
484.46	22192.96
484.64	22239.77
484.82	22192.96
485.00	22443.40
485.18	22810.86
485.35	23047.26
485.53	22855.33
485.71	22747.67
485.89	23688.56
486.07	23491.96
486.25	23445.15
486.43	23454.51
486.61	24046.66
486.78	24161.35
486.96	24521.79
487.14	24783.93
487.32	24629.46
487.50	24856.49
487.68	25003.94
487.85	25399.49
488.03	25675.68
488.21	25692.06
488.39	26368.48
488.57	26132.08
488.75	26478.48
488.92	26593.17
489.10	26597.85
489.28	26962.97
489.46	26967.65
489.64	27147.87
489.81	27831.31
489.99	27859.40
490.17	27768.12
490.35	28507.72
490.53	28641.14
490.70	28402.40
490.88	28388.36
491.06	28849.44
491.24	29184.14
491.41	29268.40
491.59	29088.18
491.77	29748.21
491.95	29883.96
492.13	29942.47
492.30	30246.74
492.48	30230.36
492.66	30560.37
492.84	30429.30
493.01	30408.24
493.19	30731.23
493.37	31051.89
493.54	31126.78
493.72	31915.54
493.90	31868.73
494.08	31997.46
494.25	32098.11
494.43	32285.35
494.61	32474.93
494.79	32421.10
494.96	32547.49
495.14	32968.79
495.32	33247.31
495.49	33390.08
495.67	33020.28
495.85	33631.16
496.02	33909.68
496.20	34012.66
496.38	33961.17
496.55	34113.31
496.73	34948.88
496.91	34384.81
497.09	35185.27
497.26	35129.10
497.44	35093.99
497.62	35311.66
497.79	36177.66
497.97	35700.19
498.14	36011.48
498.32	36046.59
498.50	36683.22
498.67	36575.55
498.85	37158.34
499.03	37060.04
499.20	36549.81
499.38	37081.11
499.56	37181.75
499.73	37249.63
499.91	37816.04
500.08	37769.22
500.26	37406.44
500.44	37565.60
500.61	38199.88
500.79	37736.46
500.97	38726.50
501.14	38925.45
501.32	38766.29
501.49	38279.46
501.67	38993.32
501.84	38918.43
502.02	39082.27
502.20	39391.22
502.37	39508.24
502.55	39489.52
502.72	39452.07
502.90	39454.41
503.07	39697.83
503.25	40095.72
503.43	39992.73
503.60	40158.91
503.78	40680.85
503.95	40715.96
504.13	40343.81
504.30	40517.01
504.48	40353.18
504.65	40875.12
504.83	41518.76
505.01	41277.69
505.18	41481.31
505.36	41830.05
505.53	41172.36
505.71	41727.07
505.88	42026.66
506.06	41661.54
506.23	42230.29
506.41	42291.14
506.58	42068.79
506.76	42368.38
506.93	42705.41
507.11	42845.85
507.28	42696.05
507.46	42665.63
507.63	43049.47
507.81	43463.75
507.98	42899.68
508.16	43222.67
508.33	43543.33
508.50	43643.97
508.68	43475.45
508.85	44142.50
509.03	44039.52
509.20	44205.70
509.38	44481.88
509.55	44250.17
509.73	44591.89
509.90	44601.25
510.08	44891.48
510.25	44795.51
510.42	45422.78
510.60	45223.83
510.77	45315.11
510.95	45542.14
511.12	45282.34
511.30	45415.76
511.47	45265.96
511.64	45572.57
511.82	46167.07
511.99	45881.52
512.17	46167.07
512.34	46024.29
512.51	46710.07
512.69	46670.28
512.86	46576.66
513.04	46693.69
513.21	46553.26
513.38	47196.90
513.56	47388.83
513.73	46904.34
513.90	47098.60
514.08	47206.26
514.25	47491.81
514.43	47674.37
514.60	47744.59
514.77	47721.18
514.95	47845.23
515.12	48023.11
515.29	47955.24
515.47	48039.50
515.64	48374.19
515.81	48341.42
515.99	48458.45
516.16	48769.74
516.33	48435.05
516.51	49354.88
516.68	48776.76
516.85	48732.29
517.03	49191.04
517.20	49022.52
517.37	48631.65
517.54	48877.41
517.72	49127.84
517.89	49230.83
518.06	49109.12
518.24	49111.46
518.41	49275.30
518.58	49729.36
518.75	49488.29
518.93	50047.68
519.10	49518.71
519.27	49876.82
519.45	49830.01
519.62	50188.11
519.79	50157.68
519.96	50096.83
520.14	50363.65
520.31	50272.37
520.48	50873.88
520.65	50581.32
520.83	50958.14
521.00	51112.62
521.17	50483.01
521.34	50623.45
521.52	51054.11
521.69	50838.78
521.86	51182.84
522.03	51409.87
522.20	51309.22
522.38	51491.79
522.55	51526.89
522.72	51349.01
522.89	51416.89
523.07	51917.76
523.24	51594.77
523.41	52046.49
523.58	51494.13
523.75	52053.51
523.92	52107.35
524.10	52168.20
524.27	52137.77
524.44	52317.99
524.61	52374.17
524.78	52116.71
524.96	52430.34
525.13	52666.73
525.30	52554.39
525.47	52596.52
525.64	52371.83
525.81	52692.48
525.98	52935.90
526.16	52626.95
526.33	52893.77
526.50	53132.50
526.67	52741.63
526.84	53354.85
527.01	52849.30
527.18	53020.16
527.36	53071.65
527.53	53102.07
527.70	53675.51
527.87	53375.92
528.04	53076.33
528.21	53539.75
528.38	53588.91
528.55	53415.71
528.72	53483.58
528.89	53607.63
529.07	53656.78
529.24	53392.30
529.41	53883.81
529.58	53755.08
529.75	53701.25
529.92	53947.01
530.09	53970.41
530.26	53958.71
530.43	54351.92
530.60	53757.42
530.77	54049.99
530.94	54358.94
531.11	54066.38
531.28	54234.89
531.46	54426.82
531.63	54382.35
531.80	54302.77
531.97	54672.57
532.14	54611.72
532.31	54564.91
532.48	54937.05
532.65	54920.67
532.82	54536.82
532.99	54857.48
533.16	54529.80
533.33	54925.35
533.50	55121.96
533.67	55018.97
533.84	55154.72
534.01	54918.33
534.18	55058.76
534.35	55288.13
534.52	55093.87
534.69	55426.23
534.86	55437.93
535.03	55367.71
535.20	55334.95
535.37	55529.21
535.54	55552.62
535.71	55433.25
535.88	55674.32
536.05	55758.58
536.22	55416.86
536.38	55945.83
536.55	55707.09
536.72	55824.12
536.89	55625.17
537.06	55983.27
537.23	55903.70
537.40	55828.80
537.57	55899.01
537.74	55962.21
537.91	56308.61
538.08	56259.46
538.25	55791.35
538.42	56041.79
538.59	56200.94
538.75	55697.73
538.92	56261.80
539.09	56306.27
539.26	56261.80
539.43	56245.41
539.60	56278.18
539.77	56804.80
539.94	56619.90
540.11	56353.08
540.28	56502.87
540.44	56484.15
540.61	56453.72
540.78	56718.20
540.95	56605.86
541.12	56369.46
541.29	56542.66
541.46	56673.73
541.62	56743.95
541.79	56640.96
541.96	56594.15
542.13	56762.67
542.30	56594.15
542.47	56900.76
542.63	57125.46
542.80	57015.45
542.97	57193.33
543.14	57134.82
543.31	57352.49
543.48	57434.41
543.64	57490.58
543.81	57415.68
543.98	57357.17
544.15	57621.65
544.32	57577.18
544.48	57542.07
544.65	57408.66
544.82	57621.65
544.99	57403.98
545.16	57570.16
545.32	57588.88
545.49	57766.76
545.66	57883.79
545.83	57858.04
546.00	57822.93
546.16	57949.32
546.33	57471.85
546.50	57516.32
546.67	57939.96
546.83	57666.12
547.00	57916.56
547.17	57829.96
547.34	57979.75
547.50	58054.65
547.67	58300.40
547.84	57902.51
548.00	58225.51
548.17	58300.40
548.34	58101.46
548.51	58457.22
548.67	58370.62
548.84	58365.94
549.01	58358.92
549.18	58461.90
549.34	58258.27
549.51	58337.85
549.68	58269.98
549.84	58265.30
550.01	58754.47
550.18	58429.13
550.34	58515.73
550.51	58656.17
550.68	58464.24
550.84	58328.49
551.01	58721.70
551.18	58571.91
551.34	58614.04
551.51	58543.82
551.68	58681.91
551.84	58705.32
552.01	58475.94
552.18	59014.27
552.34	58644.46
552.51	58848.09
552.68	58670.21
552.84	58698.30
553.01	59185.13
553.18	59051.72
553.34	59037.67
553.51	58850.43
553.67	58780.21
553.84	59025.97
554.01	58946.39
554.17	59285.77
554.34	59058.74
554.51	59000.22
554.67	59051.72
554.84	59091.51
555.00	59044.69
555.17	59224.92
555.33	59058.74
555.50	58986.18
555.67	59037.67
555.83	59004.91
556.00	59234.28
556.16	59372.37
556.33	59531.53
556.50	59344.28
556.66	59456.63
556.83	59110.23
556.99	59686.00
557.16	59690.68
557.32	59428.54
557.49	59868.56
557.65	59629.83
557.82	59463.65
557.98	59447.27
558.15	59262.36
558.32	59671.96
558.48	59491.74
558.65	59505.78
558.81	59484.72
558.98	59774.94
559.14	59564.29
559.31	59629.83
559.47	59604.08
559.64	59838.14
559.80	60034.74
559.97	59877.93
560.13	59732.81
560.30	59716.43
560.46	59987.93
560.63	59969.21
560.79	59877.93
560.96	59994.95
561.12	60044.10
561.29	59948.14
561.45	60109.64
561.61	59838.14
561.78	59913.03
561.94	59941.12
562.11	59882.61
562.27	60004.31
562.44	60210.28
562.60	59962.18
562.77	59908.35
562.93	59948.14
563.10	60236.03
563.26	59945.80
563.42	60458.38
563.59	60137.72
563.75	60079.21
563.92	60250.07
564.08	60189.22
564.24	60261.77
564.41	60360.08
564.57	60343.69
564.74	60179.85
564.90	60296.88
565.07	60294.54
565.23	60147.09
565.39	60252.41
565.56	60226.66
565.72	60147.09
565.88	60463.06
566.05	60177.51
566.21	60224.32
566.38	60374.12
566.54	60514.55
566.70	60437.31
566.87	60509.87
567.03	60317.95
567.19	60568.38
567.36	60306.24
567.52	60378.80
567.68	60715.84
567.85	60519.23
568.01	60734.56
568.17	60350.71
568.34	60324.97
568.50	60329.65
568.66	60540.30
568.83	60657.32
568.99	60313.26
569.15	60425.61
569.32	60694.77
569.48	60364.76
569.64	60535.62
569.81	60427.95
569.97	60360.08
570.13	60612.85
570.30	60367.10
570.46	60683.07
570.62	60617.53
570.78	60760.31
570.95	60654.98
571.11	60760.31
571.27	60629.24
571.43	60757.97
571.60	60743.92
571.76	60566.04
571.92	60619.88
572.09	60776.69
572.25	60823.50
572.41	60711.16
572.57	60720.52
572.74	61003.72
572.90	60622.22
573.06	60896.06
573.22	60800.10
573.38	60650.30
573.55	60781.37
573.71	61024.79
573.87	60889.04
574.03	60645.62
574.20	60598.81
574.36	60910.10
574.52	60882.02
574.68	61132.45
574.84	60942.87
575.01	60870.31
575.17	60779.03
575.33	60746.26
575.49	60809.46
575.65	60704.13
575.82	60720.52
575.98	60985.00
576.14	60816.48
576.30	60924.14
576.46	60774.35
576.62	60699.45
576.79	60853.93
576.95	60760.31
577.11	60842.23
577.27	60963.93
577.43	60853.93
577.59	60931.17
577.75	60825.84
577.92	60877.33
578.08	60970.96
578.24	60956.91
578.40	61205.01
578.56	60996.70
578.72	61034.15
578.88	61102.03
579.04	61219.05
579.21	61123.09
579.37	61263.52
579.53	61113.73
579.69	60809.46
579.85	60828.18
580.01	60891.38
580.17	60914.78
580.33	61106.71
580.49	61183.94
580.65	61111.39
580.82	60968.61
580.98	61022.45
581.14	60905.42
581.30	61233.10
581.46	60797.76
581.62	61034.15
581.78	60849.25
581.94	61137.13
582.10	61045.85
582.26	61169.90
582.42	60938.19
582.58	60935.85
582.74	61078.62
582.90	61095.00
583.06	61092.66
583.22	60802.44
583.38	61038.83
583.54	61256.50
583.70	61092.66
583.86	61179.26
584.02	61034.15
584.18	61235.44
584.34	61193.31
584.50	61137.13
584.66	61022.45
584.82	60928.83
584.98	61207.35
585.14	61270.54
585.30	61064.58
585.46	61062.24
585.62	61209.69
585.78	61317.35
585.94	61015.43
586.10	61125.43
586.26	61296.29
586.42	61123.09
586.58	61104.37
586.74	61214.37
586.90	61043.51
587.06	60980.32
587.22	61329.06
587.38	61223.73
587.54	61300.97
587.70	61357.14
587.86	61153.52
588.02	61279.91
588.18	61284.59
588.34	61240.12
588.49	61064.58
588.65	61027.13
588.81	61247.14
588.97	61022.45
589.13	61251.82
589.29	61385.23
589.45	61425.02
589.61	61265.86
589.77	61591.20
589.93	61542.05
590.08	61371.19
590.24	61408.64
590.40	61516.30
590.56	61436.72
590.72	61406.30
590.88	61385.23
591.04	61429.70
591.20	61738.65
591.35	61352.46
591.51	61843.98
591.67	61539.71
591.83	61703.54
591.99	61544.39
592.15	61563.11
592.31	61614.60
592.46	61448.42
592.62	61462.47
592.78	61612.26
592.94	61623.96
593.10	61474.17
593.26	61350.12
593.41	61464.81
593.57	61539.71
593.73	61633.33
593.89	61876.74
594.05	61691.84
594.20	61656.73
594.36	61776.10
594.52	61635.67
594.68	61506.94
594.84	61523.32
594.99	61591.20
595.15	61563.11
595.31	61715.25
595.47	61570.13
595.62	61560.77
595.78	61591.20
595.94	61635.67
596.10	61895.47
596.25	61839.29
596.41	61776.10
596.57	61694.18
596.73	61689.50
596.88	61722.27
597.04	61815.89
597.20	61726.95
597.36	61757.38
597.51	61759.72
597.67	61553.75
597.83	61764.40
597.99	61787.80
598.14	61783.12
598.30	61855.68
598.46	61726.95
598.61	61736.31
598.77	61799.50
598.93	61813.55
599.09	61661.41
599.24	62019.52
599.40	61860.36
599.56	61846.32
599.71	61820.57
599.87	61904.83
600.03	61975.05
600.18	61860.36
600.34	61792.48
600.50	61633.33
600.65	61757.38
600.81	61869.72
600.97	61787.80
601.12	61736.31
601.28	61698.86
601.44	61715.25
601.59	61909.51
601.75	61649.71
601.91	62033.56
602.06	61865.04
602.22	62007.81
602.37	61886.10
602.53	61726.95
602.69	61925.89
602.84	61815.89
603.00	61848.66
603.16	61724.61
603.31	62028.88
603.47	61982.07
603.62	61890.79
603.78	62087.39
603.94	61876.74
604.09	62096.75
604.25	61916.53
604.40	61797.16
604.56	61799.50
604.71	61935.26
604.87	61888.45
605.03	61757.38
605.18	61886.10
605.34	61975.05
605.49	61740.99
605.65	61956.32
605.80	61977.39
605.96	62003.13
606.12	62066.33
606.27	61982.07
606.43	61733.97
606.58	62005.47
606.74	61766.74
606.89	61677.80
607.05	61895.47
607.20	62042.92
607.36	61715.25
607.51	61825.25
607.67	61577.15
607.82	61748.01
607.98	61668.44
608.13	61698.86
608.29	61689.50
608.44	61855.68
608.60	61609.92
608.75	61977.39
608.91	61694.18
609.06	61609.92
609.22	61872.06
609.37	61647.37
609.53	61972.70
609.68	61661.41
609.84	61539.71
609.99	61694.18
610.15	61829.93
610.30	61834.61
610.46	61684.82
610.61	61776.10
610.76	61745.67
610.92	61663.75
611.07	61572.47
611.23	61502.26
611.38	61759.72
611.54	61614.60
611.69	61740.99
611.84	61499.92
612.00	61511.62
612.15	61581.84
612.31	61518.64
612.46	61436.72
612.62	61640.35
612.77	61476.51
612.92	61769.08
613.08	61652.05
613.23	61663.75
613.39	61415.66
613.54	61436.72
613.69	61565.45
613.85	61453.11
614.00	61478.85
614.15	61715.25
614.31	61572.47
614.46	61755.03
614.62	61389.91
614.77	61483.53
614.92	61478.85
615.08	61425.02
615.23	61614.60
615.38	61633.33
615.54	61504.60
615.69	61584.18
615.84	61495.24
616.00	61322.04
616.15	61462.47
616.30	61539.71
616.46	61282.25
616.61	61284.59
616.76	61546.73
616.92	61158.20
617.07	61436.72
617.22	61392.25
617.37	61261.18
617.53	61623.96
617.68	61595.88
617.83	61415.66
617.99	61354.80
618.14	61399.27
618.29	61249.48
618.45	61214.37
618.60	61249.48
618.75	61291.61
618.90	61179.26
619.06	61113.73
619.21	61258.84
619.36	61375.87
619.51	61233.10
619.67	60938.19
619.82	60940.53
619.97	61263.52
620.12	61223.73
620.28	61106.71
620.43	61305.65
620.58	61195.65
620.73	60985.00
620.89	61183.94
621.04	61123.09
621.19	61160.54
621.34	61034.15
621.49	61034.15
621.65	60921.80
621.80	61179.26
621.95	60898.40
622.10	61078.62
622.25	61092.66
622.41	60863.29
622.56	60781.37
622.71	60809.46
622.86	61043.51
623.01	61024.79
623.16	60858.61
623.32	60874.99
623.47	60900.74
623.62	60865.63
623.77	61015.43
623.92	61186.28
624.07	61073.94
624.23	60846.91
624.38	60825.84
624.53	60786.05
624.68	60605.83
624.83	60961.59
624.98	60715.84
625.13	60580.09
625.29	60814.14
625.44	60844.57
625.59	60790.73
625.74	60692.43
625.89	60568.38
626.04	60598.81
626.19	60601.15
626.34	60608.17
626.49	60640.94
626.65	60444.33
626.80	60530.93
626.95	60519.23
627.10	60439.65
627.25	60390.50
627.40	60282.84
627.55	60743.92
627.70	60336.67
627.85	60378.80
628.00	60341.35
628.15	60666.69
628.30	60111.98
628.45	60341.35
628.60	60165.81
628.76	60383.48
628.91	60647.96
629.06	60556.68
629.21	60449.02
629.36	60397.52
629.51	60292.20
629.66	60156.45
629.81	60191.56
629.96	60233.69
630.11	60266.45
630.26	60313.26
630.41	60268.79
630.56	60390.50
630.71	60233.69
630.86	60074.53
631.01	60165.81
631.16	60172.83
631.31	60107.30
631.46	59845.16
631.61	60126.02
631.76	60315.61
631.91	60046.44
632.06	60013.68
632.21	60130.70
632.36	60224.32
632.51	59812.39
632.66	59760.90
632.81	59721.11
632.96	59999.63
633.10	60189.22
633.25	59779.62
633.40	59959.84
633.55	59964.52
633.70	59751.54
633.85	59985.59
634.00	59868.56
634.15	59803.03
634.30	59753.88
634.45	59831.11
634.60	59746.86
634.75	59896.65
634.90	59723.45
635.05	59669.62
635.19	59784.30
635.34	59854.52
635.49	59674.30
635.64	59817.07
635.79	59611.10
635.94	59793.67
636.09	59927.08
636.24	59742.17
636.39	59599.40
636.53	59709.41
636.68	59632.17
636.83	59484.72
636.98	59695.36
637.13	59482.37
637.28	59634.51
637.43	59650.89
637.57	59494.08
637.72	59578.34
637.87	59697.70
638.02	59461.31
638.17	59634.51
638.32	59498.76
638.46	59323.22
638.61	59384.07
638.76	59470.67
638.91	59423.86
639.06	59391.09
639.20	59440.24
639.35	59360.67
639.50	59433.22
639.65	59367.69
639.80	59384.07
639.94	59196.83
640.09	59416.84
640.24	59365.35
640.39	59079.80
640.54	59063.42
640.68	59377.05
640.83	59302.15
640.98	59236.62
641.13	59311.52
641.27	59592.38
641.42	59018.95
641.57	58939.37
641.72	59007.25
641.86	58974.48
642.01	58890.22
642.16	59047.04
642.31	59114.91
642.45	59133.63
642.60	59021.29
642.75	59201.51
642.90	59028.31
643.04	59164.06
643.19	58939.37
643.34	59037.67
643.48	58965.12
643.63	58869.15
643.78	58930.01
643.93	58913.62
644.07	58958.09
644.22	58906.60
644.37	58740.42
644.51	59000.22
644.66	58934.69
644.81	58899.58
644.95	58576.59
645.10	58911.28
645.25	58752.13
645.39	58679.57
645.54	58681.91
645.69	58614.04
645.83	58721.70
645.98	58834.05
646.13	58829.37
646.27	58724.04
646.42	58660.85
646.57	58733.40
646.71	58773.19
646.86	58794.26
647.00	58855.11
647.15	58431.47
647.30	58656.17
647.44	58642.12
647.59	58684.25
647.74	58522.76
647.88	58749.79
648.03	58784.90
648.17	58588.29
648.32	58450.20
648.47	58621.06
648.61	58387.00
648.76	58632.76
648.90	58340.19
649.05	58532.12
649.20	58625.74
649.34	58485.31
649.49	58515.73
649.63	58585.95
649.78	58747.45
649.92	58314.45
650.07	58569.57
650.21	58164.65
650.36	58213.80
650.51	58232.53
650.65	58560.20
650.80	58379.98
650.94	58253.59
651.09	58045.29
651.23	57890.81
651.38	58220.83
651.52	58099.12
651.67	58061.67
651.81	57986.77
651.96	58085.07
652.10	58007.84
652.25	58089.76
652.39	57825.28
652.54	58049.97
652.68	57853.36
652.83	57822.93
652.97	57979.75
653.12	57820.59
653.26	57841.66
653.41	58068.69
653.55	58028.90
653.70	58071.03
653.84	58012.52
653.99	58000.82
654.13	57729.31
654.27	57970.39
654.42	57715.27
654.56	57675.48
654.71	57832.30
654.85	57801.87
655.00	57869.75
655.14	57839.32
655.29	57846.34
655.43	57471.85
655.57	57652.08
655.72	57619.31
655.86	57698.89
656.01	57539.73
656.15	57488.24
656.30	57869.75
656.44	57762.08
656.58	57750.38
656.73	57708.25
656.87	57521.01
657.01	57572.50
657.16	57623.99
657.30	57485.90
657.45	57565.48
657.59	57593.56
657.73	57242.48
657.88	57132.48
658.02	57298.65
658.16	57254.18
658.31	57052.90
658.45	57275.25
658.60	57174.61
658.74	57146.52
658.88	57167.58
659.03	57116.09
659.17	57034.17
659.31	57261.21
659.46	57148.86
659.60	56926.51
659.74	57088.01
659.89	57031.83
660.03	56968.64
660.17	56870.34
660.32	56680.75
660.46	56959.28
660.60	56713.52
660.74	56921.83
660.89	56828.21
661.03	56556.70
661.17	56615.22
661.32	56364.78
661.46	56589.47
661.60	56655.01
661.74	56769.69
661.89	56647.99
662.03	56439.68
662.17	56488.83
662.31	56416.27
662.46	56884.38
662.60	56317.97
662.74	56306.27
662.88	56156.47
663.03	56088.60
663.17	56133.07
663.31	55978.59
663.45	56053.49
663.60	56107.32
663.74	55681.34
663.88	55908.38
664.02	55920.08
664.17	56179.88
664.31	55737.52
664.45	56004.34
664.59	55758.58
664.73	55936.46
664.88	55601.77
665.02	55231.96
665.16	55636.87
665.30	55505.80
665.44	55358.35
665.59	55311.54
665.73	55791.35
665.87	55227.28
666.01	55522.19
666.15	55341.97
666.29	55316.22
666.44	55346.65
666.58	55449.63
666.72	55072.81
666.86	55133.66
667.00	54988.55
667.14	54658.53
667.28	54805.98
667.43	54747.47
667.57	55014.29
667.71	54990.89
667.85	54784.92
667.99	54827.05
668.13	54527.46
668.27	54588.31
668.41	54546.18
668.56	54635.13
668.70	54632.78
668.84	54270.00
668.98	54330.86
669.12	54424.48
669.26	54370.64
669.40	54220.85
669.54	54560.23
669.68	54340.22
669.82	54260.64
669.96	54066.38
670.10	54152.97
670.25	54255.96
670.39	53881.47
670.53	54162.34
670.67	53719.98
670.81	54326.17
670.95	54131.91
671.09	53691.89
671.23	53586.57
671.37	53705.93
671.51	53607.63
671.65	53469.54
671.79	53506.99
671.93	53148.88
672.07	53516.35
672.21	53141.86
672.35	52992.07
672.49	53088.03
672.63	53078.67
672.77	53062.29
672.91	52863.34
673.05	52830.57
673.19	52626.95
673.33	52498.22
673.47	52708.86
673.61	52680.78
673.75	52753.33
673.89	51973.94
674.03	52425.66
674.17	52425.66
674.31	51945.85
674.45	51704.77
674.59	52135.43
674.73	51922.44
674.87	51824.14
675.01	51442.63
675.15	51618.17
675.29	51459.02
675.43	51714.14
675.56	51320.93
675.70	51416.89
675.84	51409.87
675.98	50234.92
676.12	51660.30
676.26	51234.33
676.40	51339.65
676.54	50894.95
676.68	50866.86
676.82	50232.58
676.96	50365.99
677.10	50286.41
677.23	50073.42
677.37	50302.79
677.51	49858.09
677.65	50050.02
677.79	49125.50
677.93	49350.20
678.07	49357.22
678.21	49078.69
678.34	49387.64
678.48	49181.68
678.62	48896.13
678.76	48931.24
678.90	48655.06
679.04	48769.74
679.18	48797.83
679.31	48388.24
679.45	47899.06
679.59	48357.81
679.73	48573.14
679.87	48432.71
680.00	47255.42
680.14	47297.55
680.28	47611.18
680.42	47440.32
680.56	46958.17
680.70	46930.08
680.83	47262.44
680.97	47035.41
681.11	47447.34
681.25	47077.54
681.39	46838.80
681.52	46630.49
681.66	46639.86
681.80	46005.57
681.94	45780.88
682.07	45825.35
682.21	45771.52
682.35	45338.52
682.49	45205.11
682.62	45408.73
682.76	45242.56
682.90	45200.43
683.04	45500.01
683.17	45315.11
683.31	44725.30
683.45	44851.69
683.59	44662.10
683.72	43739.93
683.86	44598.91
684.00	44669.12
684.13	44301.66
684.27	43927.17
684.41	44222.08
684.55	43548.01
684.68	43714.19
684.82	43110.33
684.96	42990.96
685.09	43171.18
685.23	42590.73
685.37	42625.84
685.50	42803.72
685.64	42417.53
685.78	42569.66
685.91	42534.56
686.05	42239.65
686.19	41394.71
686.32	41598.34
686.46	41095.13
686.60	40903.20
686.73	41160.66
686.87	40854.05
687.01	41743.45
687.14	40790.86
687.28	40549.78
687.42	40842.35
687.55	40229.13
687.69	40442.12
687.82	40261.90
687.96	39929.54
688.10	39746.98
688.23	39751.66
688.37	39702.51
688.50	39180.57
688.64	39220.36
688.78	38801.40
688.91	38717.14
689.05	38808.42
689.18	39021.41
689.32	38101.58
689.46	37596.03
689.59	37724.75
689.73	37750.50
689.86	37785.61
690.00	37542.19
690.13	37710.71
690.27	37233.24
690.41	37523.47
690.54	37184.09
690.68	37483.68
690.81	37020.25
690.95	37022.59
691.08	36723.01
691.22	36369.58
691.35	36432.78
691.49	36610.66
691.62	36252.56
691.76	35772.75
691.89	35751.68
692.03	35594.87
692.16	35573.80
692.30	35625.29
692.43	35433.37
692.57	34845.90
692.70	34878.66
692.84	34888.03
692.97	34785.04
693.11	34693.76
693.24	33954.15
693.38	33804.36
693.51	34110.97
693.65	33996.28
693.78	33647.54
693.92	33518.81
694.05	33518.81
694.19	33563.28
694.32	33134.96
694.45	33085.81
694.59	32938.36
694.72	32175.34
694.86	33046.02
694.99	32680.90
695.13	32151.94
695.26	31878.10
695.39	31824.26
695.53	32002.14
695.66	32002.14
695.80	31557.44
695.93	31374.88
696.07	31199.34
696.20	30883.37
696.33	31007.42
696.47	30658.68
696.60	30843.58
696.73	30625.91
696.87	30944.22
697.00	30202.27
697.14	30230.36
697.27	30265.47
697.40	30096.95
697.54	30050.14
697.67	29867.58
697.80	29752.89
697.94	29230.95
698.07	29060.09
698.21	28746.46
698.34	29240.31
698.47	28718.37
698.61	28435.17
698.74	28535.81
698.87	28404.74
699.01	28070.04
699.14	28615.39
699.27	27690.88
699.40	28072.39
699.54	28210.48
699.67	27887.48
699.80	27913.23
699.94	27660.45
700.07	27393.63
700.20	27049.57
700.34	27302.35
700.47	26876.37
700.60	26497.20
700.73	26670.40
700.87	25956.54
701.00	26141.44
701.13	26211.66
701.26	26022.08
701.40	26235.06
701.53	25745.89
701.66	26141.44
701.79	25343.32
701.93	25137.35
702.06	25020.33
702.19	25043.73
702.32	24732.44
702.46	25064.80
702.59	24620.10
702.72	24650.52
702.85	24711.38
702.99	24531.15
703.12	24416.47
703.25	24140.29
703.38	23915.59
703.51	23889.85
703.65	23730.69
703.78	23538.77
703.91	23316.42
704.04	23384.29
704.17	23208.75
704.31	23236.84
704.44	22916.19
704.57	22965.34
704.70	22742.99
704.83	22642.34
704.96	22888.10
705.10	22115.72
705.23	22302.96
>>>>>End Processed Spectral Data<<<<<
