SpectraSuite Data File
++++++++++++++++++++++++++++++++++++
Date: Fri Oct 25 10:47:28 EDT 2013
User: price-jones
Dark Spectrum Present: No
Reference Spectrum Present: No
Number of Sampled Component Spectra: 1
Spectrometers: USB2+H05261
Integration Time (usec): 100000 (USB2+H05261)
Spectra Averaged: 1 (USB2+H05261)
Boxcar Smoothing: 0 (USB2+H05261)
Correct for Electrical Dark: No (USB2+H05261)
Strobe/Lamp Enabled: No (USB2+H05261)
Correct for Detector Non-linearity: No (USB2+H05261)
Correct for Stray Light: No (USB2+H05261)
Number of Pixels in Processed Spectrum: 2048
>>>>>Begin Processed Spectral Data<<<<<
365.73	145.11
365.92	145.11
366.12	145.11
366.32	124.05
366.52	0.00
366.72	2.34
366.91	44.47
367.11	81.92
367.31	58.51
367.51	4.68
367.70	0.00
367.90	42.13
368.10	58.51
368.30	117.03
368.49	11.70
368.69	60.85
368.89	81.92
369.09	74.90
369.28	28.09
369.48	58.51
369.68	110.01
369.87	60.85
370.07	196.60
370.27	147.45
370.47	212.99
370.66	425.98
370.86	411.93
371.06	407.25
371.25	437.68
371.45	395.55
371.65	407.25
371.84	334.70
372.04	437.68
372.24	517.26
372.44	496.19
372.63	456.40
372.83	470.45
373.03	486.83
373.22	491.51
373.42	482.15
373.62	568.75
373.81	458.74
374.01	486.83
374.21	489.17
374.40	500.87
374.60	547.69
374.79	531.30
374.99	531.30
375.19	594.50
375.38	641.31
375.58	582.79
375.78	582.79
375.97	622.58
376.17	643.65
376.37	603.86
376.56	545.34
376.76	447.04
376.95	531.30
377.15	507.90
377.35	641.31
377.54	580.45
377.74	610.88
377.93	596.84
378.13	587.47
378.33	655.35
378.52	594.50
378.72	608.54
378.91	622.58
379.11	650.67
379.31	622.58
379.50	683.44
379.70	741.95
379.89	599.18
380.09	613.22
380.28	657.69
380.48	662.37
380.68	620.24
380.87	690.46
381.07	655.35
381.26	692.80
381.46	613.22
381.65	594.50
381.85	636.63
382.04	641.31
382.24	643.65
382.43	660.03
382.63	681.10
382.83	695.14
383.02	751.31
383.22	732.59
383.41	645.99
383.61	624.92
383.80	739.61
384.00	685.78
384.19	737.27
384.39	748.97
384.58	685.78
384.78	814.51
384.97	725.57
385.17	704.50
385.36	758.33
385.56	805.14
385.75	777.06
385.95	723.23
386.14	781.74
386.34	802.80
386.53	851.96
386.72	760.67
386.92	760.67
387.11	823.87
387.31	844.93
387.50	784.08
387.70	791.10
387.89	847.27
388.09	814.51
388.28	856.64
388.48	908.13
388.67	882.38
388.86	858.98
389.06	929.19
389.25	896.43
389.45	837.91
389.64	828.55
389.84	870.68
390.03	926.85
390.22	926.85
390.42	936.21
390.61	894.08
390.81	877.70
391.00	933.87
391.19	1018.13
391.39	961.96
391.58	968.98
391.78	983.02
391.97	905.79
392.16	912.81
392.36	1062.60
392.55	959.62
392.75	971.32
392.94	983.02
393.13	1057.92
393.33	889.40
393.52	971.32
393.71	1039.20
393.91	1121.12
394.10	1064.94
394.29	1111.75
394.49	1076.65
394.68	1032.18
394.88	1060.26
395.07	1118.78
395.26	1114.10
395.46	1104.73
395.65	1046.22
395.84	1179.63
396.04	1102.39
396.23	1036.86
396.42	1149.20
396.62	1156.22
396.81	1071.97
397.00	1186.65
397.19	1153.88
397.39	1217.08
397.58	1247.51
397.77	1207.72
397.97	1165.59
398.16	1224.10
398.35	1207.72
398.55	1245.16
398.74	1254.53
398.93	1394.96
399.12	1240.48
399.32	1357.51
399.51	1320.06
399.70	1409.00
399.90	1348.15
400.09	1411.34
400.28	1341.13
400.47	1406.66
400.67	1313.04
400.86	1397.30
401.05	1430.07
401.24	1406.66
401.44	1406.66
401.63	1366.87
401.82	1481.56
402.01	1427.73
402.21	1383.26
402.40	1495.60
402.59	1504.96
402.78	1418.36
402.97	1439.43
403.17	1542.41
403.36	1633.69
403.55	1509.65
403.74	1572.84
403.93	1474.54
404.13	1661.78
404.32	1584.54
404.51	1523.69
404.70	1675.82
404.89	1687.53
405.09	1682.85
405.28	1832.64
405.47	1638.38
405.66	1715.61
405.85	1790.51
406.05	1790.51
406.24	1694.55
406.43	1776.47
406.62	1769.44
406.81	1823.28
407.00	1724.97
407.20	1762.42
407.39	1844.34
407.58	1809.23
407.77	1762.42
407.96	1818.60
408.15	1891.15
408.34	1771.79
408.54	1933.28
408.73	1844.34
408.92	1886.47
409.11	2045.63
409.30	1891.15
409.49	2017.54
409.68	1977.75
409.87	1944.99
410.07	2040.95
410.26	1982.43
410.45	2078.40
410.64	2129.89
410.83	2214.15
411.02	2129.89
411.21	2209.47
411.40	2193.08
411.59	2214.15
411.78	2141.59
411.98	2291.38
412.17	2244.57
412.36	2349.90
412.55	2349.90
412.74	2401.39
412.93	2392.03
413.12	2394.37
413.31	2424.80
413.50	2415.43
413.69	2359.26
413.88	2525.44
414.07	2462.24
414.26	2537.14
414.45	2504.37
414.64	2499.69
414.83	2583.95
415.02	2665.87
415.22	2794.60
415.41	2729.06
415.60	2693.96
415.79	2736.09
415.98	2848.43
416.17	2925.67
416.36	2724.38
416.55	2719.70
416.74	2878.86
416.93	2813.32
417.12	2911.63
417.31	2935.03
417.50	2911.63
417.69	2967.80
417.88	3063.76
418.07	2995.89
418.26	3009.93
418.45	3052.06
418.64	3239.30
418.83	3098.87
419.02	3075.46
419.21	3122.27
419.39	3136.32
419.58	3087.17
419.77	2988.86
419.96	3251.00
420.15	3337.60
420.34	3265.05
420.53	3229.94
420.72	3178.45
420.91	3314.20
421.10	3358.67
421.29	3335.26
421.48	3321.22
421.67	3297.81
421.86	3265.05
422.05	3288.45
422.24	3234.62
422.43	3339.94
422.61	3400.80
422.80	3166.74
422.99	3417.18
423.18	3410.16
423.37	3431.23
423.56	3433.57
423.75	3351.65
423.94	3356.33
424.13	3258.03
424.32	3405.48
424.50	3501.44
424.69	3335.26
424.88	3489.74
425.07	3531.87
425.26	3353.99
425.45	3379.73
425.64	3454.63
425.83	3473.36
426.01	3574.00
426.20	3522.51
426.39	3557.61
426.58	3503.78
426.77	3662.94
426.96	3510.80
427.15	3515.48
427.33	3618.47
427.52	3625.49
427.71	3625.49
427.90	3585.70
428.09	3688.68
428.28	3777.62
428.46	3609.11
428.65	3646.55
428.84	3836.14
429.03	3882.95
429.22	3660.60
429.40	3707.41
429.59	3775.28
429.78	3662.94
429.97	3557.61
430.16	3693.37
430.34	3655.92
430.53	3754.22
430.72	3904.01
430.91	3803.37
431.10	3882.95
431.28	3920.40
431.47	3932.10
431.66	3997.64
431.85	4032.74
432.03	4215.30
432.22	4011.68
432.41	4037.42
432.60	4198.92
432.79	4105.30
432.97	4194.24
433.16	4119.34
433.35	4091.26
433.54	4124.02
433.72	4168.49
433.91	4269.14
434.10	4252.75
434.28	4203.60
434.47	4269.14
434.66	4264.46
434.85	4393.19
435.03	4304.25
435.22	4325.31
435.41	4528.94
435.59	4524.26
435.78	4447.02
435.97	4580.43
436.16	4395.53
436.34	4458.72
436.53	4538.30
436.72	4638.94
436.90	4477.44
437.09	4676.39
437.28	4498.51
437.46	4552.34
437.65	4507.87
437.84	4510.21
438.02	4554.68
438.21	4489.15
438.40	4697.46
438.58	4629.58
438.77	4875.34
438.96	4809.80
439.14	4915.12
439.33	4826.18
439.52	4968.96
439.70	4851.93
439.89	5231.10
440.08	4983.00
440.26	5006.41
440.45	4959.60
440.63	4994.70
440.82	5118.75
441.01	5231.10
441.19	5151.52
441.38	5474.51
441.57	5320.04
441.75	5348.12
441.94	5554.09
442.12	5486.22
442.31	5528.35
442.50	5605.58
442.68	5320.04
442.87	5462.81
443.05	5462.81
443.24	5554.09
443.43	5600.90
443.61	5493.24
443.80	5755.38
443.98	5570.48
444.17	5371.53
444.35	5813.89
444.54	5865.38
444.73	5746.02
444.91	5523.66
445.10	5640.69
445.28	5813.89
445.47	5530.69
445.65	5589.20
445.84	5757.72
446.02	5650.05
446.21	5781.12
446.39	5760.06
446.58	5774.10
446.77	5863.04
446.95	5631.33
447.14	5757.72
447.32	5816.23
447.51	5856.02
447.69	5650.05
447.88	5919.21
448.06	5870.06
448.25	5699.20
448.43	5823.25
448.62	6017.52
448.80	5701.54
448.99	5977.73
449.17	5954.32
449.36	6036.24
449.54	6029.22
449.73	6036.24
449.91	6174.33
450.10	6087.73
450.28	6221.14
450.46	6427.11
450.65	6242.21
450.83	6270.30
451.02	6169.65
451.20	6422.43
451.39	6263.27
451.57	6282.00
451.76	6267.95
451.94	6289.02
452.13	6359.24
452.31	6445.84
452.49	6181.35
452.68	6258.59
452.86	6478.60
453.05	6342.85
453.23	6408.39
453.42	6555.84
453.60	6487.96
453.78	6623.72
453.97	6473.92
454.15	6530.09
454.34	6567.54
454.52	6696.27
454.70	6476.26
454.89	6616.69
455.07	6670.53
455.26	6775.85
455.44	6799.26
455.62	6696.27
455.81	6815.64
455.99	6707.98
456.17	6771.17
456.36	6722.02
456.54	6986.50
456.73	6984.16
456.91	7110.55
457.09	6998.20
457.28	7108.21
457.46	7133.95
457.64	7246.30
457.83	7143.32
458.01	7101.19
458.19	7283.75
458.38	7166.72
458.56	7316.51
458.74	7243.96
458.93	7030.97
459.11	7234.60
459.29	7192.47
459.48	7309.49
459.66	7342.26
459.84	7517.80
460.03	7452.27
460.21	7382.05
460.39	7475.67
460.57	7391.41
460.76	7468.65
460.94	7473.33
461.12	7424.18
461.31	7480.35
461.49	7419.50
461.67	7630.15
461.85	7660.57
462.04	7824.41
462.22	8088.89
462.40	7903.99
462.59	7655.89
462.77	7733.13
462.95	7845.48
463.13	7948.46
463.32	7901.65
463.50	8018.68
463.68	7896.97
463.86	7934.42
464.05	7808.03
464.23	7798.66
464.41	8039.74
464.59	7683.98
464.78	7948.46
464.96	8056.12
465.14	7852.50
465.32	8126.34
465.50	8138.04
465.69	8191.88
465.87	8152.09
466.05	8271.45
466.23	8173.15
466.41	8229.32
466.60	8348.69
466.78	8217.62
466.96	8189.53
467.14	8374.44
467.32	8313.58
467.51	8271.45
467.69	8145.06
467.87	8255.07
468.05	8465.72
468.23	8475.08
468.41	8334.65
468.60	8435.29
468.78	8327.63
468.96	8561.68
469.14	8493.80
469.32	8821.48
469.50	8430.61
469.69	8753.60
469.87	8774.67
470.05	8746.58
470.23	8849.57
470.41	8875.31
470.59	8915.10
470.77	8835.52
470.95	8772.33
471.14	9022.77
471.32	8847.22
471.50	9156.18
471.68	9081.28
471.86	8868.29
472.04	9165.54
472.22	9310.65
472.40	9069.58
472.58	9205.33
472.77	9233.41
472.95	9341.08
473.13	9549.39
473.31	9493.21
473.49	9376.19
473.67	9301.29
473.85	9476.83
474.03	9659.39
474.21	9689.82
474.39	9827.91
474.57	9781.10
474.75	9921.53
474.93	10024.51
475.12	9886.42
475.30	10167.29
475.48	10061.96
475.66	10136.86
475.84	9961.32
476.02	10118.14
476.20	10221.12
476.38	10420.06
476.56	10665.82
476.74	10483.26
476.92	10520.71
477.10	10499.64
477.28	10752.42
477.46	10644.76
477.64	10984.13
477.82	10888.17
478.00	11241.59
478.18	11009.88
478.36	11103.50
478.54	11201.80
478.72	11190.10
478.90	11618.42
479.08	11597.35
479.26	11632.46
479.44	11922.69
479.62	11920.35
479.80	11894.60
479.98	11915.67
480.16	12081.85
480.34	12210.57
480.52	12475.06
480.70	12297.17
480.88	12175.47
481.06	12332.28
481.24	12311.22
481.41	12390.80
481.59	12776.98
481.77	12875.29
481.95	12760.60
482.13	12842.52
482.31	12863.58
482.49	13380.84
482.67	13359.78
482.85	13376.16
483.03	13631.28
483.21	13799.80
483.39	13635.96
483.57	13540.00
483.74	13778.73
483.92	13944.91
484.10	13914.48
484.28	14019.81
484.46	14422.38
484.64	14541.75
484.82	14555.79
485.00	14558.13
485.18	14743.03
485.35	14682.18
485.53	14787.50
485.71	14913.89
485.89	15124.54
486.07	14946.66
486.25	15208.80
486.43	15372.64
486.61	15344.55
486.78	15599.67
486.96	15634.78
487.14	16063.10
487.32	15847.77
487.50	16233.96
487.68	16252.68
487.85	16402.47
488.03	16671.64
488.21	16482.05
488.39	17050.80
488.57	16657.59
488.75	16877.60
488.92	17242.73
489.10	17287.20
489.28	17647.64
489.46	17750.62
489.64	17874.67
489.81	17956.59
489.99	18080.64
490.17	18136.81
490.35	18314.69
490.53	18391.93
490.70	18335.76
490.88	18827.27
491.06	18726.63
491.24	18745.35
491.41	18497.25
491.59	19026.21
491.77	18731.31
491.95	19276.65
492.13	19187.71
492.30	19527.09
492.48	19754.12
492.66	19604.33
492.84	19782.21
493.01	19948.39
493.19	19807.95
493.37	20042.01
493.54	20222.23
493.72	20189.46
493.90	20435.22
494.08	20613.10
494.25	20821.41
494.43	20636.50
494.61	21252.06
494.79	20837.79
494.96	21034.39
495.14	20854.17
495.32	21525.91
495.49	21474.42
495.67	21853.58
495.85	21511.86
496.02	21696.77
496.20	21984.65
496.38	21823.16
496.55	22075.93
496.73	22441.06
496.91	22246.79
497.09	22295.94
497.26	22614.26
497.44	22864.69
497.62	22923.21
497.79	22974.70
497.97	22782.77
498.14	22876.40
498.32	23058.96
498.50	23168.96
498.67	23405.36
498.85	23522.38
499.03	24016.24
499.20	23903.89
499.38	23976.45
499.56	23681.54
499.73	24367.32
499.91	24339.23
500.08	24100.50
500.26	24034.96
500.44	24224.54
500.61	24086.45
500.79	24409.45
500.97	24573.28
501.14	25069.48
501.32	24797.98
501.49	24856.49
501.67	24844.79
501.84	25172.46
502.02	25137.35
502.20	25359.70
502.37	25551.63
502.55	25462.69
502.72	25064.80
502.90	25324.60
503.07	25399.49
503.25	25418.22
503.43	25605.46
503.60	26033.78
503.78	25706.10
503.95	25806.75
504.13	26253.79
504.30	25916.75
504.48	26331.03
504.65	25982.29
504.83	26412.95
505.01	26326.35
505.18	26143.78
505.36	26895.10
505.53	26808.50
505.71	26888.07
505.88	27082.34
506.06	26651.68
506.23	27082.34
506.41	27119.79
506.58	27140.85
506.76	27374.91
506.93	27517.68
507.11	27484.91
507.28	27367.88
507.46	27304.69
507.63	27398.31
507.81	27887.48
507.98	27885.14
508.16	27637.05
508.33	27992.81
508.50	27852.38
508.68	28004.51
508.85	28489.00
509.03	27971.74
509.20	28283.03
509.38	28496.02
509.55	28297.08
509.73	28397.72
509.90	28788.59
510.08	28709.01
510.25	28978.17
510.42	29015.62
510.60	28809.65
510.77	28980.51
510.95	29383.09
511.12	28814.34
511.30	29818.42
511.47	29315.21
511.64	29677.99
511.82	29462.66
511.99	29500.11
512.17	29511.81
512.34	29727.14
512.51	29956.52
512.69	29982.26
512.86	30040.78
513.04	29825.45
513.21	30263.13
513.38	30043.12
513.56	29907.37
513.73	30607.19
513.90	30232.70
514.08	30258.45
514.25	30452.71
514.43	30857.62
514.60	30635.27
514.77	30438.67
514.95	30876.35
515.12	30602.50
515.29	30785.07
515.47	31152.53
515.64	31035.50
515.81	30761.66
515.99	31115.08
516.16	31400.63
516.33	31281.26
516.51	30991.03
516.68	31250.83
516.85	30986.35
517.03	31269.56
517.20	31613.62
517.37	31646.38
517.54	31779.79
517.72	31576.17
517.89	31814.90
518.06	31641.70
518.24	31971.72
518.41	32100.45
518.58	31681.49
518.75	31899.16
518.93	32418.76
519.10	32030.23
519.27	32753.46
519.45	32428.12
519.62	32844.74
519.79	32781.54
519.96	32514.72
520.14	32760.48
520.31	32397.70
520.48	32940.70
520.65	33078.79
520.83	33076.45
521.00	33296.46
521.17	33027.30
521.34	33146.67
521.52	33523.49
521.69	33099.86
521.86	33682.65
522.03	33619.46
522.20	33851.17
522.38	33715.42
522.55	33832.44
522.72	34195.23
522.89	33947.13
523.07	33715.42
523.24	33811.38
523.41	33823.08
523.58	34120.33
523.75	34534.60
523.92	34185.86
524.10	34572.05
524.27	34342.68
524.44	34281.83
524.61	34256.08
524.78	34712.49
524.96	34806.11
525.13	34771.00
525.30	35405.28
525.47	35023.78
525.64	34859.94
525.81	35002.71
525.98	34822.49
526.16	34562.69
526.33	34974.63
526.50	35246.13
526.67	35058.88
526.84	34686.74
527.01	34714.83
527.18	35325.71
527.36	35419.33
527.53	35971.69
527.70	35346.77
527.87	35536.35
528.04	35435.71
528.21	35325.71
528.38	35697.85
528.55	35894.46
528.72	36224.47
528.89	35810.20
529.07	35864.03
529.24	35732.96
529.41	36320.43
529.58	36203.41
529.75	35754.02
529.92	36142.55
530.09	36102.76
530.26	36821.31
530.43	36018.50
530.60	36409.37
530.77	36491.29
530.94	36591.94
531.11	36449.16
531.28	36697.26
531.46	36833.01
531.63	36739.39
531.80	36371.92
531.97	36648.11
532.14	36797.90
532.31	36723.01
532.48	36533.42
532.65	37048.34
532.82	36961.74
532.99	37312.82
533.16	36917.27
533.33	37057.70
533.50	37275.37
533.67	37406.44
533.84	37319.84
534.01	37546.87
534.18	37163.03
534.35	37998.60
534.52	37352.61
534.69	37521.13
534.86	37460.27
535.03	37305.80
535.20	37797.31
535.37	37977.53
535.54	38115.62
535.71	37661.56
535.88	37626.45
536.05	37890.93
536.22	37834.76
536.38	38141.37
536.55	38483.09
536.72	38295.85
536.89	38043.07
537.06	38162.43
537.23	38143.71
537.40	38316.91
537.57	38302.87
537.74	38279.46
537.91	38553.30
538.08	38579.05
538.25	38188.18
538.42	38539.26
538.59	38646.93
538.75	38267.76
538.92	38710.12
539.09	39115.03
539.26	38607.14
539.43	38820.13
539.60	38492.45
539.77	38569.69
539.94	38733.53
540.11	38988.64
540.28	39379.51
540.44	39063.54
540.61	38972.26
540.78	38820.13
540.95	39093.97
541.12	39143.12
541.29	39091.63
541.46	39358.45
541.62	39299.94
541.79	39608.89
541.96	39304.62
542.13	39220.36
542.30	39168.87
542.47	39845.28
542.63	39086.95
542.80	39435.69
542.97	39814.85
543.14	39873.37
543.31	40030.18
543.48	39744.64
543.64	41060.02
543.81	40657.45
543.98	39899.11
544.15	39885.07
544.32	40081.67
544.48	40414.03
544.65	40051.25
544.82	40594.25
544.99	40245.51
545.16	40517.01
545.32	39800.81
545.49	40458.50
545.66	40638.72
545.83	40706.60
546.00	41450.89
546.16	40280.62
546.33	40631.70
546.50	40168.27
546.67	40744.05
546.83	40271.26
547.00	40596.59
547.17	40664.47
547.34	40769.79
547.50	40467.86
547.67	40823.62
547.84	40481.91
548.00	41214.49
548.17	41029.59
548.34	40931.29
548.51	41137.26
548.67	41092.79
548.84	41397.06
549.01	41549.19
549.18	41062.36
549.34	41057.68
549.51	41010.87
549.68	41354.93
549.84	41310.46
550.01	41773.88
550.18	41443.87
550.34	41741.11
550.51	41553.87
550.68	41230.88
550.84	41153.64
551.01	41450.89
551.18	41486.00
551.34	41509.40
551.51	41371.31
551.68	41535.15
551.84	41556.21
552.01	41670.90
552.18	42370.72
552.34	41663.88
552.51	41748.14
552.68	42057.09
552.84	41783.24
553.01	42246.67
553.18	42148.37
553.34	42370.72
553.51	41876.86
553.67	41771.54
553.84	42377.74
554.01	42171.77
554.17	42291.14
554.34	41951.76
554.51	42237.31
554.67	42127.30
554.84	42253.69
555.00	42209.22
555.17	42113.26
555.33	42366.04
555.50	42024.32
555.67	42471.36
555.83	42637.54
556.00	42237.31
556.16	42759.25
556.33	42380.08
556.50	42588.39
556.66	42546.26
556.83	42476.04
556.99	42653.92
557.16	42890.32
557.32	42923.08
557.49	42953.51
557.65	42426.89
557.82	42382.42
557.98	42443.27
558.15	42506.47
558.32	42705.41
558.48	42597.75
558.65	43061.18
558.81	42916.06
558.98	42679.67
559.14	42988.62
559.31	43409.92
559.47	42923.08
559.64	43386.51
559.80	42925.42
559.97	43318.64
560.13	43107.99
560.30	43054.15
560.46	42689.03
560.63	43068.20
560.79	43536.30
560.96	43379.49
561.12	43117.35
561.29	43639.29
561.45	42895.00
561.61	43295.23
561.78	43175.86
561.94	42995.64
562.11	43154.80
562.27	42960.53
562.44	43531.62
562.60	43751.63
562.77	43882.70
562.93	43363.11
563.10	43430.98
563.26	43187.56
563.42	43250.76
563.59	43681.42
563.75	43353.74
563.92	43557.37
564.08	43587.80
564.24	43538.65
564.41	43707.16
564.57	43674.40
564.74	43824.19
564.90	43728.23
565.07	43384.17
565.23	43391.19
565.39	43370.13
565.56	43548.01
565.72	43470.77
565.88	43421.62
566.05	43386.51
566.21	43449.70
566.38	43704.82
566.54	43892.07
566.70	43629.93
566.87	43992.71
567.03	43751.63
567.19	43875.68
567.36	44121.44
567.52	43814.83
567.68	43489.49
567.85	43866.32
568.01	43627.59
568.17	43716.53
568.34	43688.44
568.50	43943.56
568.66	43739.93
568.83	43536.30
568.99	43772.70
569.15	43650.99
569.32	43990.37
569.48	43100.97
569.64	43812.49
569.81	44397.62
569.97	44041.86
570.13	43927.17
570.30	43845.26
570.46	43477.79
570.62	43576.09
570.78	43531.62
570.95	43459.07
571.11	44224.42
571.27	43859.30
571.43	44102.71
571.60	44388.26
571.76	43714.19
571.92	44081.65
572.09	44119.10
572.25	44065.27
572.41	43971.64
572.57	44168.25
572.74	44552.10
572.90	44121.44
573.06	44156.55
573.22	44140.16
573.38	44067.61
573.55	43807.81
573.71	44292.30
573.87	43861.64
574.03	43536.30
574.20	44292.30
574.36	43828.87
574.52	43899.09
574.68	44399.96
574.84	44336.77
575.01	43854.62
575.17	43936.54
575.33	44259.53
575.49	44509.97
575.65	44318.04
575.82	44404.64
575.98	44385.92
576.14	44650.40
576.30	44304.00
576.46	44161.23
576.62	43903.77
576.79	44144.84
576.95	43922.49
577.11	44060.58
577.27	43931.86
577.43	44479.54
577.59	44128.46
577.75	44182.29
577.92	43896.75
578.08	44095.69
578.24	43999.73
578.40	43697.80
578.56	44142.50
578.72	44147.18
578.88	44336.77
579.04	44320.38
579.21	44399.96
579.37	44091.01
579.53	44114.42
579.69	44226.76
579.85	43842.92
580.01	44254.85
580.17	44414.01
580.33	44547.42
580.49	44318.04
580.65	44395.28
580.82	44472.52
580.98	44065.27
581.14	44055.90
581.30	44648.06
581.46	44306.34
581.62	44072.29
581.78	44105.06
581.94	44786.15
582.10	44545.08
582.26	44505.29
582.42	44418.69
582.58	44428.05
582.74	44123.78
582.90	44182.29
583.06	44577.84
583.22	44357.83
583.38	44737.00
583.54	44055.90
583.70	44376.56
583.86	44175.27
584.02	44011.43
584.18	44336.77
584.34	44069.95
584.50	44013.77
584.66	44212.72
584.82	44205.70
584.98	44598.91
585.14	44648.06
585.30	44533.37
585.46	44322.72
585.62	43959.94
585.78	44451.45
585.94	44538.05
586.10	44100.37
586.26	44151.87
586.42	44147.18
586.58	44603.59
586.74	44374.22
586.90	44198.68
587.06	44463.16
587.22	44481.88
587.38	44521.67
587.54	44704.23
587.70	44636.36
587.86	44650.40
588.02	44222.08
588.18	44575.50
588.34	44720.62
588.49	44271.23
588.65	44268.89
588.81	44217.40
588.97	44058.24
589.13	44240.81
589.29	44311.02
589.45	44816.58
589.61	44381.24
589.77	44556.78
589.93	44793.17
590.08	44575.50
590.24	45228.51
590.40	44823.60
590.56	44982.76
590.72	44437.41
590.88	44369.54
591.04	45020.20
591.20	44690.19
591.35	45015.52
591.51	44919.56
591.67	44870.41
591.83	44383.58
591.99	44154.21
592.15	44907.86
592.31	44287.62
592.46	44762.75
592.62	44692.53
592.78	44421.03
592.94	44947.65
593.10	44528.69
593.26	45401.71
593.41	44769.77
593.57	44669.12
593.73	44832.96
593.89	44212.72
594.05	44769.77
594.20	44933.60
594.36	44811.90
594.52	44245.49
594.68	44554.44
594.84	44266.55
594.99	45102.12
595.15	44725.30
595.31	44659.76
595.47	44788.49
595.62	44760.40
595.78	44657.42
595.94	44601.25
596.10	44921.90
596.25	44781.47
596.41	44821.26
596.57	44580.18
596.73	44975.73
596.88	44432.73
597.04	44954.67
597.20	44814.24
597.36	44610.61
597.51	44966.37
597.67	44722.96
597.83	45003.82
597.99	45258.94
598.14	44561.46
598.30	44636.36
598.46	45088.08
598.61	44734.66
598.77	44760.40
598.93	44545.08
599.09	44889.13
599.24	45071.70
599.40	45542.14
599.56	45022.54
599.71	45221.49
599.87	44863.39
600.03	44788.49
600.18	45027.23
600.34	44957.01
600.50	45064.67
600.65	44652.74
600.81	45043.61
600.97	44811.90
601.12	45729.39
601.28	45123.19
601.44	44725.30
601.59	45130.21
601.75	45024.89
601.91	44765.09
602.06	44364.85
602.22	45052.97
602.37	44797.85
602.53	44851.69
602.69	44870.41
602.84	44659.76
603.00	44800.19
603.16	44524.01
603.31	44734.66
603.47	44921.90
603.62	44900.84
603.78	44645.72
603.94	44739.34
604.09	45324.47
604.25	45144.25
604.40	44643.38
604.56	44708.91
604.71	44982.76
604.87	45078.72
605.03	45003.82
605.18	44334.43
605.34	45088.08
605.49	44430.39
605.65	44870.41
605.80	44402.30
605.96	44978.07
606.12	44680.83
606.27	44957.01
606.43	44222.08
606.58	44809.56
606.74	44828.28
606.89	44507.63
607.05	44430.39
607.20	44802.53
607.36	44512.31
607.51	44928.92
607.67	44528.69
607.82	44678.49
607.98	44664.44
608.13	44650.40
608.29	44231.44
608.44	44156.55
608.60	43580.78
608.75	44236.12
608.91	44217.40
609.06	44240.81
609.22	44884.45
609.37	44233.78
609.53	44432.73
609.68	44381.24
609.84	44304.00
609.99	44217.40
610.15	44086.33
610.30	44339.11
610.46	44023.14
610.61	43873.34
610.76	44364.85
610.92	43950.58
611.07	43826.53
611.23	44051.22
611.38	44444.43
611.54	44163.57
611.69	44011.43
611.84	44037.18
612.00	44119.10
612.15	44261.87
612.31	43798.44
612.46	43882.70
612.62	44713.59
612.77	44004.41
612.92	44280.60
613.08	44055.90
613.23	44477.20
613.39	43838.23
613.54	43555.03
613.69	44107.40
613.85	43665.03
614.00	44495.92
614.15	44095.69
614.31	44013.77
614.46	44346.13
614.62	44334.43
614.77	43725.89
614.92	43931.86
615.08	43971.64
615.23	43566.73
615.38	43789.08
615.54	43557.37
615.69	43702.48
615.84	43494.18
616.00	44098.03
616.15	43892.07
616.30	43744.61
616.46	43697.80
616.61	43428.64
616.76	43620.56
616.92	43393.53
617.07	43054.15
617.22	43180.54
617.37	43180.54
617.53	44140.16
617.68	43381.83
617.83	43522.26
617.99	43690.78
618.14	43442.68
618.29	43157.14
618.45	43112.67
618.60	43196.93
618.75	43707.16
618.90	43065.86
619.06	43461.41
619.21	43503.54
619.36	43557.37
619.51	43206.29
619.67	43065.86
619.82	43051.81
619.97	43178.20
620.12	42862.23
620.28	42777.97
620.43	42890.32
620.58	42658.60
620.73	43030.75
620.89	42983.94
621.04	42965.21
621.19	42843.51
621.34	42857.55
621.49	42824.78
621.65	43316.29
621.80	42887.98
621.95	42834.14
622.10	42752.23
622.25	42693.71
622.41	42906.70
622.56	42141.35
622.71	42749.88
622.86	43040.11
623.01	42604.77
623.16	43061.18
623.32	42476.04
623.47	42754.57
623.62	42506.47
623.77	42181.13
623.92	42717.12
624.07	42258.37
624.23	42314.55
624.38	42422.21
624.53	42300.50
624.68	42745.20
624.83	42674.99
624.98	42454.98
625.13	42270.08
625.29	42143.69
625.44	42148.37
625.59	42122.62
625.74	41361.95
625.89	41750.48
626.04	41670.90
626.19	42073.47
626.34	42197.52
626.49	42359.02
626.65	42284.12
626.80	41724.73
626.95	41933.04
627.10	42298.16
627.25	41677.92
627.40	41478.97
627.55	41448.55
627.70	41404.08
627.85	41305.77
628.00	41490.68
628.15	41933.04
628.30	41373.65
628.45	41933.04
628.60	41823.03
628.76	41839.42
628.91	41837.08
629.06	41645.15
629.21	41429.82
629.36	41549.19
629.51	41294.07
629.66	41497.70
629.81	41081.08
629.96	41525.78
630.11	41471.95
630.26	41731.75
630.41	41429.82
630.56	41048.32
630.71	41605.36
630.86	41542.17
631.01	41244.92
631.16	41041.29
631.31	41036.61
631.46	41153.64
631.61	41207.47
631.76	41354.93
631.91	41319.82
632.06	40914.90
632.21	41134.92
632.36	40893.84
632.51	40711.28
632.66	41368.97
632.81	40650.42
632.96	41338.54
633.10	40528.72
633.25	40952.35
633.40	40512.33
633.55	41212.15
633.70	40854.05
633.85	40687.87
634.00	40465.52
634.15	40704.26
634.30	40542.76
634.45	40357.86
634.60	40552.12
634.75	41008.53
634.90	40975.76
635.05	40161.25
635.19	40636.38
635.34	40762.77
635.49	40549.78
635.64	40781.49
635.79	40238.49
635.94	40353.18
636.09	40254.87
636.24	40371.90
636.39	39934.22
636.53	40261.90
636.68	40081.67
636.83	40039.54
636.98	40505.31
637.13	40076.99
637.28	40334.45
637.43	40495.95
637.57	40245.51
637.72	40161.25
637.87	39948.26
638.02	40044.23
638.17	39885.07
638.32	39175.89
638.46	39421.64
638.61	40098.06
638.76	39615.91
638.91	39845.28
639.06	40034.86
639.20	40182.32
639.35	40247.85
639.50	40107.42
639.65	40142.53
639.80	40013.80
639.94	39826.56
640.09	40004.44
640.24	39416.96
640.39	39435.69
640.54	39625.27
640.68	39899.11
640.83	39473.13
640.98	39133.76
641.13	39498.88
641.27	39969.33
641.42	39494.20
641.57	39618.25
641.72	39683.78
641.86	39152.48
642.01	39463.77
642.16	39180.57
642.31	38778.00
642.45	39187.59
642.60	39253.12
642.75	38763.95
642.90	39632.29
643.04	38852.89
643.19	38871.62
643.34	38939.49
643.48	38920.77
643.63	39056.52
643.78	39070.56
643.93	38719.48
644.07	38766.29
644.22	38749.91
644.37	38593.09
644.51	38845.87
644.66	38827.15
644.81	38775.66
644.95	38885.66
645.10	38646.93
645.25	39108.01
645.39	39044.82
645.54	39182.91
645.69	38749.91
645.83	38773.31
645.98	38548.62
646.13	38787.36
646.27	38944.17
646.42	38569.69
646.57	39124.40
646.71	38712.46
646.86	38480.75
647.00	38637.56
647.15	38586.07
647.30	38820.13
647.44	38511.17
647.59	38249.03
647.74	38438.62
647.88	38473.73
648.03	38380.10
648.17	38089.88
648.32	38148.39
648.47	38712.46
648.61	38096.90
648.76	38230.31
648.90	38279.46
649.05	38234.99
649.20	38298.19
649.34	38330.95
649.49	38356.70
649.63	38462.02
649.78	38204.56
649.92	38363.72
650.07	38321.59
650.21	37783.27
650.36	38003.28
650.51	37888.59
650.65	38033.71
650.80	38506.49
650.94	38197.54
651.09	37816.04
651.23	38101.58
651.38	38574.37
651.52	37640.50
651.67	38036.05
651.81	37897.95
651.96	37366.65
652.10	37333.89
652.25	37556.24
652.39	37748.16
652.54	37652.20
652.68	38036.05
652.83	37710.71
652.97	37897.95
653.12	37745.82
653.26	37511.77
653.41	37930.72
653.55	37626.45
653.70	37368.99
653.84	37434.53
653.99	37258.99
654.13	38136.69
654.27	37706.03
654.42	37048.34
654.56	37144.30
654.71	37390.06
654.85	37343.25
655.00	37434.53
655.14	36495.97
655.29	36823.65
655.43	36687.90
655.57	36437.46
655.72	36891.52
655.86	37191.11
656.01	36987.49
656.15	37031.96
656.30	37083.45
656.44	36584.91
656.58	36732.37
656.73	36809.61
656.87	36589.59
657.01	36503.00
657.16	36524.06
657.30	36645.77
657.45	36287.67
657.59	36222.13
657.73	36346.18
657.88	36648.11
658.02	36830.67
658.16	36374.27
658.31	37055.36
658.45	36769.82
658.60	36275.96
658.74	36280.64
658.88	36208.09
659.03	36350.86
659.17	36154.26
659.31	36610.66
659.46	36245.54
659.60	35978.72
659.74	35908.50
659.89	35941.27
660.03	36016.16
660.17	36304.05
660.32	35976.37
660.46	36154.26
660.60	35880.41
660.74	35709.55
660.89	35555.08
661.03	35765.73
661.17	35424.01
661.32	35409.96
661.46	35599.55
661.60	35356.13
661.74	35374.86
661.89	35407.62
662.03	35573.80
662.17	35360.81
662.31	35026.12
662.46	35391.24
662.60	35756.36
662.74	34986.33
662.88	35278.89
663.03	35295.28
663.17	34925.47
663.31	35026.12
663.45	35161.87
663.60	35344.43
663.74	34859.94
663.88	34761.64
664.02	34710.14
664.17	35232.08
664.31	34005.64
664.45	34759.30
664.59	34925.47
664.73	34747.59
664.88	34274.80
665.02	34242.04
665.16	34415.24
665.30	34319.28
665.44	34366.09
665.59	33759.89
665.73	33837.12
665.87	33837.12
666.01	33797.34
666.15	34176.50
666.29	33968.19
666.44	34387.15
666.58	34354.38
666.72	33965.85
666.86	34134.37
667.00	33958.83
667.14	33820.74
667.28	33706.05
667.43	33432.21
667.57	33706.05
667.71	33539.88
667.85	33514.13
667.99	33418.17
668.13	33371.36
668.27	33237.95
668.41	33109.22
668.56	33418.17
668.70	33366.68
668.84	33514.13
668.98	33083.47
669.12	32943.04
669.26	33078.79
669.40	32676.22
669.54	32449.19
669.68	32830.69
669.82	32929.00
669.96	32591.96
670.10	32730.05
670.25	32833.04
670.39	32697.28
670.53	32444.51
670.67	32561.53
670.81	32481.95
670.95	32481.95
671.09	32624.73
671.23	32060.66
671.37	32182.37
671.51	32212.79
671.65	31679.15
671.79	31847.67
671.93	32055.98
672.07	31892.14
672.21	31945.97
672.35	31557.44
672.49	32044.27
672.63	31611.28
672.77	31274.24
672.91	31590.21
673.05	31597.23
673.19	31498.93
673.33	31143.17
673.47	31407.65
673.61	31330.41
673.75	31070.61
673.89	30649.32
674.03	31136.15
674.17	30672.72
674.31	30834.22
674.45	30862.30
674.59	30663.36
674.73	30810.81
674.87	30295.89
675.01	30298.23
675.15	30782.73
675.29	30829.54
675.43	30370.79
675.56	30518.25
675.70	29867.58
675.84	30094.61
675.98	29259.04
676.12	30066.52
676.26	29769.27
676.40	29635.86
676.54	29516.50
676.68	29771.61
676.82	29137.33
676.96	29642.88
677.10	29235.63
677.23	29006.26
677.37	29233.29
677.51	29123.29
677.65	29507.13
677.79	28833.06
677.93	28863.49
678.07	28926.68
678.21	28678.58
678.34	28484.32
678.48	28786.25
678.62	28271.33
678.76	28229.20
678.90	28264.31
679.04	28268.99
679.18	28208.14
679.31	27924.93
679.45	28067.70
679.59	27402.99
679.73	27604.28
679.87	27758.75
680.00	27576.19
680.14	27372.57
680.28	27246.18
680.42	27232.13
680.56	27292.99
680.70	26948.93
680.83	27124.47
680.97	26541.68
681.11	26759.34
681.25	26349.75
681.39	26569.76
681.52	26609.55
681.66	26780.41
681.80	26967.65
681.94	26455.08
682.07	26532.31
682.21	26246.77
682.35	26192.94
682.49	26092.29
682.62	25944.84
682.76	25914.41
682.90	25565.67
683.04	25832.49
683.17	25572.69
683.31	26068.89
683.45	25830.15
683.59	25390.13
683.72	25392.47
683.86	25221.61
684.00	24856.49
684.13	25181.82
684.27	25116.29
684.41	24844.79
684.55	25003.94
684.68	24893.94
684.82	24634.14
684.96	24896.28
685.09	24624.78
685.23	24678.61
685.37	24596.69
685.50	24294.76
685.64	24292.42
685.78	24355.61
685.91	24294.76
686.05	23807.93
686.19	23358.55
686.32	23583.24
686.46	23782.18
686.60	23585.58
686.73	23714.31
686.87	23307.05
687.01	23185.35
687.14	23283.65
687.28	23021.51
687.42	23058.96
687.55	22726.60
687.69	22785.12
687.82	22890.44
687.96	22714.90
688.10	22518.29
688.23	22583.83
688.37	22436.38
688.50	22157.85
688.64	22403.61
688.78	22485.53
688.91	22139.13
689.05	21834.86
689.18	22073.59
689.32	21652.30
689.46	21642.93
689.59	21837.20
689.73	22045.51
689.86	21614.85
690.00	21434.63
690.13	21806.77
690.27	21371.43
690.41	21451.01
690.54	21048.44
690.68	20931.41
690.81	21081.21
690.95	20865.88
691.08	20765.23
691.22	20980.56
691.35	20819.07
691.49	21041.42
691.62	21081.21
691.76	20732.47
691.89	20819.07
692.03	20137.97
692.16	20070.09
692.30	20264.36
692.43	20437.56
692.57	20039.67
692.70	20121.59
692.84	20100.52
692.97	19714.33
693.11	19653.48
693.24	19475.60
693.38	19646.46
693.51	19562.20
693.65	19690.93
693.78	19353.89
693.92	19386.66
694.05	19365.59
694.19	18899.83
694.32	18843.65
694.45	18941.96
694.59	18623.64
694.72	18553.43
694.86	18815.57
694.99	18618.96
695.13	18569.81
695.26	18279.58
695.39	18082.98
695.53	18054.89
695.66	18537.04
695.80	18391.93
695.93	18122.77
696.07	17884.03
696.20	17788.07
696.33	17898.08
696.47	17844.24
696.60	18001.06
696.73	17591.47
696.87	17539.97
697.00	17626.57
697.14	17701.47
697.27	17305.92
697.40	17614.87
697.54	17640.62
697.67	17013.35
697.80	17387.84
697.94	17193.58
698.07	17022.72
698.21	16791.00
698.34	16793.34
698.47	17184.21
698.61	16540.57
698.74	16500.78
698.87	16400.13
699.01	16582.70
699.14	16311.19
699.27	16226.93
699.40	16278.43
699.54	16187.14
699.67	15702.65
699.80	15777.55
699.94	15988.20
700.07	15988.20
700.20	15798.62
700.34	15651.16
700.47	15688.61
700.60	16020.97
700.73	16070.12
700.87	15665.21
701.00	15351.57
701.13	15499.03
701.26	15435.83
701.40	15274.34
701.53	15293.06
701.66	15426.47
701.79	15054.33
701.93	14988.79
702.06	14890.49
702.19	14745.38
702.32	14740.69
702.46	14913.89
702.59	14478.55
702.72	14457.49
702.85	14614.30
702.99	14553.45
703.12	14689.20
703.25	14221.10
703.38	14216.41
703.51	14228.12
703.65	14068.96
703.78	14225.78
703.91	13926.19
704.04	14040.87
704.17	14050.24
704.31	14015.13
704.44	13687.45
704.57	13376.16
704.70	13472.12
704.83	13439.36
704.96	13640.64
705.10	13387.86
705.23	13710.86
>>>>>End Processed Spectral Data<<<<<
