SpectraSuite Data File
++++++++++++++++++++++++++++++++++++
Date: Fri Oct 25 10:48:08 EDT 2013
User: price-jones
Dark Spectrum Present: No
Reference Spectrum Present: No
Number of Sampled Component Spectra: 1
Spectrometers: USB2+H05261
Integration Time (usec): 100000 (USB2+H05261)
Spectra Averaged: 1 (USB2+H05261)
Boxcar Smoothing: 0 (USB2+H05261)
Correct for Electrical Dark: No (USB2+H05261)
Strobe/Lamp Enabled: No (USB2+H05261)
Correct for Detector Non-linearity: No (USB2+H05261)
Correct for Stray Light: No (USB2+H05261)
Number of Pixels in Processed Spectrum: 2048
>>>>>Begin Processed Spectral Data<<<<<
365.73	189.58
365.92	189.58
366.12	189.58
366.32	39.79
366.52	98.30
366.72	56.17
366.91	16.38
367.11	18.72
367.31	0.00
367.51	46.81
367.70	0.00
367.90	79.58
368.10	93.62
368.30	105.32
368.49	9.36
368.69	70.22
368.89	79.58
369.09	46.81
369.28	98.30
369.48	88.94
369.68	102.98
369.87	180.22
370.07	81.92
370.27	100.64
370.47	222.35
370.66	332.36
370.86	414.27
371.06	407.25
371.25	482.15
371.45	414.27
371.65	470.45
371.84	479.81
372.04	442.36
372.24	526.62
372.44	425.98
372.63	496.19
372.83	514.92
373.03	503.22
373.22	528.96
373.42	545.34
373.62	519.60
373.81	491.51
374.01	493.85
374.21	578.11
374.40	594.50
374.60	566.41
374.79	416.62
374.99	557.05
375.19	573.43
375.38	592.16
375.58	535.98
375.78	599.18
375.97	613.22
376.17	615.56
376.37	533.64
376.56	543.00
376.76	547.69
376.95	545.34
377.15	624.92
377.35	650.67
377.54	571.09
377.74	559.39
377.93	624.92
378.13	547.69
378.33	596.84
378.52	636.63
378.72	603.86
378.91	613.22
379.11	638.97
379.31	568.75
379.50	645.99
379.70	645.99
379.89	550.03
380.09	601.52
380.28	681.10
380.48	667.05
380.68	711.52
380.87	697.48
381.07	702.16
381.26	660.03
381.46	592.16
381.65	662.37
381.85	622.58
382.04	578.11
382.24	643.65
382.43	716.20
382.63	681.10
382.83	688.12
383.02	660.03
383.22	704.50
383.41	725.57
383.61	781.74
383.80	812.17
384.00	718.54
384.19	674.07
384.39	716.20
384.58	779.40
384.78	725.57
384.97	814.51
385.17	709.18
385.36	655.35
385.56	814.51
385.75	763.01
385.95	795.78
386.14	805.14
386.34	781.74
386.53	690.46
386.72	753.65
386.92	833.23
387.11	837.91
387.31	798.12
387.50	772.38
387.70	816.85
387.89	821.53
388.09	781.74
388.28	795.78
388.48	814.51
388.67	847.27
388.86	875.36
389.06	875.36
389.25	807.48
389.45	809.83
389.64	847.27
389.84	931.53
390.03	877.70
390.22	842.59
390.42	887.06
390.61	903.45
390.81	924.51
391.00	880.04
391.19	980.68
391.39	997.07
391.58	1071.97
391.78	947.92
391.97	929.19
392.16	1041.54
392.36	978.34
392.55	898.77
392.75	947.92
392.94	997.07
393.13	882.38
393.33	894.08
393.52	875.36
393.71	990.05
393.91	983.02
394.10	992.39
394.29	1055.58
394.49	971.32
394.68	1053.24
394.88	1057.92
395.07	1179.63
395.26	1083.67
395.46	1137.50
395.65	1111.75
395.84	1132.82
396.04	1100.05
396.23	1076.65
396.42	1043.88
396.62	1196.01
396.81	1043.88
397.00	1111.75
397.19	1224.10
397.39	1156.22
397.58	1217.08
397.77	1172.61
397.97	1320.06
398.16	1240.48
398.35	1207.72
398.55	1263.89
398.74	1289.64
398.93	1261.55
399.12	1273.25
399.32	1294.32
399.51	1233.46
399.70	1416.02
399.90	1397.30
400.09	1444.11
400.28	1394.96
400.47	1432.41
400.67	1460.49
400.86	1467.52
401.05	1392.62
401.24	1378.58
401.44	1404.32
401.63	1399.64
401.82	1406.66
402.01	1390.28
402.21	1394.96
402.40	1495.60
402.59	1558.80
402.78	1530.71
402.97	1572.84
403.17	1544.75
403.36	1523.69
403.55	1455.81
403.74	1591.56
403.93	1556.46
404.13	1624.33
404.32	1600.93
404.51	1657.10
404.70	1755.40
404.89	1741.36
405.09	1788.17
405.28	1727.32
405.47	1666.46
405.66	1643.06
405.85	1671.14
406.05	1713.27
406.24	1696.89
406.43	1830.30
406.62	1729.66
406.81	1839.66
407.00	1762.42
407.20	1713.27
407.39	1762.42
407.58	1860.73
407.77	1884.13
407.96	1900.52
408.15	1881.79
408.34	1856.04
408.54	1928.60
408.73	1944.99
408.92	1982.43
409.11	2017.54
409.30	1970.73
409.49	2015.20
409.68	2054.99
409.87	2094.78
410.07	2036.27
410.26	2071.37
410.45	2045.63
410.64	2073.71
410.83	2057.33
411.02	2141.59
411.21	2303.09
411.40	2092.44
411.59	2204.78
411.78	2251.60
411.98	2106.48
412.17	2307.77
412.36	2377.98
412.55	2289.04
412.74	2342.88
412.93	2466.92
413.12	2244.57
413.31	2523.10
413.50	2471.61
413.69	2455.22
413.88	2539.48
414.07	2532.46
414.26	2499.69
414.45	2485.65
414.64	2518.42
414.83	2537.14
415.02	2715.02
415.22	2761.83
415.41	2862.48
415.60	2581.61
415.79	2719.70
415.98	2775.88
416.17	2759.49
416.36	2857.79
416.55	2738.43
416.74	2850.77
416.93	2787.58
417.12	2782.90
417.31	2839.07
417.50	2764.17
417.69	3052.06
417.88	3056.74
418.07	2899.92
418.26	3000.57
418.45	3117.59
418.64	3155.04
418.83	2998.23
419.02	3103.55
419.21	3192.49
419.39	3141.00
419.58	3052.06
419.77	3225.26
419.96	3194.83
420.15	3166.74
420.34	3080.14
420.53	3325.90
420.72	3351.65
420.91	3323.56
421.10	3276.75
421.29	3403.14
421.48	3405.48
421.67	3384.41
421.86	3346.97
422.05	3227.60
422.24	3267.39
422.43	3337.60
422.61	3459.31
422.80	3417.18
422.99	3480.38
423.18	3449.95
423.37	3482.72
423.56	3412.50
423.75	3459.31
423.94	3370.37
424.13	3225.26
424.32	3335.26
424.50	3489.74
424.69	3637.19
424.88	3597.40
425.07	3449.95
425.26	3431.23
425.45	3442.93
425.64	3590.38
425.83	3353.99
426.01	3564.64
426.20	3548.25
426.39	3433.57
426.58	3431.23
426.77	3637.19
426.96	3728.47
427.15	3536.55
427.33	3606.77
427.52	3454.63
427.71	3620.81
427.90	3595.06
428.09	3749.54
428.28	3630.17
428.46	3719.11
428.65	3747.20
428.84	3875.93
429.03	3758.90
429.22	3691.02
429.40	3672.30
429.59	3810.39
429.78	3595.06
429.97	3576.34
430.16	3527.19
430.34	3779.97
430.53	3829.12
430.72	3789.33
430.91	3796.35
431.10	3819.75
431.28	3971.89
431.47	4053.81
431.66	4149.77
431.85	4102.96
432.03	4191.90
432.22	4168.49
432.41	4109.98
432.60	4121.68
432.79	4032.74
432.97	4308.93
433.16	4215.30
433.35	4070.19
433.54	4177.86
433.72	4269.14
433.91	4329.99
434.10	4201.26
434.28	4219.99
434.47	4191.90
434.66	4442.34
434.85	4362.76
435.03	4404.89
435.22	4421.27
435.41	4557.02
435.59	4545.32
435.78	4346.37
435.97	4540.64
436.16	4650.64
436.34	4367.44
436.53	4622.56
436.72	4615.54
436.90	4535.96
437.09	4559.36
437.28	4512.55
437.46	4566.39
437.65	4596.81
437.84	4634.26
438.02	4645.96
438.21	4739.58
438.40	4580.43
438.58	4807.46
438.77	4873.00
438.96	4835.55
439.14	5036.83
439.33	4901.08
439.52	5076.62
439.70	4990.02
439.89	5034.49
440.08	5083.64
440.26	5055.56
440.45	4915.12
440.63	5165.56
440.82	5210.03
441.01	5350.46
441.19	5404.30
441.38	5427.70
441.57	5315.36
441.75	5423.02
441.94	5575.16
442.12	5392.59
442.31	5628.99
442.50	5621.97
442.68	5490.90
442.87	5584.52
443.05	5570.48
443.24	5736.65
443.43	5593.88
443.61	5528.35
443.80	5788.14
443.98	5518.98
444.17	5465.15
444.35	5659.42
444.54	5870.06
444.73	5748.36
444.91	5633.67
445.10	5673.46
445.28	5767.08
445.47	5825.59
445.65	5671.12
445.84	5898.15
446.02	5841.98
446.21	5750.70
446.39	5769.42
446.58	5696.86
446.77	5926.24
446.95	5823.25
447.14	5736.65
447.32	5940.28
447.51	5923.90
447.69	5764.74
447.88	5825.59
448.06	6024.54
448.25	5881.77
448.43	5884.11
448.62	5980.07
448.80	5764.74
448.99	6003.47
449.17	6005.81
449.36	5933.26
449.54	5980.07
449.73	6069.01
449.91	6321.79
450.10	6136.88
450.28	6274.98
450.46	6335.83
450.65	6274.98
450.83	6263.27
451.02	6176.67
451.20	6340.51
451.39	6389.66
451.57	6354.55
451.76	6310.08
451.94	6307.74
452.13	6513.71
452.31	6516.05
452.49	6300.72
452.68	6427.11
452.86	6497.33
453.05	6427.11
453.23	6478.60
453.42	6455.20
453.60	6555.84
453.78	6518.39
453.97	6478.60
454.15	6464.56
454.34	6375.62
454.52	6602.65
454.70	6548.82
454.89	6703.29
455.07	6576.91
455.26	6609.67
455.44	6654.14
455.62	6806.28
455.81	6726.70
455.99	6799.26
456.17	6789.89
456.36	6930.33
456.54	6857.77
456.73	6988.84
456.91	7171.40
457.09	7145.66
457.28	7129.27
457.46	6942.03
457.64	7283.75
457.83	7122.25
458.01	7124.59
458.19	7377.37
458.38	7122.25
458.56	7194.81
458.74	7194.81
458.93	7192.47
459.11	7396.09
459.29	7393.75
459.48	7470.99
459.66	7339.92
459.84	7428.86
460.03	7588.02
460.21	7534.18
460.39	7485.03
460.57	7515.46
460.76	7627.81
460.94	7672.28
461.12	7602.06
461.31	7630.15
461.49	7686.32
461.67	7761.22
461.85	7801.01
462.04	7747.17
462.22	8112.30
462.40	7894.63
462.59	7716.75
462.77	7733.13
462.95	7957.82
463.13	8023.36
463.32	7852.50
463.50	7962.50
463.68	7934.42
463.86	8016.33
464.05	7852.50
464.23	7901.65
464.41	8243.37
464.59	7878.24
464.78	8138.04
464.96	8030.38
465.14	7964.84
465.32	8283.16
465.50	8367.42
465.69	8341.67
465.87	8070.17
466.05	8238.69
466.23	8278.47
466.41	8372.10
466.60	8339.33
466.78	8135.70
466.96	8210.60
467.14	8351.03
467.32	8477.42
467.51	8376.78
467.69	8121.66
467.87	8437.63
468.05	8313.58
468.23	8367.42
468.41	8421.25
468.60	8627.21
468.78	8608.49
468.96	8655.30
469.14	8802.75
469.32	8587.43
469.50	8596.79
469.69	8486.78
469.87	8769.99
470.05	8917.44
470.23	8990.00
470.41	8688.07
470.59	8851.91
470.77	8772.33
470.95	8847.22
471.14	8945.53
471.32	8800.41
471.50	9310.65
471.68	9170.22
471.86	9310.65
472.04	9200.65
472.22	9142.13
472.40	9212.35
472.58	9348.10
472.77	9474.49
472.95	9282.56
473.13	9659.39
473.31	9355.12
473.49	9418.32
473.67	9427.68
473.85	9561.09
474.03	9589.17
474.21	9848.97
474.39	9811.53
474.57	9858.34
474.75	10106.43
474.93	9968.34
475.12	9909.83
475.30	9851.31
475.48	10031.54
475.66	10047.92
475.84	10174.31
476.02	10146.22
476.20	10387.30
476.38	10494.96
476.56	10817.96
476.74	10602.63
476.92	10450.49
477.10	10576.88
477.28	10871.79
477.46	10977.11
477.64	11068.39
477.82	11087.12
478.00	11227.55
478.18	11379.68
478.36	11257.98
478.54	11445.22
478.72	11321.17
478.90	11435.86
479.08	11618.42
479.26	11515.44
479.44	11843.11
479.62	11672.25
479.80	12018.65
479.98	11812.68
480.16	12067.80
480.34	12343.99
480.52	12196.53
480.70	12320.58
480.88	12140.36
481.06	12453.99
481.24	12257.39
481.41	12498.46
481.59	12884.65
481.77	12938.48
481.95	12919.76
482.13	13231.05
482.31	12837.84
482.49	13437.02
482.67	13404.25
482.85	13460.42
483.03	13722.56
483.21	13767.03
483.39	13933.21
483.57	13771.71
483.74	14003.43
483.92	14097.05
484.10	14005.77
484.28	14420.04
484.46	14541.75
484.64	14986.45
484.82	14616.65
485.00	14604.94
485.18	14595.58
485.35	14934.96
485.53	14874.10
485.71	14796.87
485.89	15042.62
486.07	15164.33
486.25	15255.61
486.43	15267.31
486.61	15456.90
486.78	15679.25
486.96	15927.35
487.14	16002.24
487.32	16023.31
487.50	16210.55
487.68	16676.32
487.85	16514.82
488.03	16737.17
488.21	16882.28
488.39	16734.83
488.57	16992.29
488.75	17212.30
488.92	17284.86
489.10	17432.31
489.28	17701.47
489.46	17680.41
489.64	17692.11
489.81	18164.90
489.99	18319.37
490.17	17926.16
490.35	18424.70
490.53	18211.71
490.70	18328.74
490.88	18672.79
491.06	18813.23
491.24	18817.91
491.41	18909.19
491.59	18670.45
491.77	19005.15
491.95	19164.31
492.13	19302.40
492.30	19482.62
492.48	19569.22
492.66	19740.08
492.84	20013.92
493.01	20233.93
493.19	19880.51
493.37	20105.20
493.54	19864.13
493.72	20233.93
493.90	20393.09
494.08	20648.21
494.25	21034.39
494.43	20999.29
494.61	21177.17
494.79	21006.31
494.96	21081.21
495.14	21158.44
495.32	21378.45
495.49	21605.49
495.67	21792.73
495.85	21841.88
496.02	21898.05
496.20	22118.06
496.38	21963.59
496.55	22279.56
496.73	22946.61
496.91	22338.07
497.09	22726.60
497.26	22710.22
497.44	22618.94
497.62	22632.98
497.79	23065.98
497.97	23021.51
498.14	23110.45
498.32	23255.56
498.50	23405.36
498.67	23819.63
498.85	23239.18
499.03	23599.62
499.20	23880.49
499.38	23828.99
499.56	23700.26
499.73	24084.11
499.91	24191.78
500.08	24130.92
500.26	24421.15
500.44	24397.74
500.61	24709.04
500.79	24231.57
500.97	24299.44
501.14	24741.80
501.32	25092.88
501.49	24926.71
501.67	24828.40
501.84	25247.36
502.02	25277.79
502.20	25207.57
502.37	25514.18
502.55	25373.75
502.72	25507.16
502.90	25366.73
503.07	25418.22
503.25	25942.50
503.43	25619.50
503.60	26026.76
503.78	26256.13
503.95	26089.95
504.13	26015.05
504.30	26197.62
504.48	26448.05
504.65	26033.78
504.83	26382.52
505.01	26850.63
505.18	26703.17
505.36	26958.29
505.53	26628.27
505.71	26927.86
505.88	27283.62
506.06	26691.47
506.23	27119.79
506.41	26969.99
506.58	27370.22
506.76	27199.37
506.93	27386.61
507.11	27419.38
507.28	27459.16
507.46	27278.94
507.63	27662.79
507.81	27999.83
507.98	27728.33
508.16	27978.76
508.33	28088.77
508.50	28219.84
508.68	28313.46
508.85	28599.01
509.03	28723.05
509.20	28395.38
509.38	28648.16
509.55	28788.59
509.73	28886.89
509.90	29132.65
510.08	28540.49
510.25	28896.25
510.42	29003.92
510.60	29240.31
510.77	29340.96
510.95	29275.42
511.12	29614.80
511.30	29504.79
511.47	29483.73
511.64	29715.44
511.82	29621.82
511.99	29347.98
512.17	29970.56
512.34	29965.88
512.51	30064.18
512.69	30480.80
512.86	30026.73
513.04	30396.54
513.21	30295.89
513.38	30190.57
513.56	30431.65
513.73	30211.64
513.90	30632.93
514.08	30478.46
514.25	30817.83
514.43	31096.36
514.60	30628.25
514.77	30937.20
514.95	30986.35
515.12	31047.21
515.29	31335.09
515.47	31328.07
515.64	31456.80
515.81	30639.95
515.99	31276.58
516.16	31447.44
516.33	31250.83
516.51	31885.12
516.68	31515.31
516.85	31175.94
517.03	31613.62
517.20	31524.68
517.37	31641.70
517.54	32123.85
517.72	32006.83
517.89	32053.64
518.06	31627.66
518.24	31704.90
518.41	31864.05
518.58	32177.68
518.75	32339.18
518.93	32608.34
519.10	32411.74
519.27	32510.04
519.45	32318.12
519.62	32854.10
519.79	32851.76
519.96	32999.21
520.14	32978.15
520.31	32975.81
520.48	33270.72
520.65	32882.19
520.83	33319.87
521.00	33413.49
521.17	33362.00
521.34	33333.91
521.52	33675.63
521.69	33436.89
521.86	33795.00
522.03	33886.28
522.20	33605.41
522.38	33869.89
522.55	34181.18
522.72	34071.18
522.89	33586.69
523.07	34546.31
523.24	33916.70
523.41	34536.94
523.58	34206.93
523.75	34761.64
523.92	34614.18
524.10	34567.37
524.27	34485.45
524.44	34780.36
524.61	34604.82
524.78	34572.05
524.96	34504.18
525.13	35138.46
525.30	35442.73
525.47	34937.18
525.64	34951.22
525.81	35229.74
525.98	34824.83
526.16	35089.31
526.33	34960.58
526.50	35295.28
526.67	35007.39
526.84	35461.46
527.01	35424.01
527.18	35585.50
527.36	35578.48
527.53	35896.80
527.70	36151.91
527.87	35971.69
528.04	35739.98
528.21	35651.04
528.38	35838.28
528.55	36538.10
528.72	35866.37
528.89	36201.07
529.07	36240.86
529.24	36329.80
529.41	36327.45
529.58	36208.09
529.75	36463.21
529.92	36282.98
530.09	35981.06
530.26	36500.65
530.43	36542.78
530.60	36308.73
530.77	36570.87
530.94	36856.42
531.11	36919.61
531.28	36905.57
531.46	36919.61
531.63	36769.82
531.80	36762.79
531.97	37041.32
532.14	37053.02
532.31	36713.64
532.48	37146.64
532.65	37263.67
532.82	36989.83
532.99	37113.87
533.16	36514.70
533.33	37509.43
533.50	37500.06
533.67	37591.34
533.84	37404.10
534.01	37528.15
534.18	37539.85
534.35	37794.97
534.52	37516.45
534.69	37865.19
534.86	37844.12
535.03	37504.74
535.20	37890.93
535.37	38230.31
535.54	38054.77
535.71	37975.19
535.88	38424.57
536.05	38150.73
536.22	38433.94
536.38	38089.88
536.55	38218.61
536.72	38340.32
536.89	37603.05
537.06	38354.36
537.23	38602.46
537.40	38066.47
537.57	38623.52
537.74	38314.57
537.91	38770.97
538.08	38824.81
538.25	38211.59
538.42	38447.98
538.59	38815.44
538.75	38424.57
538.92	38843.53
539.09	38796.72
539.26	38904.38
539.43	39098.65
539.60	38401.17
539.77	38920.77
539.94	39061.20
540.11	38822.47
540.28	38916.09
540.44	38824.81
540.61	38897.36
540.78	38923.11
540.95	38920.77
541.12	39068.22
541.29	38969.92
541.46	39632.29
541.62	39426.32
541.79	40013.80
541.96	39384.19
542.13	39749.32
542.30	39388.88
542.47	39655.70
542.63	39852.30
542.80	39978.69
542.97	40245.51
543.14	40643.40
543.31	40158.91
543.48	39847.62
543.64	40575.53
543.81	40603.61
543.98	40428.07
544.15	40177.64
544.32	40577.87
544.48	41090.44
544.65	40741.71
544.82	40437.44
544.99	39955.29
545.16	40250.19
545.32	40612.98
545.49	40765.11
545.66	41074.06
545.83	40664.47
546.00	40928.95
546.16	40645.74
546.33	40748.73
546.50	40437.44
546.67	40917.25
546.83	40582.55
547.00	40882.14
547.17	40786.18
547.34	40921.93
547.50	41095.13
547.67	41649.83
547.84	41319.82
548.00	41305.77
548.17	41034.27
548.34	40968.74
548.51	41462.59
548.67	41490.68
548.84	42075.81
549.01	41106.83
549.18	41123.21
549.34	41478.97
549.51	41619.41
549.68	41907.29
549.84	41734.09
550.01	41865.16
550.18	41095.13
550.34	41853.46
550.51	41418.12
550.68	41553.87
550.84	41361.95
551.01	41649.83
551.18	41832.39
551.34	41902.61
551.51	41769.20
551.68	42115.60
551.84	42038.36
552.01	42073.47
552.18	42073.47
552.34	41654.51
552.51	42064.11
552.68	42286.46
552.84	42408.17
553.01	42122.62
553.18	42005.59
553.34	41844.10
553.51	42068.79
553.67	42462.00
553.84	42131.98
554.01	42375.40
554.17	42185.82
554.34	42979.26
554.51	42370.72
554.67	42483.06
554.84	42642.22
555.00	42323.91
555.17	42178.79
555.33	42597.75
555.50	42677.33
555.67	42848.19
555.83	42735.84
556.00	42653.92
556.16	43283.53
556.33	42873.93
556.50	43105.65
556.66	43054.15
556.83	42897.34
556.99	42560.30
557.16	42806.06
557.32	42913.72
557.49	42904.36
557.65	43107.99
557.82	43068.20
557.98	43107.99
558.15	43051.81
558.32	42780.31
558.48	42665.63
558.65	42948.83
558.81	42820.10
558.98	42799.04
559.14	43484.81
559.31	42534.56
559.47	43192.25
559.64	43297.57
559.80	43555.03
559.97	43749.29
560.13	42909.04
560.30	42887.98
560.46	43751.63
560.63	43143.09
560.79	43646.31
560.96	43325.66
561.12	43681.42
561.29	43274.16
561.45	43381.83
561.61	43276.51
561.78	43236.72
561.94	43150.12
562.11	43379.49
562.27	43274.16
562.44	43203.95
562.60	43648.65
562.77	43398.21
562.93	43725.89
563.10	43775.04
563.26	43246.08
563.42	43887.39
563.59	43339.70
563.75	43536.30
563.92	43398.21
564.08	43840.57
564.24	44069.95
564.41	43969.30
564.57	43735.25
564.74	44069.95
564.90	43941.22
565.07	43859.30
565.23	43466.09
565.39	43529.28
565.56	43854.62
565.72	43566.73
565.88	43917.81
566.05	43873.34
566.21	43791.42
566.38	43772.70
566.54	44058.24
566.70	43934.20
566.87	44545.08
567.03	43901.43
567.19	43952.92
567.36	43695.46
567.52	43753.97
567.68	44268.89
567.85	43849.94
568.01	43840.57
568.17	44009.09
568.34	43962.28
568.50	44009.09
568.66	43477.79
568.83	44027.82
568.99	43587.80
569.15	43753.97
569.32	43770.36
569.48	43990.37
569.64	44093.35
569.81	44273.57
569.97	44069.95
570.13	44133.14
570.30	43957.60
570.46	43473.11
570.62	43835.89
570.78	43704.82
570.95	43522.26
571.11	44311.02
571.27	44175.27
571.43	44112.08
571.60	44285.28
571.76	43854.62
571.92	43983.35
572.09	44088.67
572.25	44140.16
572.41	43831.21
572.57	44498.26
572.74	44821.26
572.90	44308.68
573.06	44318.04
573.22	44648.06
573.38	44577.84
573.55	44105.06
573.71	44505.29
573.87	44194.00
574.03	43765.68
574.20	43985.69
574.36	44165.91
574.52	44093.35
574.68	44456.14
574.84	44252.51
575.01	44212.72
575.17	44123.78
575.33	43782.06
575.49	43920.15
575.65	44388.26
575.82	44437.41
575.98	44114.42
576.14	44666.78
576.30	44264.21
576.46	44355.49
576.62	44451.45
576.79	44676.15
576.95	44098.03
577.11	44107.40
577.27	44011.43
577.43	44477.20
577.59	44552.10
577.75	44847.00
577.92	44144.84
578.08	43501.20
578.24	44261.87
578.40	44147.18
578.56	44229.10
578.72	44168.25
578.88	44509.97
579.04	44528.69
579.21	44058.24
579.37	43997.39
579.53	44374.22
579.69	44362.51
579.85	43817.17
580.01	44449.11
580.17	44524.01
580.33	44397.62
580.49	44683.17
580.65	44301.66
580.82	44414.01
580.98	44655.08
581.14	44002.07
581.30	44521.67
581.46	44746.36
581.62	44320.38
581.78	44245.49
581.94	44971.05
582.10	44219.74
582.26	44547.42
582.42	44378.90
582.58	44301.66
582.74	43988.03
582.90	44659.76
583.06	44809.56
583.22	44587.21
583.38	44879.77
583.54	44367.20
583.70	44650.40
583.86	44133.14
584.02	44107.40
584.18	44587.21
584.34	44697.21
584.50	44524.01
584.66	44261.87
584.82	44311.02
584.98	44671.46
585.14	44488.90
585.30	44339.11
585.46	44685.51
585.62	44041.86
585.78	44219.74
585.94	44009.09
586.10	44247.83
586.26	43950.58
586.42	44554.44
586.58	44589.55
586.74	44521.67
586.90	44371.88
587.06	44336.77
587.22	44711.25
587.38	44250.17
587.54	44762.75
587.70	44933.60
587.86	45055.31
588.02	44978.07
588.18	44931.26
588.34	44545.08
588.49	44273.57
588.65	44315.70
588.81	44165.91
588.97	44505.29
589.13	44446.77
589.29	44767.43
589.45	44987.44
589.61	44818.92
589.77	45137.23
589.93	44552.10
590.08	44942.97
590.24	44797.85
590.40	44811.90
590.56	44811.90
590.72	44851.69
590.88	44421.03
591.04	45029.57
591.20	44762.75
591.35	45158.30
591.51	45514.06
591.67	45200.43
591.83	44804.88
591.99	44720.62
592.15	44825.94
592.31	44601.25
592.46	44957.01
592.62	44617.63
592.78	45045.95
592.94	44919.56
593.10	44839.98
593.26	45394.69
593.41	45120.85
593.57	44917.22
593.73	45006.16
593.89	44488.90
594.05	44748.70
594.20	45137.23
594.36	45088.08
594.52	45268.30
594.68	44767.43
594.84	44919.56
594.99	45247.24
595.15	44580.18
595.31	45127.87
595.47	44531.03
595.62	45013.18
595.78	45289.37
595.94	45291.71
596.10	45242.56
596.25	45425.12
596.41	45120.85
596.57	44954.67
596.73	45214.47
596.88	44687.85
597.04	44980.42
597.20	44828.28
597.36	45179.36
597.51	45485.97
597.67	45340.86
597.83	45144.25
597.99	44947.65
598.14	44996.80
598.30	44500.61
598.46	45045.95
598.61	44563.80
598.77	44222.08
598.93	45425.12
599.09	45338.52
599.24	45200.43
599.40	44964.03
599.56	45263.62
599.71	45352.56
599.87	45043.61
600.03	45099.78
600.18	45258.94
600.34	45188.72
600.50	44942.97
600.65	44868.07
600.81	45055.31
600.97	45373.63
601.12	45361.92
601.28	45282.34
601.44	44942.97
601.59	44847.00
601.75	44486.56
601.91	45041.27
602.06	44858.71
602.22	45172.34
602.37	44795.51
602.53	44807.22
602.69	45464.91
602.84	44634.02
603.00	44781.47
603.16	45261.28
603.31	44961.69
603.47	45340.86
603.62	44397.62
603.78	44914.88
603.94	45074.04
604.09	45104.46
604.25	44954.67
604.40	44708.91
604.56	44919.56
604.71	45111.49
604.87	44989.78
605.03	45055.31
605.18	44722.96
605.34	44669.12
605.49	44800.19
605.65	45048.29
605.80	44818.92
605.96	44886.79
606.12	45153.62
606.27	44940.63
606.43	44737.00
606.58	44779.13
606.74	44905.52
606.89	44423.37
607.05	44638.70
607.20	44896.16
607.36	44870.41
607.51	45289.37
607.67	45212.13
607.82	44741.68
607.98	44725.30
608.13	44631.68
608.29	44854.03
608.44	44605.93
608.60	44729.98
608.75	44547.42
608.91	44332.09
609.06	44835.30
609.22	45057.65
609.37	44605.93
609.53	44737.00
609.68	44533.37
609.84	44596.57
609.99	44458.48
610.15	44509.97
610.30	44559.12
610.46	44273.57
610.61	44589.55
610.76	44418.69
610.92	44339.11
611.07	44718.28
611.23	44364.85
611.38	44390.60
611.54	44327.41
611.69	44083.99
611.84	44334.43
612.00	44294.64
612.15	44196.34
612.31	44397.62
612.46	44147.18
612.62	44428.05
612.77	44432.73
612.92	44437.41
613.08	44072.29
613.23	44430.39
613.39	44194.00
613.54	44140.16
613.69	44135.48
613.85	44116.76
614.00	44348.47
614.15	44545.08
614.31	43826.53
614.46	44238.47
614.62	43878.02
614.77	43662.69
614.92	44051.22
615.08	43892.07
615.23	43615.88
615.38	43557.37
615.54	43728.23
615.69	43711.84
615.84	43690.78
616.00	44208.04
616.15	43622.90
616.30	44229.10
616.46	43494.18
616.61	43882.70
616.76	43819.51
616.92	43526.94
617.07	43629.93
617.22	43594.82
617.37	43335.02
617.53	43899.09
617.68	43618.22
617.83	43936.54
617.99	43615.88
618.14	43117.35
618.29	43763.34
618.45	43140.75
618.60	43440.34
618.75	43555.03
618.90	43770.36
619.06	43409.92
619.21	43356.08
619.36	43765.68
619.51	43660.35
619.67	43248.42
619.82	43264.80
619.97	43227.35
620.12	43009.68
620.28	42822.44
620.43	43578.43
620.58	43131.39
620.73	43466.09
620.89	43068.20
621.04	43110.33
621.19	43274.16
621.34	43002.66
621.49	42724.14
621.65	42415.19
621.80	43370.13
621.95	42536.90
622.10	43079.90
622.25	42913.72
622.41	42490.09
622.56	42890.32
622.71	43173.52
622.86	43058.84
623.01	42733.50
623.16	43072.88
623.32	42801.38
623.47	43456.73
623.62	43023.73
623.77	43047.13
623.92	42667.97
624.07	42363.70
624.23	42457.32
624.38	42525.19
624.53	42637.54
624.68	42501.79
624.83	42553.28
624.98	42754.57
625.13	42469.02
625.29	42424.55
625.44	42590.73
625.59	42389.44
625.74	42181.13
625.89	41963.46
626.04	42206.88
626.19	41979.85
626.34	42377.74
626.49	42157.73
626.65	41703.67
626.80	42265.39
626.95	42192.84
627.10	41801.97
627.25	41691.96
627.40	41301.09
627.55	41581.96
627.70	41116.19
627.85	41715.37
628.00	41928.36
628.15	41722.39
628.30	41654.51
628.45	41851.12
628.60	41890.91
628.76	41790.27
628.91	42043.04
629.06	41722.39
629.21	41537.49
629.36	41486.00
629.51	41603.02
629.66	41797.29
629.81	41310.46
629.96	41645.15
630.11	41387.69
630.26	41677.92
630.41	41895.59
630.56	41471.95
630.71	41596.00
630.86	41326.84
631.01	41258.96
631.16	40992.14
631.31	40671.49
631.46	41041.29
631.61	40882.14
631.76	41764.52
631.91	41336.20
632.06	41378.33
632.21	41378.33
632.36	41804.31
632.51	40964.06
632.66	41118.53
632.81	41371.31
632.96	41170.02
633.10	41031.93
633.25	40776.81
633.40	40814.26
633.55	41064.70
633.70	41235.56
633.85	41064.70
634.00	41036.61
634.15	40835.33
634.30	40889.16
634.45	41331.52
634.60	40500.63
634.75	40865.75
634.90	40931.29
635.05	40921.93
635.19	40575.53
635.34	41289.39
635.49	40484.25
635.64	40435.10
635.79	40659.79
635.94	40669.15
636.09	40467.86
636.24	40287.64
636.39	40612.98
636.53	40533.40
636.68	40435.10
636.83	40219.77
636.98	40547.44
637.13	40074.65
637.28	40634.04
637.43	40596.59
637.57	40928.95
637.72	40369.56
637.87	40582.55
638.02	39997.41
638.17	40034.86
638.32	39840.60
638.46	39894.43
638.61	40088.70
638.76	39786.77
638.91	40135.51
639.06	39861.66
639.20	40493.61
639.35	39810.17
639.50	39988.05
639.65	40100.40
639.80	40507.65
639.94	40030.18
640.09	39990.39
640.24	39737.62
640.39	39817.19
640.54	39452.07
640.68	39519.95
640.83	39814.85
640.98	39346.75
641.13	39880.39
641.27	39852.30
641.42	39192.27
641.57	39695.49
641.72	39555.05
641.86	39388.88
642.01	39335.04
642.16	39112.69
642.31	39271.85
642.45	39356.11
642.60	38962.90
642.75	39023.75
642.90	39150.14
643.04	39302.28
643.19	39150.14
643.34	39402.92
643.48	39082.27
643.63	39337.38
643.78	38965.24
643.93	38707.78
644.07	39002.69
644.22	39304.62
644.37	38562.67
644.51	39077.58
644.66	39105.67
644.81	39009.71
644.95	39316.32
645.10	39281.21
645.25	38773.31
645.39	39056.52
645.54	39009.71
645.69	39271.85
645.83	38644.59
645.98	39208.65
646.13	38766.29
646.27	38775.66
646.42	38824.81
646.57	38778.00
646.71	38651.61
646.86	38855.23
647.00	38866.94
647.15	38508.83
647.30	38880.98
647.44	38583.73
647.59	38487.77
647.74	38532.24
647.88	38139.03
648.03	38541.60
648.17	38562.67
648.32	38155.41
648.47	38174.14
648.61	38602.46
648.76	38670.33
648.90	38600.12
649.05	38433.94
649.20	38330.95
649.34	38462.02
649.49	38047.75
649.63	38646.93
649.78	38550.96
649.92	38396.49
650.07	38314.57
650.21	38092.22
650.36	38115.62
650.51	38120.31
650.65	38473.73
650.80	39000.35
650.94	38693.74
651.09	38387.13
651.23	37731.78
651.38	38328.61
651.52	37502.40
651.67	38150.73
651.81	37827.74
651.96	37729.44
652.10	37809.01
652.25	37649.86
652.39	37722.41
652.54	37736.46
652.68	37958.81
652.83	37731.78
652.97	37940.08
653.12	37640.50
653.26	37345.59
653.41	37930.72
653.55	37617.09
653.70	37591.34
653.84	37467.30
653.99	37633.47
654.13	37502.40
654.27	37399.42
654.42	37345.59
654.56	37574.96
654.71	38047.75
654.85	37436.87
655.00	37422.83
655.14	37579.64
655.29	36992.17
655.43	37376.01
655.57	37013.23
655.72	37048.34
655.86	36748.75
656.01	36570.87
656.15	37090.47
656.30	37172.39
656.44	36861.10
656.58	37137.28
656.73	36748.75
656.87	36350.86
657.01	36634.06
657.16	36996.85
657.30	36720.66
657.45	36449.16
657.59	36849.39
657.73	36746.41
657.88	36865.78
658.02	36584.91
658.16	36823.65
658.31	36744.07
658.45	37020.25
658.60	36528.74
658.74	36774.50
658.88	36893.86
659.03	36690.24
659.17	36194.04
659.31	36577.89
659.46	36304.05
659.60	36353.20
659.74	36355.54
659.89	36252.56
660.03	36287.67
660.17	36229.15
660.32	36348.52
660.46	36692.58
660.60	36437.46
660.74	36081.70
660.89	36079.36
661.03	35866.37
661.17	35955.31
661.32	35810.20
661.46	35805.52
661.60	35571.46
661.74	35775.09
661.89	35576.14
662.03	35805.52
662.17	35501.25
662.31	35339.75
662.46	35728.28
662.60	35384.22
662.74	35215.70
662.88	35175.91
663.03	35070.59
663.17	35498.91
663.31	35234.42
663.45	35152.51
663.60	35108.04
663.74	35175.91
663.88	34829.51
664.02	34864.62
664.17	35065.91
664.31	34529.92
664.45	34630.57
664.59	34693.76
664.73	34691.42
664.88	34941.86
665.02	34817.81
665.16	34457.37
665.30	34511.20
665.44	34536.94
665.59	33823.08
665.73	34473.75
665.87	34099.26
666.01	34309.91
666.15	34106.29
666.29	34492.47
666.44	34204.59
666.58	34132.03
666.72	33818.40
666.86	34295.87
667.00	34366.09
667.14	33860.53
667.28	33584.35
667.43	34012.66
667.57	33933.09
667.71	33511.79
667.85	33591.37
667.99	33455.62
668.13	33516.47
668.27	33544.56
668.41	33626.48
668.56	33263.69
668.70	33371.36
668.84	32868.14
668.98	33020.28
669.12	33083.47
669.26	33043.68
669.40	33102.20
669.54	32807.29
669.68	33219.22
669.82	33060.07
669.96	32711.33
670.10	32268.97
670.25	32643.45
670.39	32912.61
670.53	32549.83
670.67	32004.49
670.81	32610.68
670.95	32528.77
671.09	32645.79
671.23	32236.20
671.37	32313.44
671.51	32367.27
671.65	32105.13
671.79	32088.74
671.93	31744.69
672.07	32315.78
672.21	32180.03
672.35	31608.93
672.49	31562.12
672.63	31868.73
672.77	31761.07
672.91	31597.23
673.05	31608.93
673.19	31695.53
673.33	31335.09
673.47	31136.15
673.61	31248.49
673.75	31047.21
673.89	31044.87
674.03	30941.88
674.17	30511.22
674.31	30960.61
674.45	31367.86
674.59	30670.38
674.73	31056.57
674.87	31033.16
675.01	30478.46
675.15	30768.68
675.29	30878.69
675.43	30565.06
675.56	30764.00
675.70	30705.49
675.84	30249.08
675.98	29270.74
676.12	29834.81
676.26	30267.81
676.40	30066.52
676.54	29635.86
676.68	30099.29
676.82	29607.78
676.96	29598.41
677.10	29486.07
677.23	29546.92
677.37	29153.71
677.51	29434.58
677.65	28774.55
677.79	28975.83
677.93	29233.29
678.07	28957.11
678.21	28811.99
678.34	28636.45
678.48	28540.49
678.62	28364.95
678.76	28561.56
678.90	28308.78
679.04	28278.35
679.18	28575.60
679.31	27964.72
679.45	28095.79
679.59	27304.69
679.73	27936.63
679.87	27541.08
680.00	28016.21
680.14	28133.24
680.28	27599.60
680.42	27016.80
680.56	27419.38
680.70	27220.43
680.83	27190.00
680.97	26930.20
681.11	27171.28
681.25	26955.95
681.39	27101.06
681.52	26717.22
681.66	26836.58
681.80	26913.82
681.94	26551.04
682.07	26197.62
682.21	26225.70
682.35	26356.77
682.49	26518.27
682.62	26141.44
682.76	25792.70
682.90	26064.21
683.04	25830.15
683.17	26087.61
683.31	25867.60
683.45	25891.01
683.59	25338.64
683.72	25776.32
683.86	25223.95
684.00	25198.21
684.13	25418.22
684.27	25167.78
684.41	25013.31
684.55	25020.33
684.68	24524.13
684.82	24732.44
684.96	24613.07
685.09	24692.65
685.23	24482.00
685.37	24442.21
685.50	24428.17
685.64	24318.17
685.78	24205.82
685.91	24166.03
686.05	24002.19
686.19	23723.67
686.32	23922.62
686.46	23749.42
686.60	23487.28
686.73	23709.63
686.87	23400.68
687.01	23349.18
687.14	23307.05
687.28	23358.55
687.42	23159.60
687.55	22637.66
687.69	22944.27
687.82	22799.16
687.96	22789.80
688.10	22771.07
688.23	22485.53
688.37	22403.61
688.50	22356.80
688.64	22361.48
688.78	22410.63
688.91	22228.07
689.05	22167.21
689.18	21652.30
689.32	21525.91
689.46	21940.18
689.59	22113.38
689.73	22132.11
689.86	21380.79
690.00	21905.07
690.13	21678.04
690.27	21413.56
690.41	21685.06
690.54	20968.86
690.68	21610.17
690.81	21245.04
690.95	20954.82
691.08	20975.88
691.22	20961.84
691.35	20966.52
691.49	20690.34
691.62	20753.53
691.76	20828.43
691.89	20798.00
692.03	20545.22
692.16	20823.75
692.30	20444.58
692.43	20173.08
692.57	19756.46
692.70	19981.15
692.84	19913.28
692.97	19887.53
693.11	19555.18
693.24	19719.01
693.38	19637.09
693.51	19271.97
693.65	19578.58
693.78	19634.75
693.92	19695.61
694.05	19159.63
694.19	19115.16
694.32	18885.78
694.45	19206.44
694.59	18831.95
694.72	19140.90
694.86	18972.38
694.99	18487.89
695.13	18441.08
695.26	18588.53
695.39	18558.11
695.53	18499.59
695.66	18403.63
695.80	18183.62
695.93	18295.97
696.07	18075.96
696.20	18356.82
696.33	17935.53
696.47	18085.32
696.60	18038.51
696.73	17902.76
696.87	17474.44
697.00	17879.35
697.14	17659.34
697.27	17628.92
697.40	17406.56
697.54	17310.60
697.67	17221.66
697.80	17270.81
697.94	17088.25
698.07	17228.68
698.21	16727.81
698.34	17111.66
698.47	17172.51
698.61	16587.38
698.74	16552.27
698.87	16641.21
699.01	16259.70
699.14	16580.36
699.27	16468.01
699.40	16325.24
699.54	16079.48
699.67	16044.37
699.80	16201.19
699.94	15939.05
700.07	15953.09
700.20	15969.48
700.34	15955.43
700.47	15866.49
700.60	16093.52
700.73	15871.17
700.87	15419.45
701.00	15279.02
701.13	15473.28
701.26	15569.24
701.40	15356.25
701.53	15323.49
701.66	15302.42
701.79	14953.68
701.93	14775.80
702.06	14661.12
702.19	14768.78
702.32	14480.89
702.46	14846.02
702.59	14836.66
702.72	14824.95
702.85	14850.70
702.99	14736.01
703.12	14572.18
703.25	14270.25
703.38	14434.08
703.51	14370.89
703.65	14565.15
703.78	14431.74
703.91	14045.55
704.04	14326.42
704.17	14246.84
704.31	13951.93
704.44	13341.05
704.57	13769.37
704.70	13427.65
704.83	13554.04
704.96	13767.03
705.10	13659.37
705.23	13727.24
>>>>>End Processed Spectral Data<<<<<
