SpectraSuite Data File
++++++++++++++++++++++++++++++++++++
Date: Thu Oct 24 13:21:06 EDT 2013
User: stostad
Dark Spectrum Present: No
Reference Spectrum Present: No
Number of Sampled Component Spectra: 1
Spectrometers: USB2+H05261
Integration Time (usec): 100000 (USB2+H05261)
Spectra Averaged: 1 (USB2+H05261)
Boxcar Smoothing: 0 (USB2+H05261)
Correct for Electrical Dark: No (USB2+H05261)
Strobe/Lamp Enabled: No (USB2+H05261)
Correct for Detector Non-linearity: No (USB2+H05261)
Correct for Stray Light: No (USB2+H05261)
Number of Pixels in Processed Spectrum: 2048
>>>>>Begin Processed Spectral Data<<<<<
365.73	540.66
365.92	540.66
366.12	540.66
366.32	465.77
366.52	414.27
366.72	449.38
366.91	416.62
367.11	461.09
367.31	433.00
367.51	447.04
367.70	393.21
367.90	414.27
368.10	454.06
368.30	517.26
368.49	449.38
368.69	463.43
368.89	503.22
369.09	472.79
369.28	526.62
369.48	491.51
369.68	484.49
369.87	498.53
370.07	447.04
370.27	489.17
370.47	641.31
370.66	671.73
370.86	617.90
371.06	648.33
371.25	713.86
371.45	755.99
371.65	690.46
371.84	737.27
372.04	699.82
372.24	727.91
372.44	734.93
372.63	746.63
372.83	784.08
373.03	755.99
373.22	779.40
373.42	746.63
373.62	802.80
373.81	793.44
374.01	791.10
374.21	844.93
374.40	851.96
374.60	809.83
374.79	821.53
374.99	812.17
375.19	835.57
375.38	802.80
375.58	814.51
375.78	770.04
375.97	809.83
376.17	830.89
376.37	887.06
376.56	819.19
376.76	873.02
376.95	866.00
377.15	830.89
377.35	842.59
377.54	842.59
377.74	781.74
377.93	770.04
378.13	837.91
378.33	833.23
378.52	772.38
378.72	823.87
378.91	842.59
379.11	779.40
379.31	903.45
379.50	770.04
379.70	821.53
379.89	915.15
380.09	873.02
380.28	847.27
380.48	781.74
380.68	812.17
380.87	861.32
381.07	884.72
381.26	908.13
381.46	856.64
381.65	880.04
381.85	887.06
382.04	936.21
382.24	894.08
382.43	788.76
382.63	840.25
382.83	898.77
383.02	940.90
383.22	931.53
383.41	847.27
383.61	814.51
383.80	910.47
384.00	814.51
384.19	926.85
384.39	877.70
384.58	915.15
384.78	889.40
384.97	819.19
385.17	891.74
385.36	917.49
385.56	950.26
385.75	910.47
385.95	861.32
386.14	840.25
386.34	866.00
386.53	915.15
386.72	898.77
386.92	901.11
387.11	917.49
387.31	931.53
387.50	973.66
387.70	936.21
387.89	917.49
388.09	971.32
388.28	938.55
388.48	915.15
388.67	919.83
388.86	985.37
389.06	961.96
389.25	926.85
389.45	917.49
389.64	1062.60
389.84	964.30
390.03	1032.18
390.22	997.07
390.42	1069.62
390.61	938.55
390.81	1006.43
391.00	966.64
391.19	964.30
391.39	1022.81
391.58	959.62
391.78	980.68
391.97	1064.94
392.16	1027.50
392.36	1013.45
392.55	1001.75
392.75	1022.81
392.94	1034.52
393.13	1043.88
393.33	978.34
393.52	1078.99
393.71	1018.13
393.91	971.32
394.10	997.07
394.29	1081.33
394.49	1050.90
394.68	1050.90
394.88	1057.92
395.07	1132.82
395.26	1118.78
395.46	1013.45
395.65	1121.12
395.84	1214.74
396.04	1111.75
396.23	1095.37
396.42	1078.99
396.62	1158.57
396.81	1100.05
397.00	1181.97
397.19	1067.28
397.39	1142.18
397.58	1165.59
397.77	1022.81
397.97	1170.27
398.16	1144.52
398.35	1135.16
398.55	1097.71
398.74	1181.97
398.93	1114.10
399.12	1163.25
399.32	1093.03
399.51	1118.78
399.70	1277.93
399.90	1184.31
400.09	1221.76
400.28	1289.64
400.47	1226.44
400.67	1231.12
400.86	1196.01
401.05	1203.04
401.24	1287.29
401.44	1210.06
401.63	1245.16
401.82	1268.57
402.01	1158.57
402.21	1226.44
402.40	1233.46
402.59	1362.19
402.78	1348.15
402.97	1277.93
403.17	1315.38
403.36	1275.59
403.55	1259.21
403.74	1306.02
403.93	1378.58
404.13	1387.94
404.32	1434.75
404.51	1324.74
404.70	1390.28
404.89	1352.83
405.09	1490.92
405.28	1432.41
405.47	1383.26
405.66	1362.19
405.85	1390.28
406.05	1444.11
406.24	1448.79
406.43	1455.81
406.62	1439.43
406.81	1469.86
407.00	1467.52
407.20	1469.86
407.39	1416.02
407.58	1394.96
407.77	1495.60
407.96	1537.73
408.15	1462.83
408.34	1502.62
408.54	1586.88
408.73	1528.37
408.92	1446.45
409.11	1507.30
409.30	1629.01
409.49	1643.06
409.68	1558.80
409.87	1486.24
410.07	1591.56
410.26	1589.22
410.45	1530.71
410.64	1500.28
410.83	1584.54
411.02	1647.74
411.21	1689.87
411.40	1633.69
411.59	1617.31
411.78	1554.12
411.98	1715.61
412.17	1668.80
412.36	1687.53
412.55	1675.82
412.74	1727.32
412.93	1746.04
413.12	1685.19
413.31	1778.81
413.50	1755.40
413.69	1795.19
413.88	1769.44
414.07	1785.83
414.26	1713.27
414.45	1872.43
414.64	1776.47
414.83	1933.28
415.02	1895.83
415.22	1935.62
415.41	1916.90
415.60	1921.58
415.79	1916.90
415.98	1912.22
416.17	1982.43
416.36	1863.07
416.55	1912.22
416.74	1940.30
416.93	1874.77
417.12	1982.43
417.31	1980.09
417.50	1909.88
417.69	2003.50
417.88	1849.02
418.07	2033.93
418.26	2010.52
418.45	1952.01
418.64	2094.78
418.83	1989.46
419.02	2005.84
419.21	2150.95
419.39	2186.06
419.58	2153.29
419.77	2040.95
419.96	2200.10
420.15	2136.91
420.34	2073.71
420.53	2153.29
420.72	2197.76
420.91	2136.91
421.10	2129.89
421.29	2279.68
421.48	2113.50
421.67	2235.21
421.86	2214.15
422.05	2216.49
422.24	2270.32
422.43	2221.17
422.61	2305.43
422.80	2263.30
422.99	2232.87
423.18	2132.23
423.37	2286.70
423.56	2312.45
423.75	2230.53
423.94	2167.34
424.13	2200.10
424.32	2258.62
424.50	2335.85
424.69	2303.09
424.88	2305.43
425.07	2310.11
425.26	2230.53
425.45	2317.13
425.64	2335.85
425.83	2246.91
426.01	2211.81
426.20	2202.44
426.39	2328.83
426.58	2277.34
426.77	2230.53
426.96	2225.85
427.15	2263.30
427.33	2307.77
427.52	2300.75
427.71	2375.64
427.90	2490.33
428.09	2328.83
428.28	2469.27
428.46	2473.95
428.65	2478.63
428.84	2413.09
429.03	2520.76
429.22	2513.74
429.40	2415.43
429.59	2438.84
429.78	2335.85
429.97	2326.49
430.16	2485.65
430.34	2399.05
430.53	2516.08
430.72	2516.08
430.91	2518.42
431.10	2495.01
431.28	2539.48
431.47	2616.72
431.66	2602.68
431.85	2619.06
432.03	2619.06
432.22	2715.02
432.41	2572.25
432.60	2651.83
432.79	2504.37
432.97	2572.25
433.16	2647.15
433.35	2626.08
433.54	2630.76
433.72	2560.55
433.91	2663.53
434.10	2719.70
434.28	2754.81
434.47	2626.08
434.66	2689.28
434.85	2780.56
435.03	2857.79
435.22	3143.34
435.41	3145.68
435.59	3108.23
435.78	3075.46
435.97	2946.73
436.16	2810.98
436.34	2789.92
436.53	2670.55
436.72	2834.39
436.90	2715.02
437.09	2806.30
437.28	2913.97
437.46	2803.96
437.65	2843.75
437.84	2855.45
438.02	2815.66
438.21	3009.93
438.40	2834.39
438.58	2918.65
438.77	2932.69
438.96	3124.62
439.14	3030.99
439.33	3014.61
439.52	3021.63
439.70	3038.02
439.89	3110.57
440.08	3033.33
440.26	3094.19
440.45	3056.74
440.63	3117.59
440.82	3117.59
441.01	3094.19
441.19	3199.51
441.38	3157.38
441.57	3234.62
441.75	3253.34
441.94	3321.22
442.12	3281.43
442.31	3262.71
442.50	3267.39
442.68	3276.75
442.87	3346.97
443.05	3213.56
443.24	3351.65
443.43	3389.10
443.61	3330.58
443.80	3480.38
443.98	3346.97
444.17	3129.30
444.35	3454.63
444.54	3372.71
444.73	3410.16
444.91	3456.97
445.10	3468.67
445.28	3391.44
445.47	3389.10
445.65	3552.93
445.84	3321.22
446.02	3508.46
446.21	3461.65
446.39	3403.14
446.58	3386.76
446.77	3428.88
446.95	3396.12
447.14	3449.95
447.32	3520.17
447.51	3442.93
447.69	3459.31
447.88	3527.19
448.06	3604.42
448.25	3412.50
448.43	3459.31
448.62	3428.88
448.80	3506.12
448.99	3494.42
449.17	3639.53
449.36	3407.82
449.54	3581.02
449.73	3538.89
449.91	3454.63
450.10	3627.83
450.28	3667.62
450.46	3700.39
450.65	3606.77
450.83	3772.94
451.02	3569.32
451.20	3772.94
451.39	3681.66
451.57	3714.43
451.76	3695.71
451.94	3712.09
452.13	3763.58
452.31	3716.77
452.49	3581.02
452.68	3791.67
452.86	3735.50
453.05	3676.98
453.23	3815.07
453.42	3733.15
453.60	3719.11
453.78	3777.62
453.97	3786.99
454.15	3775.28
454.34	3871.25
454.52	3779.97
454.70	3829.12
454.89	3904.01
455.07	3840.82
455.26	4007.00
455.44	3826.78
455.62	3836.14
455.81	4007.00
455.99	3985.93
456.17	4009.34
456.36	4100.62
456.54	4067.85
456.73	4166.15
456.91	4159.13
457.09	4079.55
457.28	4126.36
457.46	4145.09
457.64	4147.43
457.83	4023.38
458.01	4126.36
458.19	4187.22
458.38	4105.30
458.56	4109.98
458.74	4091.26
458.93	4180.20
459.11	4180.20
459.29	4210.62
459.48	4236.37
459.66	4278.50
459.84	4243.39
460.03	4320.63
460.21	4252.75
460.39	4182.54
460.57	4320.63
460.76	4435.32
460.94	4259.78
461.12	4437.66
461.31	4297.22
461.49	4264.46
461.67	4432.97
461.85	4465.74
462.04	4442.34
462.22	4753.63
462.40	4486.81
462.59	4493.83
462.77	4402.55
462.95	4498.51
463.13	4507.87
463.32	4519.57
463.50	4624.90
463.68	4493.83
463.86	4535.96
464.05	4372.12
464.23	4491.49
464.41	4662.35
464.59	4461.06
464.78	4622.56
464.96	4573.41
465.14	4559.36
465.32	4678.73
465.50	4606.17
465.69	4711.50
465.87	4748.95
466.05	4608.51
466.23	4592.13
466.41	4650.64
466.60	4725.54
466.78	4767.67
466.96	4688.09
467.14	4713.84
467.32	4713.84
467.51	4748.95
467.69	4786.40
467.87	4713.84
468.05	4830.87
468.23	4896.40
468.41	4791.08
468.60	4819.16
468.78	4849.59
468.96	4767.67
469.14	4922.15
469.32	4826.18
469.50	4748.95
469.69	4882.36
469.87	4905.76
470.05	5011.09
470.23	4966.62
470.41	4954.91
470.59	5123.43
470.77	4997.04
470.95	5151.52
471.14	5142.16
471.32	4985.34
471.50	5090.67
471.68	4926.83
471.86	5013.43
472.04	5090.67
472.22	5277.91
472.40	5039.17
472.58	5076.62
472.77	5247.48
472.95	5247.48
473.13	5432.38
473.31	5259.18
473.49	5193.65
473.67	5191.31
473.85	5366.85
474.03	5561.11
474.21	5497.92
474.39	5458.13
474.57	5448.77
474.75	5652.39
474.93	5528.35
475.12	5514.30
475.30	5533.03
475.48	5694.52
475.66	5771.76
475.84	5540.05
476.02	5799.85
476.20	5858.36
476.38	5818.57
476.56	5870.06
476.74	6036.24
476.92	5753.04
477.10	5778.78
477.28	5863.04
477.46	5975.39
477.64	6001.13
477.82	6031.56
478.00	6094.76
478.18	5982.41
478.36	6118.16
478.54	6401.37
478.72	6324.13
478.90	6408.39
479.08	6417.75
479.26	6506.69
479.44	6410.73
479.62	6335.83
479.80	6569.88
479.98	6560.52
480.16	6583.93
480.34	6602.65
480.52	6892.88
480.70	6612.01
480.88	6911.60
481.06	6775.85
481.24	6808.62
481.41	6974.80
481.59	7012.24
481.77	7098.84
481.95	7169.06
482.13	7042.67
482.31	7293.11
482.49	7353.96
482.67	7082.46
482.85	7279.07
483.03	7258.00
483.21	7531.84
483.39	7698.02
483.57	7433.54
483.74	7440.56
483.92	7548.23
484.10	7433.54
484.28	7662.91
484.46	7953.14
484.64	7836.11
484.82	7679.30
485.00	7878.24
485.18	8175.49
485.35	8292.52
485.53	8238.69
485.71	8355.71
485.89	8308.90
486.07	8444.65
486.25	8276.13
486.43	8365.07
486.61	8468.06
486.78	8519.55
486.96	8784.03
487.14	8706.79
487.32	8723.18
487.50	8896.38
487.68	8947.87
487.85	8968.93
488.03	9142.13
488.21	9137.45
488.39	9111.71
488.57	9116.39
488.75	9385.55
488.92	9308.31
489.10	9238.09
489.28	9317.67
489.46	9570.45
489.64	9647.69
489.81	9802.16
489.99	9757.69
490.17	9760.03
490.35	9956.64
490.53	9872.38
490.70	9790.46
490.88	9867.70
491.06	10036.22
491.24	10134.52
491.41	10106.43
491.59	10132.18
491.77	10167.29
491.95	10436.45
492.13	10331.12
492.30	10471.56
492.48	10281.97
492.66	10548.79
492.84	10410.70
493.01	10642.42
493.19	10733.70
493.37	10937.32
493.54	10677.52
493.72	10803.91
493.90	10946.69
494.08	10719.65
494.25	11070.73
494.43	11154.99
494.61	11030.94
494.79	11105.84
494.96	11059.03
495.14	11213.51
495.32	11403.09
495.49	11302.45
495.67	11508.41
495.85	11557.57
496.02	11468.62
496.20	11606.72
496.38	11646.51
496.55	11716.72
496.73	11990.56
496.91	11871.20
497.09	11843.11
497.26	12114.61
497.44	12070.14
497.62	12142.70
497.79	12154.40
497.97	11955.46
498.14	12196.53
498.32	12128.66
498.50	12297.17
498.67	12358.03
498.85	12414.20
499.03	12519.53
499.20	12437.61
499.38	12594.42
499.56	12507.82
499.73	12545.27
499.91	12727.83
500.08	12936.14
500.26	12505.48
500.44	12910.40
500.61	12730.17
500.79	12901.03
500.97	12952.52
501.14	12978.27
501.32	13202.96
501.49	13205.30
501.67	13090.62
501.84	13425.31
502.02	13312.97
502.20	13268.50
502.37	13144.45
502.55	13341.05
502.72	13427.65
502.90	13500.21
503.07	13308.29
503.25	13242.75
503.43	13540.00
503.60	13415.95
503.78	13437.02
503.95	13481.49
504.13	13547.02
504.30	13923.85
504.48	13884.06
504.65	13914.48
504.83	14106.41
505.01	13930.87
505.18	14094.71
505.36	14059.60
505.53	13935.55
505.71	14171.94
505.88	14235.14
506.06	14534.73
506.23	14319.40
506.41	14277.27
506.58	14256.20
506.76	14267.91
506.93	14436.42
507.11	14616.65
507.28	14363.87
507.46	14792.19
507.63	14572.18
507.81	14555.79
507.98	14541.75
508.16	14366.21
508.33	14565.15
508.50	14998.15
508.68	14696.22
508.85	14920.92
509.03	14885.81
509.20	15016.88
509.38	14888.15
509.55	15108.16
509.73	15208.80
509.90	15206.46
510.08	15215.82
510.25	15119.86
510.42	14904.53
510.60	15028.58
510.77	15164.33
510.95	15508.39
511.12	15566.90
511.30	15382.00
511.47	15344.55
511.64	15620.74
511.82	15861.81
511.99	15779.89
512.17	15536.48
512.34	16046.71
512.51	15744.78
512.69	15859.47
512.86	15819.68
513.04	15976.50
513.21	15807.98
513.38	15960.11
513.56	16065.44
513.73	16044.37
513.90	15882.88
514.08	15690.95
514.25	16198.85
514.43	16297.15
514.60	16098.20
514.77	16107.57
514.95	16102.89
515.12	16362.69
515.29	16161.40
515.47	16510.14
515.64	16758.24
515.81	16540.57
515.99	16365.03
516.16	16578.01
516.33	16306.51
516.51	16554.61
516.68	16716.11
516.85	16695.04
517.03	16849.52
517.20	16552.27
517.37	16690.36
517.54	16648.23
517.72	16870.58
517.89	17303.58
518.06	16980.59
518.24	17090.59
518.41	17128.04
518.58	17001.65
518.75	16437.58
518.93	16823.77
519.10	16999.31
519.27	17053.14
519.45	17193.58
519.62	17207.62
519.79	16975.91
519.96	17404.22
520.14	17151.45
520.31	17467.42
520.48	17277.83
520.65	17181.87
520.83	17336.35
521.00	17685.09
521.17	17544.66
521.34	17467.42
521.52	17504.87
521.69	17422.95
521.86	17310.60
522.03	17263.79
522.20	17626.57
522.38	17895.74
522.55	17921.48
522.72	17771.69
522.89	17696.79
523.07	17891.06
523.24	17855.95
523.41	17869.99
523.58	17975.31
523.75	17832.54
523.92	17860.63
524.10	18068.94
524.27	18328.74
524.44	18302.99
524.61	18078.30
524.78	18277.24
524.96	18345.12
525.13	18403.63
525.30	18359.16
525.47	18167.24
525.64	18321.71
525.81	18408.31
525.98	18373.21
526.16	18408.31
526.33	18345.12
526.50	18630.66
526.67	18403.63
526.84	18504.28
527.01	18747.69
527.18	18675.13
527.36	18452.78
527.53	18794.50
527.70	18876.42
527.87	18590.88
528.04	18850.67
528.21	18672.79
528.38	18792.16
528.55	18827.27
528.72	18487.89
528.89	18625.98
529.07	18890.46
529.24	18656.41
529.41	19037.92
529.58	19089.41
529.75	18738.33
529.92	19211.12
530.09	19260.27
530.26	19115.16
530.43	19286.01
530.60	18820.25
530.77	18874.08
530.94	19396.02
531.11	19679.22
531.28	19009.83
531.46	19138.56
531.63	19297.72
531.80	19515.39
531.97	19002.81
532.14	19250.91
532.31	19693.27
532.48	19454.53
532.65	19800.93
532.82	19407.72
532.99	19353.89
533.16	19405.38
533.33	19463.90
533.50	19679.22
533.67	19688.59
533.84	19463.90
534.01	19826.68
534.18	19711.99
534.35	19861.79
534.52	19744.76
534.69	19843.06
534.86	19625.39
535.03	19723.69
535.20	20121.59
535.37	19908.60
535.54	19777.53
535.71	20163.72
535.88	19946.05
536.05	20203.50
536.22	19866.47
536.38	20236.27
536.55	19906.26
536.72	19866.47
536.89	20285.42
537.06	20130.95
537.23	20372.02
537.40	20521.82
537.57	20311.17
537.74	20369.68
537.91	20264.36
538.08	20547.56
538.25	20388.41
538.42	20493.73
538.59	20648.21
538.75	20159.03
538.92	20549.90
539.09	20521.82
539.26	20641.18
539.43	20643.52
539.60	20458.62
539.77	20730.12
539.94	20723.10
540.11	20788.64
540.28	21018.01
540.44	20844.81
540.61	20617.78
540.78	20884.60
540.95	20601.40
541.12	20996.95
541.29	21186.53
541.46	21411.22
541.62	21406.54
541.79	21635.91
541.96	21305.90
542.13	21273.13
542.30	21553.99
542.47	21188.87
542.63	21448.67
542.80	21647.61
542.97	21776.34
543.14	22139.13
543.31	21898.05
543.48	21341.00
543.64	21680.38
543.81	21710.81
543.98	21958.91
544.15	21610.17
544.32	21977.63
544.48	21715.49
544.65	21820.81
544.82	21738.90
544.99	21886.35
545.16	21874.65
545.32	22078.27
545.49	22263.18
545.66	22609.58
545.83	22918.53
546.00	22644.68
546.16	22721.92
546.33	22022.10
546.50	22216.36
546.67	22218.71
546.83	21497.82
547.00	21844.22
547.17	21752.94
547.34	21858.26
547.50	21825.50
547.67	21954.22
547.84	22052.53
548.00	22087.64
548.17	22478.50
548.34	21923.80
548.51	21947.20
548.67	22106.36
548.84	22239.77
549.01	22188.28
549.18	22057.21
549.34	22333.39
549.51	21944.86
549.68	22192.96
549.84	22031.46
550.01	22230.41
550.18	22167.21
550.34	21766.98
550.51	22190.62
550.68	22031.46
550.84	21839.54
551.01	21766.98
551.18	22080.61
551.34	21893.37
551.51	22169.55
551.68	21823.16
551.84	21944.86
552.01	22309.99
552.18	22181.26
552.34	22368.50
552.51	22485.53
552.68	22377.86
552.84	22277.22
553.01	22450.42
553.18	22415.31
553.34	22455.10
553.51	22370.84
553.67	22408.29
553.84	22820.22
554.01	22586.17
554.17	22525.32
554.34	22441.06
554.51	22438.72
554.67	22810.86
554.84	22314.67
555.00	22508.93
555.17	22698.52
555.33	22405.95
555.50	22298.28
555.67	22419.99
555.83	22656.39
556.00	22813.20
556.16	22860.01
556.33	22600.21
556.50	22630.64
556.66	22499.57
556.83	22424.67
556.99	22707.88
557.16	22534.68
557.32	22733.62
557.49	22714.90
557.65	22478.50
557.82	22796.82
557.98	22558.08
558.15	23101.09
558.32	22530.00
558.48	22691.49
558.65	22838.95
558.81	23063.64
558.98	22864.69
559.14	22890.44
559.31	22539.36
559.47	22810.86
559.64	22637.66
559.80	22960.66
559.97	23171.30
560.13	22960.66
560.30	22651.70
560.46	22869.37
560.63	23091.73
560.79	23143.22
560.96	23014.49
561.12	22941.93
561.29	22768.73
561.45	22602.55
561.61	23190.03
561.78	23267.27
561.94	23049.60
562.11	23133.86
562.27	23065.98
562.44	22963.00
562.60	23101.09
562.77	22871.72
562.93	22948.95
563.10	23590.26
563.26	23021.51
563.42	23070.66
563.59	22906.82
563.75	23410.04
563.92	23384.29
564.08	22904.48
564.24	23028.53
564.41	23332.80
564.57	23152.58
564.74	23241.52
564.90	23295.35
565.07	23433.44
565.23	23023.85
565.39	23150.24
565.56	23311.74
565.72	23105.77
565.88	22979.38
566.05	23035.55
566.21	23002.78
566.38	23110.45
566.54	23183.01
566.70	23330.46
566.87	23288.33
567.03	23108.11
567.19	23611.32
567.36	23318.76
567.52	23304.71
567.68	23342.16
567.85	23183.01
568.01	23424.08
568.17	23253.22
568.34	22644.68
568.50	23623.03
568.66	23363.23
568.83	23433.44
568.99	23564.51
569.15	23098.75
569.32	23363.23
569.48	23239.18
569.64	23730.69
569.81	23276.63
569.97	23379.61
570.13	23239.18
570.30	23246.20
570.46	23475.57
570.62	23229.82
570.78	23183.01
570.95	23077.68
571.11	23536.43
571.27	23491.96
571.43	23534.09
571.60	23318.76
571.76	23426.42
571.92	23655.79
572.09	23597.28
572.25	23449.83
572.41	23924.96
572.57	23620.69
572.74	23821.97
572.90	23583.24
573.06	23578.56
573.22	23433.44
573.38	23494.30
573.55	23311.74
573.71	23676.86
573.87	23393.65
574.03	23386.63
574.20	23700.26
574.36	23166.62
574.52	23538.77
574.68	23300.03
574.84	23440.47
575.01	23630.05
575.17	23978.79
575.33	23466.21
575.49	23419.40
575.65	23660.48
575.82	23887.51
575.98	23655.79
576.14	23833.68
576.30	23758.78
576.46	23300.03
576.62	23840.70
576.79	23557.49
576.95	23496.64
577.11	23573.88
577.27	23548.13
577.43	23442.81
577.59	23693.24
577.75	23573.88
577.92	23620.69
578.08	23550.47
578.24	23424.08
578.40	23688.56
578.56	23812.61
578.72	24201.14
578.88	24133.26
579.04	23997.51
579.21	23555.15
579.37	23648.77
579.53	24175.39
579.69	23658.14
579.85	23913.25
580.01	23789.20
580.17	23852.40
580.33	23896.87
580.49	23608.98
580.65	23688.56
580.82	23693.24
580.98	23737.71
581.14	23274.29
581.30	23789.20
581.46	23639.41
581.62	23545.79
581.78	23639.41
581.94	23669.84
582.10	23805.59
582.26	23828.99
582.42	23304.71
582.58	23433.44
582.74	23960.06
582.90	23878.15
583.06	23789.20
583.22	23852.40
583.38	23604.30
583.54	23782.18
583.70	24079.43
583.86	23826.65
584.02	23529.41
584.18	23660.48
584.34	23878.15
584.50	23491.96
584.66	23608.98
584.82	23803.25
584.98	23828.99
585.14	23901.55
585.30	23833.68
585.46	23606.64
585.62	23730.69
585.78	23686.22
585.94	24016.24
586.10	23934.32
586.26	24116.88
586.42	24130.92
586.58	23901.55
586.74	23669.84
586.90	23697.92
587.06	24095.82
587.22	23894.53
587.38	24119.22
587.54	24187.10
587.70	24151.99
587.86	24098.16
588.02	23718.99
588.18	24058.37
588.34	23770.48
588.49	23608.98
588.65	23840.70
588.81	23754.10
588.97	23798.57
589.13	23885.17
589.29	23824.31
589.45	23882.83
589.61	23929.64
589.77	24264.33
589.93	24159.01
590.08	24002.19
590.24	23826.65
590.40	24095.82
590.56	23906.23
590.72	23763.46
590.88	24065.39
591.04	24243.27
591.20	24058.37
591.35	24428.17
591.51	24425.83
591.67	23836.02
591.83	24009.22
591.99	24084.11
592.15	23903.89
592.31	24151.99
592.46	23740.05
592.62	24088.79
592.78	24056.03
592.94	23962.40
593.10	23721.33
593.26	24699.67
593.41	24386.04
593.57	23953.04
593.73	24107.52
593.89	24109.86
594.05	23859.42
594.20	24119.22
594.36	23978.79
594.52	23997.51
594.68	24063.05
594.84	23857.08
594.99	24182.42
595.15	24093.47
595.31	23953.04
595.47	24039.64
595.62	23810.27
595.78	23854.74
595.94	24070.07
596.10	23531.75
596.25	24163.69
596.41	23857.08
596.57	23929.64
596.73	23880.49
596.88	23992.83
597.04	24067.73
597.20	23971.77
597.36	24243.27
597.51	24407.11
597.67	24386.04
597.83	23941.34
597.99	23924.96
598.14	24046.66
598.30	24210.50
598.46	24032.62
598.61	24587.33
598.77	24130.92
598.93	23957.72
599.09	24266.67
599.24	24229.23
599.40	24151.99
599.56	24360.30
599.71	24259.65
599.87	24173.05
600.03	23934.32
600.18	24137.94
600.34	23859.42
600.50	24027.94
600.65	23765.80
600.81	23821.97
600.97	24465.62
601.12	24245.61
601.28	24116.88
601.44	24205.82
601.59	24072.41
601.75	23796.23
601.91	24217.52
602.06	23948.36
602.22	24058.37
602.37	24147.31
602.53	23817.29
602.69	24554.56
602.84	24460.94
603.00	24287.74
603.16	24210.50
603.31	23978.79
603.47	24121.56
603.62	24126.24
603.78	23833.68
603.94	23957.72
604.09	24442.21
604.25	24236.25
604.40	23882.83
604.56	23976.45
604.71	24290.08
604.87	24187.10
605.03	24023.26
605.18	24088.79
605.34	23967.09
605.49	23793.89
605.65	24201.14
605.80	23920.28
605.96	24151.99
606.12	24212.84
606.27	24526.47
606.43	24318.17
606.58	24231.57
606.74	24102.84
606.89	23953.04
607.05	23618.35
607.20	23662.82
607.36	23480.25
607.51	23988.15
607.67	23978.79
607.82	24189.44
607.98	24205.82
608.13	23964.75
608.29	24290.08
608.44	23906.23
608.60	24006.87
608.75	24592.01
608.91	24079.43
609.06	24357.96
609.22	24039.64
609.37	23906.23
609.53	23875.80
609.68	24074.75
609.84	23906.23
609.99	24011.56
610.15	24210.50
610.30	24332.21
610.46	24929.05
610.61	24491.37
610.76	25090.54
610.92	25039.05
611.07	24673.93
611.23	24851.81
611.38	25296.51
611.54	25043.73
611.69	24896.28
611.84	24954.79
612.00	24851.81
612.15	24636.48
612.31	24484.34
612.46	24252.63
612.62	24156.67
612.77	23805.59
612.92	24180.07
613.08	23859.42
613.23	24100.50
613.39	23634.73
613.54	24053.69
613.69	23910.91
613.85	24187.10
614.00	24114.54
614.15	24027.94
614.31	23992.83
614.46	24004.53
614.62	23885.17
614.77	23777.50
614.92	23843.04
615.08	23414.72
615.23	23796.23
615.38	23758.78
615.54	23552.81
615.69	23405.36
615.84	23836.02
616.00	23489.62
616.15	23520.04
616.30	23534.09
616.46	23440.47
616.61	23419.40
616.76	23618.35
616.92	23538.77
617.07	23637.07
617.22	23524.72
617.37	23239.18
617.53	23403.02
617.68	23077.68
617.83	23707.29
617.99	23208.75
618.14	23529.41
618.29	23101.09
618.45	23243.86
618.60	23213.43
618.75	23049.60
618.90	23129.17
619.06	23192.37
619.21	23117.47
619.36	23033.21
619.51	22979.38
619.67	22712.56
619.82	22726.60
619.97	23159.60
620.12	22806.18
620.28	23091.73
620.43	23351.52
620.58	23419.40
620.73	23321.10
620.89	23321.10
621.04	22803.84
621.19	22771.07
621.34	22792.14
621.49	23002.78
621.65	22724.26
621.80	22941.93
621.95	23190.03
622.10	22904.48
622.25	23051.94
622.41	23133.86
622.56	22721.92
622.71	22876.40
622.86	23044.91
623.01	22537.02
623.16	22623.62
623.32	22977.04
623.47	23028.53
623.62	22855.33
623.77	22932.57
623.92	22885.76
624.07	22768.73
624.23	23119.81
624.38	23133.86
624.53	22829.59
624.68	22691.49
624.83	22668.09
624.98	22490.21
625.13	22686.81
625.29	22684.47
625.44	22733.62
625.59	22955.97
625.74	22799.16
625.89	22590.85
626.04	22384.88
626.19	22761.71
626.34	22043.17
626.49	22515.95
626.65	22497.23
626.80	22434.03
626.95	22572.13
627.10	22199.98
627.25	22452.76
627.40	22352.12
627.55	22139.13
627.70	22450.42
627.85	22216.36
628.00	22293.60
628.15	22342.75
628.30	22192.96
628.45	22251.47
628.60	22085.30
628.76	21970.61
628.91	22078.27
629.06	21741.24
629.21	22452.76
629.36	22078.27
629.51	21979.97
629.66	22169.55
629.81	21921.46
629.96	22040.82
630.11	22216.36
630.26	22129.77
630.41	21989.33
630.56	22134.45
630.71	22263.18
630.86	22160.19
631.01	21977.63
631.16	22155.51
631.31	21844.22
631.46	21867.63
631.61	21834.86
631.76	22108.70
631.91	22061.89
632.06	21661.66
632.21	21633.57
632.36	21645.27
632.51	21743.58
632.66	21930.82
632.81	21397.18
632.96	21795.07
633.10	21731.87
633.25	21549.31
633.40	21591.44
633.55	21942.52
633.70	21729.53
633.85	21575.06
634.00	21804.43
634.15	21855.92
634.30	21490.80
634.45	21638.25
634.60	21610.17
634.75	21792.73
634.90	21317.60
635.05	21853.58
635.19	21539.95
635.34	21816.13
635.49	21813.79
635.64	21738.90
635.79	21184.19
635.94	21254.40
636.09	21404.20
636.24	21584.42
636.39	21458.03
636.53	21607.83
636.68	21455.69
636.83	21525.91
636.98	21539.95
637.13	21099.93
637.28	21336.32
637.43	20968.86
637.57	21193.55
637.72	20924.39
637.87	21193.55
638.02	21254.40
638.17	21130.36
638.32	20936.09
638.46	21102.27
638.61	21020.35
638.76	20959.50
638.91	21406.54
639.06	21268.45
639.20	21312.92
639.35	21294.19
639.50	21158.44
639.65	21284.83
639.80	21263.77
639.94	21128.02
640.09	21212.28
640.24	21259.09
640.39	20737.15
640.54	20805.02
640.68	20903.32
640.83	21025.03
640.98	20774.60
641.13	20559.27
641.27	20975.88
641.42	20664.59
641.57	20933.75
641.72	21083.55
641.86	20486.71
642.01	20676.29
642.16	20737.15
642.31	20720.76
642.45	20961.84
642.60	20800.34
642.75	20676.29
642.90	20952.48
643.04	20697.36
643.19	20795.66
643.34	20844.81
643.48	20854.17
643.63	20950.14
643.78	20542.88
643.93	20631.82
644.07	20381.38
644.22	20596.71
644.37	20390.75
644.51	20819.07
644.66	20521.82
644.81	20851.83
644.95	20599.05
645.10	20851.83
645.25	20893.96
645.39	20507.77
645.54	20467.98
645.69	20627.14
645.83	20484.37
645.98	20535.86
646.13	20627.14
646.27	20393.09
646.42	20779.28
646.57	20577.99
646.71	20690.34
646.86	20156.69
647.00	20252.66
647.15	20212.87
647.30	20407.13
647.44	20280.74
647.59	20343.94
647.74	20149.67
647.88	20666.93
648.03	20294.79
648.17	20091.16
648.32	20290.10
648.47	20362.66
648.61	20060.73
648.76	20016.26
648.90	20472.67
649.05	20189.46
649.20	20430.54
649.34	20482.03
649.49	20603.74
649.63	20264.36
649.78	20355.64
649.92	20224.57
650.07	20065.41
650.21	20051.37
650.36	20365.00
650.51	20020.94
650.65	20126.27
650.80	20067.75
650.94	20498.41
651.09	20205.84
651.23	20060.73
651.38	20013.92
651.52	20081.80
651.67	20133.29
651.81	19903.92
651.96	19974.13
652.10	19995.20
652.25	19999.88
652.39	19908.60
652.54	19903.92
652.68	19641.78
652.83	19658.16
652.97	19971.79
653.12	19693.27
653.26	19946.05
653.41	20208.19
653.55	19960.09
653.70	19744.76
653.84	19866.47
653.99	19812.63
654.13	19681.56
654.27	19520.07
654.42	19843.06
654.56	19978.81
654.71	19967.11
654.85	19655.82
655.00	19936.68
655.14	19779.87
655.29	19878.17
655.43	19391.34
655.57	19557.52
655.72	19520.07
655.86	19403.04
656.01	19566.88
656.15	19330.48
656.30	19576.24
656.44	19360.91
656.58	19534.11
656.73	19482.62
656.87	19784.55
657.01	19590.28
657.16	19316.44
657.30	19194.73
657.45	19389.00
657.59	19290.70
657.73	19269.63
657.88	19267.29
658.02	19288.35
658.16	19321.12
658.31	19410.06
658.45	19318.78
658.60	19047.28
658.74	19082.39
658.88	19197.07
659.03	18911.53
659.17	19154.94
659.31	19199.41
659.46	18916.21
659.60	19215.80
659.74	18850.67
659.89	19119.84
660.03	19168.99
660.17	18831.95
660.32	18764.07
660.46	18902.17
660.60	18728.97
660.74	19157.28
660.89	18895.14
661.03	18841.31
661.17	18829.61
661.32	18670.45
661.46	18609.60
661.60	18773.44
661.74	18693.86
661.89	18387.25
662.03	18684.50
662.17	18490.23
662.31	18565.13
662.46	18525.34
662.60	18408.31
662.74	18831.95
662.88	18651.73
663.03	18270.22
663.17	18551.09
663.31	18448.10
663.45	18537.04
663.60	18523.00
663.74	18246.82
663.88	18459.81
664.02	18099.36
664.17	18132.13
664.31	18031.49
664.45	18302.99
664.59	18040.85
664.73	18209.37
664.88	18319.37
665.02	18003.40
665.16	18417.68
665.30	18258.52
665.44	18017.44
665.59	18031.49
665.73	18150.85
665.87	17774.03
666.01	17888.71
666.15	17937.87
666.29	17818.50
666.44	17862.97
666.58	17680.41
666.72	17624.23
666.86	17823.18
667.00	17682.75
667.14	17717.86
667.28	17577.42
667.43	17736.58
667.57	17689.77
667.71	17935.53
667.85	17757.64
667.99	17654.66
668.13	17767.01
668.27	17507.21
668.41	17738.92
668.56	17551.68
668.70	17500.19
668.84	17357.41
668.98	17277.83
669.12	17165.49
669.26	17116.34
669.40	17570.40
669.54	17593.81
669.68	17425.29
669.82	17135.06
669.96	17238.05
670.10	17193.58
670.25	17429.97
670.39	17249.75
670.53	17008.67
670.67	16959.52
670.81	17263.79
670.95	17099.95
671.09	17013.35
671.23	16926.75
671.37	17020.38
671.51	16922.07
671.65	16912.71
671.79	16734.83
671.93	17001.65
672.07	16802.71
672.21	16727.81
672.35	16362.69
672.49	16718.45
672.63	16779.30
672.77	16451.63
672.91	16470.35
673.05	16491.41
673.19	16215.23
673.33	16049.05
673.47	16353.32
673.61	16156.72
673.75	16336.94
673.89	16226.93
674.03	16217.57
674.17	15826.70
674.31	16353.32
674.45	16121.61
674.59	16390.77
674.73	16262.04
674.87	16358.00
675.01	16140.33
675.15	15976.50
675.29	16294.81
675.43	16049.05
675.56	16060.76
675.70	16004.58
675.84	15733.08
675.98	15122.20
676.12	15580.95
676.26	15733.08
676.40	15751.81
676.54	15667.55
676.68	15763.51
676.82	15246.25
676.96	15557.54
677.10	15843.09
677.23	15370.30
677.37	15393.70
677.51	15484.98
677.65	15267.31
677.79	15353.91
677.93	15063.69
678.07	15042.62
678.21	14864.74
678.34	14710.27
678.48	15056.67
678.62	14864.74
678.76	14743.03
678.90	14850.70
679.04	14925.60
679.18	14726.65
679.31	14637.71
679.45	14775.80
679.59	15115.18
679.73	14731.33
679.87	14579.20
680.00	14679.84
680.14	14361.53
680.28	14026.83
680.42	14221.10
680.56	14356.85
680.70	14221.10
680.83	14207.05
680.97	14427.06
681.11	14366.21
681.25	14047.90
681.39	14038.53
681.52	14087.68
681.66	13994.06
681.80	14019.81
681.94	14019.81
682.07	13968.32
682.21	13958.96
682.35	13893.42
682.49	13855.97
682.62	13390.20
682.76	13678.09
682.90	13722.56
683.04	13429.99
683.17	13275.52
683.31	13598.51
683.45	13671.07
683.59	13427.65
683.72	13270.84
683.86	13479.15
684.00	13317.65
684.13	13401.91
684.27	13238.07
684.41	13235.73
684.55	13418.29
684.68	13380.84
684.82	13008.70
684.96	12805.07
685.09	12886.99
685.23	12999.34
685.37	13191.26
685.50	13027.42
685.64	12692.73
685.78	12833.16
685.91	12638.89
686.05	12641.23
686.19	12556.97
686.32	12671.66
686.46	12491.44
686.60	12430.59
686.73	12627.19
686.87	12587.40
687.01	12519.53
687.14	12468.03
687.28	12156.74
687.42	12198.87
687.55	12290.15
687.69	12315.90
687.82	12042.06
687.96	12191.85
688.10	12304.20
688.23	12121.63
688.37	11983.54
688.50	11838.43
688.64	11978.86
688.78	11789.28
688.91	11885.24
689.05	11803.32
689.18	11840.77
689.32	11524.80
689.46	11882.90
689.59	11779.92
689.73	11470.97
689.86	11501.39
690.00	11485.01
690.13	11559.91
690.27	11503.73
690.41	11482.67
690.54	11503.73
690.68	11351.60
690.81	11531.82
690.95	11419.47
691.08	11318.83
691.22	11201.80
691.35	11000.52
691.49	11192.44
691.62	11019.24
691.76	11063.71
691.89	11061.37
692.03	11030.94
692.16	10946.69
692.30	11124.57
692.43	10789.87
692.57	10803.91
692.70	10834.34
692.84	10885.83
692.97	10527.73
693.11	10731.36
693.24	10616.67
693.38	10434.11
693.51	10272.61
693.65	10548.79
693.78	10370.91
693.92	10649.44
694.05	10373.25
694.19	10420.06
694.32	10455.17
694.45	10380.28
694.59	10249.21
694.72	10373.25
694.86	10061.96
694.99	10022.17
695.13	10099.41
695.26	9996.43
695.39	10026.86
695.53	9951.96
695.66	9982.38
695.80	9715.56
695.93	9767.06
696.07	9804.50
696.20	9722.59
696.33	9741.31
696.47	9654.71
696.60	9755.35
696.73	9584.49
696.87	9722.59
697.00	9741.31
697.14	9500.23
697.27	9577.47
697.40	9423.00
697.54	9273.20
697.67	9373.85
697.80	9233.41
697.94	9249.80
698.07	9282.56
698.21	9170.22
698.34	9090.64
698.47	9078.94
698.61	9135.11
698.74	9055.53
698.87	9043.83
699.01	8990.00
699.14	8926.80
699.27	8861.27
699.40	8964.25
699.54	9006.38
699.67	8933.82
699.80	8917.44
699.94	8713.81
700.07	8503.17
700.20	8557.00
700.34	8549.98
700.47	8713.81
700.60	8823.82
700.73	8547.64
700.87	8322.94
701.00	8627.21
701.13	8266.77
701.26	8318.26
701.40	8381.46
701.53	8287.84
701.66	8241.03
701.79	8306.56
701.93	8091.23
702.06	8320.60
702.19	8226.98
702.32	8234.00
702.46	8002.29
702.59	7999.95
702.72	8072.51
702.85	7864.20
702.99	7810.37
703.12	7843.14
703.25	7679.30
703.38	7836.11
703.51	7906.33
703.65	7892.29
703.78	7829.09
703.91	7735.47
704.04	7831.43
704.17	7763.56
704.31	7478.01
704.44	7445.24
704.57	7576.31
704.70	7552.91
704.83	7281.41
704.96	7410.14
705.10	7452.27
705.23	7513.12
>>>>>End Processed Spectral Data<<<<<
