SpectraSuite Data File
++++++++++++++++++++++++++++++++++++
Date: Thu Oct 24 13:21:13 EDT 2013
User: stostad
Dark Spectrum Present: No
Reference Spectrum Present: No
Number of Sampled Component Spectra: 1
Spectrometers: USB2+H05261
Integration Time (usec): 100000 (USB2+H05261)
Spectra Averaged: 1 (USB2+H05261)
Boxcar Smoothing: 0 (USB2+H05261)
Correct for Electrical Dark: No (USB2+H05261)
Strobe/Lamp Enabled: No (USB2+H05261)
Correct for Detector Non-linearity: No (USB2+H05261)
Correct for Stray Light: No (USB2+H05261)
Number of Pixels in Processed Spectrum: 2048
>>>>>Begin Processed Spectral Data<<<<<
365.73	568.75
365.92	568.75
366.12	568.75
366.32	409.59
366.52	444.70
366.72	489.17
366.91	496.19
367.11	479.81
367.31	456.40
367.51	458.74
367.70	496.19
367.90	503.22
368.10	496.19
368.30	552.37
368.49	484.49
368.69	538.32
368.89	482.15
369.09	507.90
369.28	477.47
369.48	461.09
369.68	468.11
369.87	526.62
370.07	533.64
370.27	561.73
370.47	507.90
370.66	669.39
370.86	678.76
371.06	641.31
371.25	730.25
371.45	702.16
371.65	746.63
371.84	685.78
372.04	718.54
372.24	678.76
372.44	699.82
372.63	678.76
372.83	739.61
373.03	704.50
373.22	704.50
373.42	737.27
373.62	791.10
373.81	744.29
374.01	798.12
374.21	800.46
374.40	739.61
374.60	767.70
374.79	730.25
374.99	741.95
375.19	781.74
375.38	753.65
375.58	760.67
375.78	791.10
375.97	798.12
376.17	861.32
376.37	725.57
376.56	781.74
376.76	816.85
376.95	688.12
377.15	755.99
377.35	800.46
377.54	734.93
377.74	711.52
377.93	725.57
378.13	781.74
378.33	748.97
378.52	713.86
378.72	840.25
378.91	809.83
379.11	777.06
379.31	814.51
379.50	795.78
379.70	814.51
379.89	809.83
380.09	760.67
380.28	812.17
380.48	844.93
380.68	788.76
380.87	727.91
381.07	823.87
381.26	800.46
381.46	816.85
381.65	805.14
381.85	873.02
382.04	837.91
382.24	814.51
382.43	819.19
382.63	802.80
382.83	854.30
383.02	840.25
383.22	863.66
383.41	837.91
383.61	746.63
383.80	800.46
384.00	781.74
384.19	793.44
384.39	814.51
384.58	901.11
384.78	828.55
384.97	814.51
385.17	798.12
385.36	755.99
385.56	873.02
385.75	840.25
385.95	863.66
386.14	854.30
386.34	866.00
386.53	870.68
386.72	847.27
386.92	875.36
387.11	868.34
387.31	847.27
387.50	788.76
387.70	901.11
387.89	896.43
388.09	833.23
388.28	887.06
388.48	821.53
388.67	889.40
388.86	880.04
389.06	901.11
389.25	994.73
389.45	882.38
389.64	882.38
389.84	908.13
390.03	917.49
390.22	919.83
390.42	882.38
390.61	884.72
390.81	854.30
391.00	912.81
391.19	880.04
391.39	931.53
391.58	870.68
391.78	858.98
391.97	830.89
392.16	931.53
392.36	898.77
392.55	957.28
392.75	905.79
392.94	990.05
393.13	919.83
393.33	1004.09
393.52	952.60
393.71	931.53
393.91	922.17
394.10	959.62
394.29	947.92
394.49	943.24
394.68	980.68
394.88	994.73
395.07	990.05
395.26	901.11
395.46	933.87
395.65	1004.09
395.84	971.32
396.04	992.39
396.23	968.98
396.42	994.73
396.62	1029.84
396.81	994.73
397.00	992.39
397.19	917.49
397.39	985.37
397.58	1013.45
397.77	1041.54
397.97	903.45
398.16	1036.86
398.35	1060.26
398.55	1004.09
398.74	987.71
398.93	985.37
399.12	1071.97
399.32	1032.18
399.51	1004.09
399.70	1069.62
399.90	1041.54
400.09	1078.99
400.28	1167.93
400.47	1062.60
400.67	1076.65
400.86	1093.03
401.05	1090.69
401.24	1132.82
401.44	1238.14
401.63	1132.82
401.82	1095.37
402.01	1116.44
402.21	1158.57
402.40	1069.62
402.59	1163.25
402.78	1165.59
402.97	1095.37
403.17	1200.69
403.36	1242.82
403.55	1186.65
403.74	1170.27
403.93	1167.93
404.13	1296.66
404.32	1198.35
404.51	1233.46
404.70	1254.53
404.89	1256.87
405.09	1193.67
405.28	1252.19
405.47	1224.10
405.66	1226.44
405.85	1245.16
406.05	1231.12
406.24	1280.27
406.43	1228.78
406.62	1303.68
406.81	1228.78
407.00	1259.21
407.20	1313.04
407.39	1254.53
407.58	1352.83
407.77	1261.55
407.96	1387.94
408.15	1306.02
408.34	1380.92
408.54	1376.24
408.73	1310.70
408.92	1406.66
409.11	1401.98
409.30	1350.49
409.49	1247.51
409.68	1313.04
409.87	1348.15
410.07	1385.60
410.26	1474.54
410.45	1399.64
410.64	1467.52
410.83	1451.13
411.02	1401.98
411.21	1357.51
411.40	1511.99
411.59	1451.13
411.78	1472.20
411.98	1423.05
412.17	1401.98
412.36	1486.24
412.55	1603.27
412.74	1577.52
412.93	1572.84
413.12	1474.54
413.31	1579.86
413.50	1547.09
413.69	1528.37
413.88	1570.50
414.07	1570.50
414.26	1631.35
414.45	1612.63
414.64	1579.86
414.83	1474.54
415.02	1586.88
415.22	1631.35
415.41	1652.42
415.60	1568.16
415.79	1689.87
415.98	1703.91
416.17	1708.59
416.36	1657.10
416.55	1785.83
416.74	1708.59
416.93	1671.14
417.12	1715.61
417.31	1636.03
417.50	1680.50
417.69	1839.66
417.88	1750.72
418.07	1746.04
418.26	1797.53
418.45	1743.70
418.64	1893.49
418.83	1907.54
419.02	1834.98
419.21	1830.30
419.39	1769.44
419.58	1776.47
419.77	1797.53
419.96	1802.21
420.15	1884.13
420.34	1746.04
420.53	1834.98
420.72	1888.81
420.91	1877.11
421.10	2050.31
421.29	1973.07
421.48	1806.89
421.67	1867.75
421.86	1879.45
422.05	1905.20
422.24	2052.65
422.43	1963.71
422.61	1921.58
422.80	1942.64
422.99	1970.73
423.18	2022.22
423.37	2040.95
423.56	2033.93
423.75	1949.67
423.94	1994.14
424.13	1863.07
424.32	1877.11
424.50	1954.35
424.69	1944.99
424.88	1966.05
425.07	1942.64
425.26	1952.01
425.45	1874.77
425.64	1923.92
425.83	1970.73
426.01	2015.20
426.20	1853.70
426.39	1987.11
426.58	1961.37
426.77	1947.33
426.96	1980.09
427.15	1994.14
427.33	1933.28
427.52	1994.14
427.71	2073.71
427.90	1989.46
428.09	2043.29
428.28	2059.67
428.46	2122.87
428.65	2085.42
428.84	2141.59
429.03	2225.85
429.22	2017.54
429.40	2108.82
429.59	2019.88
429.78	1982.43
429.97	2050.31
430.16	2172.02
430.34	2139.25
430.53	2141.59
430.72	2181.38
430.91	2080.74
431.10	2052.65
431.28	2160.31
431.47	2293.72
431.66	2169.68
431.85	2162.66
432.03	2228.19
432.22	2293.72
432.41	2214.15
432.60	2181.38
432.79	2165.00
432.97	2218.83
433.16	2235.21
433.35	2209.47
433.54	2279.68
433.72	2305.43
433.91	2377.98
434.10	2331.17
434.28	2335.85
434.47	2319.47
434.66	2354.58
434.85	2331.17
435.03	2572.25
435.22	2715.02
435.41	2810.98
435.59	2670.55
435.78	2663.53
435.97	2457.56
436.16	2525.44
436.34	2429.48
436.53	2420.11
436.72	2464.58
436.90	2363.94
437.09	2499.69
437.28	2373.30
437.46	2427.14
437.65	2450.54
437.84	2471.61
438.02	2516.08
438.21	2464.58
438.40	2354.58
438.58	2513.74
438.77	2509.05
438.96	2602.68
439.14	2551.18
439.33	2462.24
439.52	2640.12
439.70	2558.21
439.89	2565.23
440.08	2520.76
440.26	2607.36
440.45	2700.98
440.63	2670.55
440.82	2689.28
441.01	2665.87
441.19	2663.53
441.38	2778.22
441.57	2738.43
441.75	2696.30
441.94	2710.34
442.12	2794.60
442.31	2743.11
442.50	2827.37
442.68	2785.24
442.87	2771.19
443.05	2810.98
443.24	2874.18
443.43	2906.95
443.61	2860.13
443.80	2874.18
443.98	2729.06
444.17	2679.91
444.35	2822.69
444.54	2881.20
444.73	2773.53
444.91	2785.24
445.10	2918.65
445.28	2935.03
445.47	2899.92
445.65	2822.69
445.84	2834.39
446.02	2974.82
446.21	2902.26
446.39	2925.67
446.58	2984.18
446.77	2913.97
446.95	2827.37
447.14	2878.86
447.32	2958.44
447.51	2825.03
447.69	2867.16
447.88	2897.58
448.06	3063.76
448.25	2871.84
448.43	2864.82
448.62	3035.67
448.80	2970.14
448.99	2963.12
449.17	3016.95
449.36	3084.83
449.54	2998.23
449.73	2960.78
449.91	3115.25
450.10	3073.12
450.28	3138.66
450.46	3021.63
450.65	3040.36
450.83	3061.42
451.02	3073.12
451.20	3131.64
451.39	3075.46
451.57	3063.76
451.76	2906.95
451.94	3028.65
452.13	3148.02
452.31	3211.22
452.49	3166.74
452.68	3112.91
452.86	3042.70
453.05	3185.47
453.23	3325.90
453.42	3185.47
453.60	3208.87
453.78	3222.92
453.97	3211.22
454.15	3162.06
454.34	3119.93
454.52	3138.66
454.70	3218.24
454.89	3213.56
455.07	3262.71
455.26	3325.90
455.44	3365.69
455.62	3290.79
455.81	3265.05
455.99	3307.18
456.17	3365.69
456.36	3346.97
456.54	3258.03
456.73	3344.63
456.91	3365.69
457.09	3318.88
457.28	3445.27
457.46	3449.95
457.64	3424.20
457.83	3449.95
458.01	3426.54
458.19	3522.51
458.38	3426.54
458.56	3574.00
458.74	3396.12
458.93	3466.33
459.11	3440.59
459.29	3358.67
459.48	3552.93
459.66	3499.10
459.84	3463.99
460.03	3620.81
460.21	3618.47
460.39	3627.83
460.57	3616.13
460.76	3571.66
460.94	3620.81
461.12	3569.32
461.31	3662.94
461.49	3658.26
461.67	3634.85
461.85	3691.02
462.04	3543.57
462.22	3927.42
462.40	3824.44
462.59	3665.28
462.77	3613.79
462.95	3840.82
463.13	3604.42
463.32	3829.12
463.50	3709.75
463.68	3674.64
463.86	3756.56
464.05	3709.75
464.23	3861.88
464.41	3662.94
464.59	3662.94
464.78	3866.56
464.96	3962.53
465.14	3684.00
465.32	3861.88
465.50	3847.84
465.69	3829.12
465.87	3723.79
466.05	3803.37
466.23	3854.86
466.41	3887.63
466.60	3873.59
466.78	3887.63
466.96	3955.51
467.14	3866.56
467.32	3868.91
467.51	4021.04
467.69	3861.88
467.87	3920.40
468.05	3904.01
468.23	3981.25
468.41	3943.80
468.60	4018.70
468.78	3997.64
468.96	3964.87
469.14	3899.33
469.32	4081.89
469.50	3988.27
469.69	3990.61
469.87	4152.11
470.05	4100.62
470.23	4086.58
470.41	4028.06
470.59	4093.60
470.77	4084.23
470.95	4147.43
471.14	4250.41
471.32	4098.28
471.50	4224.67
471.68	4131.05
471.86	4257.43
472.04	4222.33
472.22	4365.10
472.40	4339.35
472.58	4203.60
472.77	4252.75
472.95	4311.27
473.13	4407.23
473.31	4273.82
473.49	4271.48
473.67	4337.01
473.85	4381.48
474.03	4566.39
474.21	4503.19
474.39	4484.47
474.57	4538.30
474.75	4477.44
474.93	4528.94
475.12	4681.07
475.30	4578.09
475.48	4559.36
475.66	4568.73
475.84	4608.51
476.02	4641.28
476.20	4662.35
476.38	4751.29
476.56	4791.08
476.74	4755.97
476.92	4779.37
477.10	4770.01
477.28	4968.96
477.46	4837.89
477.64	4919.81
477.82	5004.07
478.00	5146.84
478.18	5069.60
478.36	5071.94
478.54	5036.83
478.72	5207.69
478.90	5245.14
479.08	5221.74
479.26	5231.10
479.44	5233.44
479.62	5315.36
479.80	5341.10
479.98	5270.89
480.16	5413.66
480.34	5448.77
480.52	5446.43
480.70	5413.66
480.88	5500.26
481.06	5411.32
481.24	5420.68
481.41	5614.95
481.59	5617.29
481.77	5696.86
481.95	5767.08
482.13	5687.50
482.31	5785.80
482.49	5916.87
482.67	5830.27
482.85	5888.79
483.03	5893.47
483.21	5888.79
483.39	6059.65
483.57	5998.79
483.74	6054.97
483.92	6246.89
484.10	6176.67
484.28	6155.61
484.46	6223.48
484.64	6469.24
484.82	6356.90
485.00	6459.88
485.18	6476.26
485.35	6516.05
485.53	6483.28
485.71	6707.98
485.89	6768.83
486.07	6801.60
486.25	6663.51
486.43	6780.53
486.61	6822.66
486.78	6869.47
486.96	7035.65
487.14	7096.50
487.32	7082.46
487.50	7119.91
487.68	7059.06
487.85	7295.45
488.03	7166.72
488.21	7316.51
488.39	7396.09
488.57	7368.01
488.75	7375.03
488.92	7634.83
489.10	7555.25
489.28	7573.97
489.46	7817.39
489.64	7808.03
489.81	7740.15
489.99	7716.75
490.17	7880.58
490.35	7901.65
490.53	7901.65
490.70	7913.35
490.88	7822.07
491.06	8210.60
491.24	7932.08
491.41	8058.46
491.59	8138.04
491.77	8222.30
491.95	8173.15
492.13	8226.98
492.30	8271.45
492.48	8351.03
492.66	8496.14
492.84	8339.33
493.01	8468.06
493.19	8573.38
493.37	8542.96
493.54	8615.51
493.72	8620.19
493.90	8741.90
494.08	8877.65
494.25	8713.81
494.43	9018.08
494.61	8772.33
494.79	8950.21
494.96	8636.58
495.14	8833.18
495.32	9071.92
495.49	9064.89
495.67	9207.67
495.85	9025.11
496.02	9423.00
496.20	9181.92
496.38	9291.93
496.55	9177.24
496.73	9525.98
496.91	9212.35
497.09	9401.93
497.26	9645.35
497.44	9734.29
497.62	9551.73
497.79	9750.67
497.97	9689.82
498.14	9858.34
498.32	9816.21
498.50	9792.80
498.67	9818.55
498.85	9577.47
499.03	9856.00
499.20	9987.07
499.38	10104.09
499.56	10101.75
499.73	10225.80
499.91	10090.05
500.08	10230.48
500.26	10277.29
500.44	9848.97
500.61	10209.42
500.79	10391.98
500.97	10153.24
501.14	10324.10
501.32	10459.85
501.49	10462.19
501.67	10338.15
501.84	10415.38
502.02	10518.37
502.20	10459.85
502.37	10513.69
502.55	10616.67
502.72	10640.08
502.90	10719.65
503.07	10548.79
503.25	10555.82
503.43	10604.97
503.60	10551.14
503.78	10703.27
503.95	10752.42
504.13	10836.68
504.30	11014.56
504.48	10780.51
504.65	10942.00
504.83	11070.73
505.01	11220.53
505.18	11220.53
505.36	11030.94
505.53	10953.71
505.71	10974.77
505.88	11112.86
506.06	11201.80
506.23	11026.26
506.41	11162.01
506.58	11382.03
506.76	11300.11
506.93	11239.25
507.11	11129.25
507.28	11229.89
507.46	11391.39
507.63	11412.45
507.81	11506.07
507.98	11276.70
508.16	11470.97
508.33	11620.76
508.50	11487.35
508.68	11709.70
508.85	11667.57
509.03	11698.00
509.20	11705.02
509.38	11843.11
509.55	11974.18
509.73	11679.27
509.90	11676.93
510.08	12224.62
510.25	11864.18
510.42	11957.80
510.60	11936.73
510.77	12196.53
510.95	11934.39
511.12	12163.76
511.30	12112.27
511.47	12123.98
511.64	12233.98
511.82	12367.39
511.99	12248.02
512.17	12250.36
512.34	12173.13
512.51	12332.28
512.69	12388.46
512.86	12358.03
513.04	12500.80
513.21	12535.91
513.38	12395.48
513.56	12489.10
513.73	12439.95
513.90	12545.27
514.08	12517.18
514.25	12662.30
514.43	12760.60
514.60	12650.60
514.77	12549.95
514.95	12657.62
515.12	12603.78
515.29	12622.51
515.47	12748.90
515.64	12952.52
515.81	12713.79
515.99	12985.29
516.16	12826.14
516.33	12753.58
516.51	13121.04
516.68	12954.87
516.85	12830.82
517.03	13092.96
517.20	12968.91
517.37	13221.69
517.54	12989.97
517.72	12872.95
517.89	12922.10
518.06	13142.11
518.24	13284.88
518.41	12968.91
518.58	13179.56
518.75	13184.24
518.93	13376.16
519.10	13149.13
519.27	13198.28
519.45	13376.16
519.62	13584.47
519.79	13404.25
519.96	13486.17
520.14	13561.06
520.31	13137.43
520.48	13331.69
520.65	13453.40
520.83	13635.96
521.00	13717.88
521.17	13607.87
521.34	13495.53
521.52	13558.72
521.69	13734.26
521.86	13654.69
522.03	13708.52
522.20	13717.88
522.38	13977.68
522.55	14143.86
522.72	13797.46
522.89	13813.84
523.07	13886.40
523.24	13987.04
523.41	13907.46
523.58	13912.14
523.75	13982.36
523.92	13841.93
524.10	14167.26
524.27	14083.00
524.44	14141.52
524.61	13996.40
524.78	14001.08
524.96	13958.96
525.13	14073.64
525.30	14305.35
525.47	14448.13
525.64	14689.20
525.81	14272.59
525.98	14221.10
526.16	14120.45
526.33	14057.26
526.50	14448.13
526.67	14354.51
526.84	14094.71
527.01	14183.65
527.18	14288.97
527.36	14740.69
527.53	14675.16
527.70	14904.53
527.87	14422.38
528.04	14590.90
528.21	14506.64
528.38	14714.95
528.55	14750.06
528.72	14471.53
528.89	14675.16
529.07	14401.32
529.24	14602.60
529.41	14822.61
529.58	14677.50
529.75	14501.96
529.92	14761.76
530.09	14684.52
530.26	14649.41
530.43	14789.85
530.60	14586.22
530.77	14808.57
530.94	14883.47
531.11	14560.47
531.28	14984.11
531.46	15066.03
531.63	14871.76
531.80	14738.35
531.97	15021.56
532.14	14885.81
532.31	15183.06
532.48	15150.29
532.65	14757.08
532.82	14960.70
532.99	15239.23
533.16	15016.88
533.33	15094.11
533.50	15044.96
533.67	15293.06
533.84	14906.87
534.01	15367.96
534.18	15192.42
534.35	15311.78
534.52	15421.79
534.69	15112.84
534.86	15234.55
535.03	15185.40
535.20	15328.17
535.37	15499.03
535.54	15351.57
535.71	15386.68
535.88	15133.90
536.05	15386.68
536.22	15602.01
536.38	15578.61
536.55	15302.42
536.72	15627.76
536.89	15735.42
537.06	15721.38
537.23	15807.98
537.40	15817.34
537.57	15559.88
537.74	15599.67
537.91	15920.32
538.08	15714.36
538.25	15812.66
538.42	15470.94
538.59	15742.44
538.75	15524.77
538.92	15896.92
539.09	15967.13
539.26	15798.62
539.43	15875.85
539.60	15889.90
539.77	15903.94
539.94	15971.82
540.11	16159.06
540.28	16093.52
540.44	16271.40
540.61	16212.89
540.78	16123.95
540.95	16042.03
541.12	16512.48
541.29	16479.71
541.46	16524.18
541.62	16578.01
541.79	16723.13
541.96	16699.72
542.13	16486.73
542.30	16449.28
542.47	16596.74
542.63	16453.97
542.80	16587.38
542.97	16975.91
543.14	16589.72
543.31	16533.54
543.48	16563.97
543.64	16877.60
543.81	16755.90
543.98	16650.57
544.15	16744.19
544.32	16606.10
544.48	16922.07
544.65	16973.56
544.82	17132.72
544.99	16446.94
545.16	16943.14
545.32	16985.27
545.49	17341.03
545.66	17771.69
545.83	18043.19
546.00	17556.36
546.16	17444.01
546.33	17401.88
546.50	17003.99
546.67	17032.08
546.83	16570.99
547.00	17043.78
547.17	16739.51
547.34	17003.99
547.50	16938.46
547.67	16837.81
547.84	16961.86
548.00	16901.01
548.17	16861.22
548.34	17125.70
548.51	16999.31
548.67	16985.27
548.84	16823.77
549.01	16922.07
549.18	17163.15
549.34	16933.78
549.51	17142.08
549.68	17275.49
549.84	16795.68
550.01	17104.64
550.18	16830.79
550.34	16762.92
550.51	16723.13
550.68	17032.08
550.84	16798.02
551.01	16994.63
551.18	16882.28
551.34	16959.52
551.51	16910.37
551.68	16973.56
551.84	16828.45
552.01	16861.22
552.18	17209.96
552.34	17020.38
552.51	17018.04
552.68	17132.72
552.84	16893.99
553.01	16994.63
553.18	17226.34
553.34	17128.04
553.51	17156.13
553.67	16943.14
553.84	17310.60
554.01	17221.66
554.17	17036.76
554.34	17146.76
554.51	17118.68
554.67	17095.27
554.84	16893.99
555.00	16989.95
555.17	17050.80
555.33	17247.41
555.50	17097.61
555.67	17111.66
555.83	16954.84
556.00	17212.30
556.16	17156.13
556.33	17153.79
556.50	17060.16
556.66	17085.91
556.83	16957.18
556.99	17233.36
557.16	17209.96
557.32	17404.22
557.49	17345.71
557.65	17011.01
557.82	17268.47
557.98	16933.78
558.15	17078.89
558.32	17114.00
558.48	17317.62
558.65	17429.97
558.81	17474.44
558.98	17645.30
559.14	17605.51
559.31	17308.26
559.47	17240.39
559.64	17224.00
559.80	17411.25
559.97	17378.48
560.13	17263.79
560.30	17125.70
560.46	17544.66
560.63	17312.94
560.79	17387.84
560.96	17525.93
561.12	17568.06
561.29	17326.99
561.45	17434.65
561.61	17259.11
561.78	17284.86
561.94	17472.10
562.11	17664.02
562.27	17586.79
562.44	17343.37
562.60	17591.47
562.77	16989.95
562.93	17301.24
563.10	17259.11
563.26	17364.43
563.42	17481.46
563.59	17200.60
563.75	17444.01
563.92	17542.32
564.08	17696.79
564.24	17357.41
564.41	17483.80
564.57	17572.74
564.74	17373.80
564.90	17640.62
565.07	17535.29
565.23	17474.44
565.39	17472.10
565.56	17841.90
565.72	17654.66
565.88	17488.48
566.05	17228.68
566.21	17348.05
566.38	17724.88
566.54	17664.02
566.70	17532.95
566.87	17717.86
567.03	17673.39
567.19	17834.88
567.36	17664.02
567.52	17717.86
567.68	17619.55
567.85	17502.53
568.01	17565.72
568.17	17596.15
568.34	17659.34
568.50	17610.19
568.66	17572.74
568.83	17881.69
568.99	17558.70
569.15	17668.70
569.32	17476.78
569.48	17331.67
569.64	17596.15
569.81	17345.71
569.97	17547.00
570.13	17703.81
570.30	17507.21
570.46	17554.02
570.62	17965.95
570.78	17853.61
570.95	17631.26
571.11	17563.38
571.27	17483.80
571.43	17729.56
571.60	17434.65
571.76	17612.53
571.92	17593.81
572.09	17649.98
572.25	17757.64
572.41	17717.86
572.57	17771.69
572.74	17806.80
572.90	17380.82
573.06	17682.75
573.22	17701.47
573.38	17858.29
573.55	17874.67
573.71	17970.63
573.87	18001.06
574.03	17565.72
574.20	17596.15
574.36	17647.64
574.52	17617.21
574.68	17701.47
574.84	17678.07
575.01	17525.93
575.17	17717.86
575.33	17781.05
575.49	17788.07
575.65	17858.29
575.82	18045.53
575.98	17612.53
576.14	17998.72
576.30	17912.12
576.46	17638.28
576.62	17996.38
576.79	17694.45
576.95	17811.48
577.11	18097.02
577.27	17958.93
577.43	17811.48
577.59	17818.50
577.75	17884.03
577.92	17790.41
578.08	17549.34
578.24	17832.54
578.40	17532.95
578.56	18068.94
578.72	18054.89
578.88	18141.49
579.04	17947.23
579.21	17926.16
579.37	18073.62
579.53	17584.44
579.69	17706.15
579.85	17923.82
580.01	17937.87
580.17	18064.25
580.33	18026.81
580.49	17987.02
580.65	17666.36
580.82	17673.39
580.98	17598.49
581.14	17680.41
581.30	17713.17
581.46	17357.41
581.62	17490.82
581.78	17649.98
581.94	17797.43
582.10	17387.84
582.26	17554.02
582.42	17710.83
582.58	17741.26
582.74	17509.55
582.90	18082.98
583.06	17848.93
583.22	17902.76
583.38	17963.61
583.54	17689.77
583.70	17544.66
583.86	17776.37
584.02	17748.28
584.18	17867.65
584.34	17961.27
584.50	17689.77
584.66	17774.03
584.82	17921.48
584.98	17767.01
585.14	17877.01
585.30	17645.30
585.46	17689.77
585.62	17750.62
585.78	17818.50
585.94	17902.76
586.10	17865.31
586.26	17767.01
586.42	17844.24
586.58	17797.43
586.74	17727.22
586.90	17652.32
587.06	17689.77
587.22	17970.63
587.38	17884.03
587.54	17846.58
587.70	18324.05
587.86	17851.27
588.02	17830.20
588.18	18169.58
588.34	18108.72
588.49	17944.89
588.65	17921.48
588.81	17614.87
588.97	17759.98
589.13	17867.65
589.29	17827.86
589.45	17607.85
589.61	18045.53
589.77	17745.94
589.93	17834.88
590.08	18235.11
590.24	18139.15
590.40	18125.11
590.56	17909.78
590.72	17764.67
590.88	17619.55
591.04	17862.97
591.20	17848.93
591.35	17935.53
591.51	17902.76
591.67	17804.46
591.83	17956.59
591.99	18202.35
592.15	18324.05
592.31	17722.54
592.46	17750.62
592.62	17802.11
592.78	17944.89
592.94	18036.17
593.10	17738.92
593.26	17891.06
593.41	18260.86
593.57	18008.08
593.73	18085.32
593.89	17855.95
594.05	18298.31
594.20	17668.70
594.36	18001.06
594.52	17708.49
594.68	17980.00
594.84	17657.00
594.99	17902.76
595.15	18017.44
595.31	18040.85
595.47	17987.02
595.62	17872.33
595.78	17848.93
595.94	17909.78
596.10	17991.70
596.25	17703.81
596.41	17919.14
596.57	17713.17
596.73	17853.61
596.88	17537.63
597.04	18038.51
597.20	17771.69
597.36	17795.09
597.51	17743.60
597.67	17827.86
597.83	17696.79
597.99	18139.15
598.14	17860.63
598.30	17797.43
598.46	18047.87
598.61	17776.37
598.77	17811.48
598.93	17937.87
599.09	18073.62
599.24	18223.41
599.40	17954.25
599.56	17694.45
599.71	17907.44
599.87	17792.75
600.03	17809.14
600.18	17750.62
600.34	17804.46
600.50	18200.01
600.65	17759.98
600.81	18104.04
600.97	17935.53
601.12	17759.98
601.28	18118.09
601.44	18132.13
601.59	17942.55
601.75	17649.98
601.91	17956.59
602.06	17565.72
602.22	17963.61
602.37	17727.22
602.53	17804.46
602.69	18129.79
602.84	18024.47
603.00	17727.22
603.16	17830.20
603.31	17923.82
603.47	17963.61
603.62	17741.26
603.78	17692.11
603.94	17736.58
604.09	17961.27
604.25	17771.69
604.40	17380.82
604.56	17572.74
604.71	17860.63
604.87	17858.29
605.03	17736.58
605.18	17671.04
605.34	17844.24
605.49	17610.19
605.65	17593.81
605.80	17832.54
605.96	18090.00
606.12	17975.31
606.27	18068.94
606.43	17755.30
606.58	17869.99
606.74	17984.68
606.89	17591.47
607.05	18031.49
607.20	17568.06
607.36	17439.33
607.51	17708.49
607.67	17898.08
607.82	17673.39
607.98	17563.38
608.13	17673.39
608.29	17720.20
608.44	17879.35
608.60	17603.17
608.75	17834.88
608.91	17900.42
609.06	17783.39
609.22	17729.56
609.37	17413.59
609.53	17745.94
609.68	17923.82
609.84	18045.53
609.99	17860.63
610.15	17628.92
610.30	18197.67
610.46	18675.13
610.61	18705.56
610.76	18420.02
610.92	18654.07
611.07	19005.15
611.23	19192.39
611.38	18984.09
611.54	19037.92
611.69	18555.77
611.84	18583.85
612.00	18366.18
612.15	18228.09
612.31	18356.82
612.46	17984.68
612.62	18054.89
612.77	17633.60
612.92	17694.45
613.08	17523.59
613.23	17879.35
613.39	17694.45
613.54	17610.19
613.69	17678.07
613.85	17530.61
614.00	17661.68
614.15	17523.59
614.31	17504.87
614.46	17312.94
614.62	17603.17
614.77	17748.28
614.92	17502.53
615.08	17465.08
615.23	17518.91
615.38	17605.51
615.54	17357.41
615.69	17193.58
615.84	17305.92
616.00	17336.35
616.15	17228.68
616.30	17352.73
616.46	17394.86
616.61	17235.70
616.76	17160.81
616.92	17266.13
617.07	17025.06
617.22	16858.88
617.37	16882.28
617.53	17593.81
617.68	17174.85
617.83	16938.46
617.99	17289.54
618.14	17415.93
618.29	17242.73
618.45	17212.30
618.60	17373.80
618.75	16987.61
618.90	16681.00
619.06	17109.32
619.21	16856.54
619.36	16966.54
619.51	16786.32
619.67	16697.38
619.82	16851.86
619.97	17074.21
620.12	16849.52
620.28	17041.44
620.43	16901.01
620.58	17165.49
620.73	17008.67
620.89	17095.27
621.04	17001.65
621.19	17041.44
621.34	16828.45
621.49	17025.06
621.65	17078.89
621.80	16933.78
621.95	16788.66
622.10	16978.25
622.25	16629.51
622.41	16751.21
622.56	16730.15
622.71	16987.61
622.86	16776.96
623.01	16556.95
623.16	16465.67
623.32	16418.86
623.47	16739.51
623.62	16664.61
623.77	16681.00
623.92	16416.52
624.07	16538.23
624.23	16844.84
624.38	16769.94
624.53	16678.66
624.68	16730.15
624.83	17015.69
624.98	16732.49
625.13	16514.82
625.29	16837.81
625.44	16451.63
625.59	16311.19
625.74	16645.89
625.89	16489.07
626.04	16512.48
626.19	16341.62
626.34	16585.04
626.49	16484.39
626.65	16208.21
626.80	16432.90
626.95	16783.98
627.10	16252.68
627.25	16278.43
627.40	16252.68
627.55	16325.24
627.70	16472.69
627.85	16262.04
628.00	16514.82
628.15	16362.69
628.30	16500.78
628.45	16484.39
628.60	16219.91
628.76	16262.04
628.91	16390.77
629.06	15992.88
629.21	16248.00
629.36	16276.09
629.51	16035.01
629.66	16423.54
629.81	16128.63
629.96	15974.16
630.11	16233.96
630.26	16322.90
630.41	16549.93
630.56	15948.41
630.71	16374.39
630.86	16428.22
631.01	16154.38
631.16	16599.08
631.31	16327.58
631.46	16203.53
631.61	16137.99
631.76	16149.70
631.91	16201.19
632.06	15838.41
632.21	15798.62
632.36	16130.97
632.51	15889.90
632.66	15950.75
632.81	15597.33
632.96	15976.50
633.10	16135.65
633.25	16020.97
633.40	15714.36
633.55	15885.22
633.70	15590.31
633.85	15899.26
634.00	15875.85
634.15	15826.70
634.30	15672.23
634.45	15922.66
634.60	15784.57
634.75	15988.20
634.90	15831.38
635.05	15716.70
635.19	15637.12
635.34	15697.97
635.49	15648.82
635.64	15424.13
635.79	15660.52
635.94	15674.57
636.09	15716.70
636.24	15777.55
636.39	15503.71
636.53	15655.84
636.68	15751.81
636.83	15819.68
636.98	15712.02
637.13	15683.93
637.28	15676.91
637.43	15665.21
637.57	15461.58
637.72	15426.47
637.87	15609.03
638.02	15543.50
638.17	15594.99
638.32	15302.42
638.46	15452.22
638.61	15616.05
638.76	15267.31
638.91	15349.23
639.06	15276.68
639.20	15646.48
639.35	15538.82
639.50	15232.21
639.65	15250.93
639.80	15400.72
639.94	15515.41
640.09	15253.27
640.24	15468.60
640.39	15269.66
640.54	15360.94
640.68	15428.81
640.83	15229.87
640.98	15063.69
641.13	15267.31
641.27	15307.10
641.42	15332.85
641.57	15309.44
641.72	15353.91
641.86	15592.65
642.01	15019.22
642.16	15124.54
642.31	15180.71
642.45	15438.17
642.60	15019.22
642.75	15208.80
642.90	15066.03
643.04	15087.09
643.19	15073.05
643.34	15204.12
643.48	15260.29
643.63	15066.03
643.78	15089.43
643.93	14829.63
644.07	14904.53
644.22	14923.26
644.37	14719.63
644.51	15044.96
644.66	15070.71
644.81	14878.79
644.95	14939.64
645.10	15204.12
645.25	15276.68
645.39	15059.01
645.54	14960.70
645.69	14862.40
645.83	14913.89
645.98	14827.29
646.13	14848.36
646.27	14803.89
646.42	14855.38
646.57	15059.01
646.71	15040.28
646.86	14892.83
647.00	14941.98
647.15	14817.93
647.30	14986.45
647.44	15016.88
647.59	14719.63
647.74	14897.51
647.88	14679.84
648.03	14808.57
648.17	14649.41
648.32	14565.15
648.47	14607.28
648.61	14703.25
648.76	14665.80
648.90	14773.46
649.05	14684.52
649.20	14944.32
649.34	14604.94
649.49	14743.03
649.63	14686.86
649.78	14757.08
649.92	14780.48
650.07	14452.81
650.21	14736.01
650.36	14679.84
650.51	14436.42
650.65	14682.18
650.80	14651.75
650.94	14698.56
651.09	14768.78
651.23	14422.38
651.38	14665.80
651.52	14726.65
651.67	14630.69
651.81	14672.82
651.96	14696.22
652.10	14340.46
652.25	14368.55
652.39	14441.11
652.54	14516.00
652.68	14462.17
652.83	14445.79
652.97	14642.39
653.12	14267.91
653.26	14726.65
653.41	14342.80
653.55	14331.10
653.70	14071.30
653.84	14455.15
653.99	14153.22
654.13	14251.52
654.27	14335.78
654.42	14434.08
654.56	14239.82
654.71	14398.98
654.85	14551.11
655.00	14506.64
655.14	14370.89
655.29	14249.18
655.43	14155.56
655.57	14094.71
655.72	14157.90
655.86	14616.65
656.01	14150.88
656.15	13937.89
656.30	14263.22
656.44	14050.24
656.58	14209.39
656.73	14324.08
656.87	14324.08
657.01	14005.77
657.16	14171.94
657.30	14099.39
657.45	14204.71
657.59	14162.58
657.73	13867.67
657.88	14099.39
658.02	14010.45
658.16	14040.87
658.31	14036.19
658.45	14244.50
658.60	14036.19
658.74	14115.77
658.88	14061.94
659.03	14122.79
659.17	14019.81
659.31	13944.91
659.46	13921.51
659.60	13848.95
659.74	13898.10
659.89	13640.64
660.03	13633.62
660.17	13715.54
660.32	13870.01
660.46	13827.88
660.60	13820.86
660.74	13720.22
660.89	13596.17
661.03	13502.55
661.17	13666.39
661.32	13535.32
661.46	13928.53
661.60	13610.22
661.74	13741.29
661.89	13682.77
662.03	13575.11
662.17	13612.56
662.31	13474.46
662.46	13638.30
662.60	13575.11
662.74	13694.47
662.88	13523.62
663.03	13327.01
663.17	13626.60
663.31	13509.57
663.45	13610.22
663.60	13504.89
663.74	13207.64
663.88	13399.57
664.02	13373.82
664.17	13565.74
664.31	13090.62
664.45	13284.88
664.59	13303.60
664.73	13500.21
664.88	13011.04
665.02	12994.65
665.16	12840.18
665.30	13268.50
665.44	13343.39
665.59	13277.86
665.73	13111.68
665.87	13034.44
666.01	13107.00
666.15	13441.70
666.29	13275.52
666.44	13055.51
666.58	12849.54
666.72	12919.76
666.86	12732.51
667.00	12982.95
667.14	12779.32
667.28	12936.14
667.43	13170.19
667.57	12744.22
667.71	12636.55
667.85	12826.14
667.99	12718.47
668.13	12760.60
668.27	12432.93
668.41	12706.77
668.56	12683.36
668.70	12379.09
668.84	12486.76
668.98	12528.89
669.12	12659.96
669.26	12657.62
669.40	12634.21
669.54	12683.36
669.68	12922.10
669.82	12542.93
669.96	12540.59
670.10	12449.31
670.25	12397.82
670.39	12552.29
670.53	12547.61
670.67	12390.80
670.81	12500.80
670.95	12554.63
671.09	12585.06
671.23	12428.24
671.37	12482.08
671.51	12390.80
671.65	12388.46
671.79	11967.16
671.93	12301.86
672.07	12414.20
672.21	12182.49
672.35	12037.38
672.49	12301.86
672.63	11995.25
672.77	12147.38
672.91	12039.72
673.05	12051.42
673.19	11936.73
673.33	11882.90
673.47	12046.74
673.61	11796.30
673.75	11831.41
673.89	11683.95
674.03	11676.93
674.17	11939.07
674.31	11875.88
674.45	11910.99
674.59	11808.00
674.73	11815.02
674.87	11969.50
675.01	11686.29
675.15	11625.44
675.29	11782.26
675.43	11578.63
675.56	11618.42
675.70	11632.46
675.84	11520.12
675.98	11164.36
676.12	11426.50
676.26	11632.46
676.40	11595.01
676.54	11370.32
676.68	11375.00
676.82	11154.99
676.96	11152.65
677.10	11290.74
677.23	11304.79
677.37	11281.38
677.51	11513.10
677.65	11157.33
677.79	10759.44
677.93	11180.74
678.07	10771.15
678.21	11026.26
678.34	10972.43
678.48	10532.41
678.62	10789.87
678.76	10773.49
678.90	10946.69
679.04	11061.37
679.18	10633.05
679.31	10588.58
679.45	10438.79
679.59	10621.35
679.73	10684.55
679.87	10609.65
680.00	10551.14
680.14	10471.56
680.28	10265.59
680.42	10422.41
680.56	10539.43
680.70	10466.88
680.83	10590.92
680.97	10298.36
681.11	10466.88
681.25	10216.44
681.39	10207.08
681.52	10188.35
681.66	10368.57
681.80	10211.76
681.94	10209.42
682.07	10277.29
682.21	10031.54
682.35	9933.23
682.49	9973.02
682.62	9998.77
682.76	9923.87
682.90	9991.75
683.04	9874.72
683.17	9928.55
683.31	9760.03
683.45	9858.34
683.59	9839.61
683.72	9600.88
683.86	9905.15
684.00	9643.01
684.13	9743.65
684.27	9778.76
684.41	9437.04
684.55	9652.37
684.68	9490.87
684.82	9563.43
684.96	9373.85
685.09	9516.62
685.23	9277.88
685.37	9511.94
685.50	9551.73
685.64	9661.73
685.78	9200.65
685.91	9284.91
686.05	9242.78
686.19	9273.20
686.32	9256.82
686.46	9029.79
686.60	9081.28
686.73	9516.62
686.87	9240.44
687.01	9355.12
687.14	9191.28
687.28	9069.58
687.42	8882.33
687.55	8975.95
687.69	8858.93
687.82	8858.93
687.96	8896.38
688.10	8938.51
688.23	8957.23
688.37	8870.63
688.50	8601.47
688.64	8688.07
688.78	8912.76
688.91	8774.67
689.05	8971.27
689.18	8491.46
689.32	8423.59
689.46	8807.44
689.59	8545.30
689.73	8407.20
689.86	8428.27
690.00	8547.64
690.13	8557.00
690.27	8308.90
690.41	8294.86
690.54	8159.11
690.68	8320.60
690.81	8344.01
690.95	8280.82
691.08	8205.92
691.22	7985.91
691.35	8212.94
691.49	8065.49
691.62	8194.22
691.76	8039.74
691.89	8042.08
692.03	8105.28
692.16	7866.54
692.30	8028.04
692.43	7960.16
692.57	7873.56
692.70	7810.37
692.84	8086.55
692.97	7786.96
693.11	7920.37
693.24	7847.82
693.38	7592.70
693.51	7723.77
693.65	7566.95
693.78	7658.23
693.92	7683.98
694.05	7723.77
694.19	7669.94
694.32	7733.13
694.45	7641.85
694.59	7669.94
694.72	7517.80
694.86	7279.07
694.99	7372.69
695.13	7403.11
695.26	7211.19
695.39	7332.90
695.53	7346.94
695.66	7164.38
695.80	7328.22
695.93	7243.96
696.07	7155.02
696.20	7126.93
696.33	7269.70
696.47	7199.49
696.60	7122.25
696.73	6951.39
696.87	6951.39
697.00	6977.14
697.14	7007.56
697.27	6803.94
697.40	6778.19
697.54	6733.72
697.67	6682.23
697.80	6722.02
697.94	6839.05
698.07	6862.45
698.21	6682.23
698.34	6881.18
698.47	6689.25
698.61	6675.21
698.74	6558.18
698.87	6590.95
699.01	6590.95
699.14	6459.88
699.27	6525.41
699.40	6750.10
699.54	6544.14
699.67	6593.29
699.80	6427.11
699.94	6530.09
700.07	6296.04
700.20	6253.91
700.34	6209.44
700.47	6253.91
700.60	6408.39
700.73	6164.97
700.87	6221.14
701.00	6101.78
701.13	6164.97
701.26	6190.72
701.40	6153.27
701.53	6029.22
701.66	5970.71
701.79	6129.86
701.93	6087.73
702.06	6008.16
702.19	6031.56
702.32	6038.58
702.46	5877.09
702.59	5994.11
702.72	5914.53
702.85	5788.14
702.99	5738.99
703.12	5717.93
703.25	5640.69
703.38	5699.20
703.51	5694.52
703.65	5706.23
703.78	5858.36
703.91	5860.70
704.04	5764.74
704.17	5689.84
704.31	5561.11
704.44	5631.33
704.57	5628.99
704.70	5540.05
704.83	5364.51
704.96	5533.03
705.10	5610.26
705.23	5448.77
>>>>>End Processed Spectral Data<<<<<
