SpectraSuite Data File
++++++++++++++++++++++++++++++++++++
Date: Fri Oct 04 11:48:47 GMT-05:00 2013
User: price-jones
Dark Spectrum Present: No
Reference Spectrum Present: No
Number of Sampled Component Spectra: 1
Spectrometers: USB2+H05261
Integration Time (usec): 100000 (USB2+H05261)
Spectra Averaged: 1 (USB2+H05261)
Boxcar Smoothing: 0 (USB2+H05261)
Correct for Electrical Dark: No (USB2+H05261)
Strobe/Lamp Enabled: No (USB2+H05261)
Correct for Detector Non-linearity: No (USB2+H05261)
Correct for Stray Light: No (USB2+H05261)
Number of Pixels in Processed Spectrum: 2048
>>>>>Begin Processed Spectral Data<<<<<
365.73	84.26
365.92	84.26
366.12	84.26
366.32	0.00
366.52	0.00
366.72	0.00
366.91	0.00
367.11	0.00
367.31	0.00
367.51	0.00
367.70	0.00
367.90	0.00
368.10	0.00
368.30	0.00
368.49	0.00
368.69	0.00
368.89	0.00
369.09	0.00
369.28	0.00
369.48	0.00
369.68	0.00
369.87	67.88
370.07	0.00
370.27	0.00
370.47	117.03
370.66	273.84
370.86	416.62
371.06	482.15
371.25	610.88
371.45	421.30
371.65	547.69
371.84	470.45
372.04	519.60
372.24	491.51
372.44	489.17
372.63	540.66
372.83	645.99
373.03	650.67
373.22	547.69
373.42	557.05
373.62	603.86
373.81	531.30
374.01	629.60
374.21	620.24
374.40	638.97
374.60	674.07
374.79	587.47
374.99	643.65
375.19	669.39
375.38	739.61
375.58	657.69
375.78	695.14
375.97	667.05
376.17	737.27
376.37	645.99
376.56	692.80
376.76	622.58
376.95	723.23
377.15	772.38
377.35	746.63
377.54	725.57
377.74	676.41
377.93	786.42
378.13	671.73
378.33	763.01
378.52	814.51
378.72	835.57
378.91	713.86
379.11	699.82
379.31	748.97
379.50	671.73
379.70	748.97
379.89	805.14
380.09	739.61
380.28	823.87
380.48	880.04
380.68	758.33
380.87	844.93
381.07	830.89
381.26	844.93
381.46	751.31
381.65	833.23
381.85	926.85
382.04	863.66
382.24	856.64
382.43	823.87
382.63	882.38
382.83	917.49
383.02	1018.13
383.22	1048.56
383.41	994.73
383.61	940.90
383.80	1001.75
384.00	929.19
384.19	950.26
384.39	990.05
384.58	1001.75
384.78	1004.09
384.97	999.41
385.17	959.62
385.36	1027.50
385.56	926.85
385.75	1029.84
385.95	915.15
386.14	1043.88
386.34	1086.01
386.53	980.68
386.72	1034.52
386.92	1097.71
387.11	1142.18
387.31	1102.39
387.50	1095.37
387.70	1128.14
387.89	1104.73
388.09	1109.41
388.28	1071.97
388.48	1193.67
388.67	1238.14
388.86	1193.67
389.06	1186.65
389.25	1221.76
389.45	1249.85
389.64	1083.67
389.84	1179.63
390.03	1259.21
390.22	1217.08
390.42	1203.04
390.61	1268.57
390.81	1247.51
391.00	1233.46
391.19	1317.72
391.39	1284.95
391.58	1301.34
391.78	1341.13
391.97	1334.11
392.16	1322.40
392.36	1364.53
392.55	1371.55
392.75	1338.79
392.94	1324.74
393.13	1249.85
393.33	1390.28
393.52	1359.85
393.71	1437.09
393.91	1383.26
394.10	1411.34
394.29	1439.43
394.49	1320.06
394.68	1516.67
394.88	1563.48
395.07	1528.37
395.26	1392.62
395.46	1462.83
395.65	1528.37
395.84	1654.76
396.04	1598.59
396.23	1636.03
396.42	1621.99
396.62	1540.07
396.81	1668.80
397.00	1572.84
397.19	1542.41
397.39	1659.44
397.58	1762.42
397.77	1727.32
397.97	1753.06
398.16	1682.85
398.35	1851.36
398.55	1699.23
398.74	1750.72
398.93	1893.49
399.12	1746.04
399.32	1771.79
399.51	1830.30
399.70	1860.73
399.90	1842.00
400.09	1858.39
400.28	1853.70
400.47	1870.09
400.67	2031.58
400.86	1895.83
401.05	1928.60
401.24	1935.62
401.44	2099.46
401.63	1991.80
401.82	2143.93
402.01	2080.74
402.21	2033.93
402.40	2083.08
402.59	2059.67
402.78	2099.46
402.97	2033.93
403.17	2270.32
403.36	2272.66
403.55	2197.76
403.74	2186.06
403.93	2275.00
404.13	2300.75
404.32	2200.10
404.51	2310.11
404.70	2307.77
404.89	2342.88
405.09	2352.24
405.28	2298.41
405.47	2410.75
405.66	2356.92
405.85	2455.22
406.05	2345.22
406.24	2377.98
406.43	2478.63
406.62	2619.06
406.81	2630.76
407.00	2569.91
407.20	2576.93
407.39	2637.78
407.58	2738.43
407.77	2607.36
407.96	2562.89
408.15	2649.49
408.34	2546.50
408.54	2605.02
408.73	2939.71
408.92	2822.69
409.11	2796.94
409.30	2923.33
409.49	2850.77
409.68	2862.48
409.87	2939.71
410.07	3038.02
410.26	3023.97
410.45	3066.10
410.64	3063.76
410.83	3012.27
411.02	3108.23
411.21	3052.06
411.40	3068.44
411.59	3119.93
411.78	3176.11
411.98	3178.45
412.17	3335.26
412.36	3281.43
412.55	3368.03
412.74	3386.76
412.93	3428.88
413.12	3393.78
413.31	3510.80
413.50	3482.72
413.69	3534.21
413.88	3508.46
414.07	3543.57
414.26	3695.71
414.45	3714.43
414.64	3669.96
414.83	3812.73
415.02	3728.47
415.22	3775.28
415.41	3904.01
415.60	3929.76
415.79	3927.42
415.98	3953.16
416.17	3969.55
416.36	4084.23
416.55	4100.62
416.74	4058.49
416.93	4138.07
417.12	4217.65
417.31	4175.52
417.50	4332.33
417.69	4472.76
417.88	4395.53
418.07	4327.65
418.26	4203.60
418.45	4332.33
418.64	4428.29
418.83	4528.94
419.02	4454.04
419.21	4519.57
419.39	4533.62
419.58	4414.25
419.77	4552.34
419.96	4526.60
420.15	4589.79
420.34	4564.04
420.53	4629.58
420.72	4863.63
420.91	4699.80
421.10	4772.35
421.29	4917.47
421.48	4887.04
421.67	4772.35
421.86	4844.91
422.05	5076.62
422.24	4851.93
422.43	4947.89
422.61	4908.10
422.80	4971.30
422.99	4994.70
423.18	4957.25
423.37	5100.03
423.56	5043.85
423.75	4966.62
423.94	4945.55
424.13	4650.64
424.32	4856.61
424.50	5088.32
424.69	5233.44
424.88	5121.09
425.07	5064.92
425.26	4791.08
425.45	5064.92
425.64	5097.69
425.83	4849.59
426.01	5088.32
426.20	5055.56
426.39	4975.98
426.58	5198.33
426.77	5132.79
426.96	5174.92
427.15	5069.60
427.33	5205.35
427.52	5366.85
427.71	5378.55
427.90	5348.12
428.09	5355.15
428.28	5460.47
428.46	5636.01
428.65	5626.65
428.84	5514.30
429.03	5511.96
429.22	5437.06
429.40	5551.75
429.59	5729.63
429.78	5397.28
429.97	5411.32
430.16	5514.30
430.34	5675.80
430.53	5863.04
430.72	5783.46
430.91	5584.52
431.10	5748.36
431.28	5933.26
431.47	6015.18
431.66	5923.90
431.85	5785.80
432.03	6097.10
432.22	6038.58
432.41	5921.56
432.60	6214.12
432.79	6211.78
432.97	6094.76
433.16	6057.31
433.35	6097.10
433.54	6157.95
433.72	6253.91
433.91	6146.25
434.10	6225.82
434.28	6291.36
434.47	6286.68
434.66	6396.68
434.85	6572.22
435.03	6422.43
435.22	6434.13
435.41	6729.04
435.59	6492.65
435.78	6413.07
435.97	6675.21
436.16	6609.67
436.34	6686.91
436.53	6843.73
436.72	6710.32
436.90	6757.13
437.09	6918.62
437.28	6612.01
437.46	6946.71
437.65	6782.87
437.84	6729.04
438.02	6977.14
438.21	7012.24
438.40	6775.85
438.58	7152.68
438.77	7236.94
438.96	7260.34
439.14	7267.36
439.33	7555.25
439.52	7513.12
439.70	7478.01
439.89	7515.46
440.08	7309.49
440.26	7595.04
440.45	7566.95
440.63	7541.21
440.82	7941.44
441.01	7889.95
441.19	7880.58
441.38	7974.21
441.57	7887.61
441.75	7925.05
441.94	8180.17
442.12	8077.19
442.31	8287.84
442.50	8196.56
442.68	8287.84
442.87	8348.69
443.05	8365.07
443.24	8414.23
443.43	8358.05
443.61	8617.85
443.80	8521.89
443.98	8273.79
444.17	8297.20
444.35	8524.23
444.54	8606.15
444.73	8615.51
444.91	8840.20
445.10	8458.70
445.28	8503.17
445.47	8592.11
445.65	8519.55
445.84	8655.30
446.02	8643.60
446.21	8788.71
446.39	8587.43
446.58	8823.82
446.77	8669.34
446.95	8528.91
447.14	8603.81
447.32	8704.45
447.51	8659.98
447.69	8634.24
447.88	8791.05
448.06	8990.00
448.25	8727.86
448.43	9004.04
448.62	8769.99
448.80	8784.03
448.99	8990.00
449.17	8938.51
449.36	9046.17
449.54	9247.46
449.73	9317.67
449.91	9221.71
450.10	9406.61
450.28	9174.90
450.46	9401.93
450.65	9441.72
450.83	9460.45
451.02	9472.15
451.20	9797.48
451.39	9373.85
451.57	9305.97
451.76	9521.30
451.94	9465.13
452.13	9781.10
452.31	9423.00
452.49	9657.05
452.68	9633.64
452.86	9643.01
453.05	9788.12
453.23	9804.50
453.42	9579.81
453.60	9638.33
453.78	9914.51
453.97	9750.67
454.15	9989.41
454.34	9809.19
454.52	10017.49
454.70	10024.51
454.89	10071.33
455.07	10111.11
455.26	10003.45
455.44	10235.16
455.62	10258.57
455.81	10452.83
455.99	10335.81
456.17	10441.13
456.36	10473.90
456.54	10567.52
456.73	10635.39
456.91	10787.53
457.09	10635.39
457.28	10946.69
457.46	10827.32
457.64	10848.38
457.83	10874.13
458.01	10958.39
458.19	10965.41
458.38	10991.16
458.56	11199.46
458.74	11021.58
458.93	11037.97
459.11	11052.01
459.29	11316.49
459.48	11276.70
459.66	11014.56
459.84	11321.17
460.03	11562.25
460.21	11346.92
460.39	11482.67
460.57	11346.92
460.76	11456.92
460.94	11545.86
461.12	11480.33
461.31	11733.11
461.49	11613.74
461.67	11627.78
461.85	11962.48
462.04	11602.04
462.22	12458.67
462.40	11960.14
462.59	11955.46
462.77	11882.90
462.95	12123.98
463.13	12002.27
463.32	12161.42
463.50	12250.36
463.68	12203.55
463.86	12166.10
464.05	11960.14
464.23	12226.96
464.41	12182.49
464.59	12393.14
464.78	12528.89
464.96	12135.68
465.14	12278.45
465.32	12521.87
465.50	12587.40
465.69	12439.95
465.87	12643.57
466.05	12369.73
466.23	12388.46
466.41	12695.07
466.60	13092.96
466.78	12489.10
466.96	12599.10
467.14	12549.95
467.32	12641.23
467.51	13139.77
467.69	12601.44
467.87	12889.33
468.05	13207.64
468.23	12931.46
468.41	12915.08
468.60	12985.29
468.78	13235.73
468.96	12996.99
469.14	13151.47
469.32	13502.55
469.50	13018.06
469.69	13532.98
469.87	13509.57
470.05	13607.87
470.23	13647.66
470.41	13434.68
470.59	13884.06
470.77	13811.50
470.95	13752.99
471.14	13687.45
471.32	13792.78
471.50	14225.78
471.68	14005.77
471.86	13984.70
472.04	14195.35
472.22	14555.79
472.40	14239.82
472.58	14333.44
472.77	14572.18
472.95	14544.09
473.13	14979.43
473.31	14429.40
473.49	14539.41
473.67	14839.00
473.85	15154.97
474.03	15517.75
474.21	15061.35
474.39	15323.49
474.57	15398.38
474.75	15428.81
474.93	15559.88
475.12	15651.16
475.30	15695.63
475.48	15768.19
475.66	15838.41
475.84	15817.34
476.02	16257.36
476.20	16145.02
476.38	16152.04
476.56	16608.44
476.74	16659.93
476.92	16350.98
477.10	16395.45
477.28	16823.77
477.46	16802.71
477.64	16872.92
477.82	17177.19
478.00	17694.45
478.18	17268.47
478.36	17624.23
478.54	17507.21
478.72	17853.61
478.90	18223.41
479.08	18211.71
479.26	18354.48
479.44	18272.56
479.62	18630.66
479.80	18654.07
479.98	19115.16
480.16	18960.68
480.34	19077.71
480.52	19398.36
480.70	19325.80
480.88	19068.34
481.06	19278.99
481.24	19569.22
481.41	19822.00
481.59	20315.85
481.77	20395.43
481.95	20376.70
482.13	20697.36
482.31	20643.52
482.49	20868.22
482.67	21092.91
482.85	21378.45
483.03	21465.05
483.21	21523.57
483.39	21884.01
483.57	21649.96
483.74	21954.22
483.92	22267.86
484.10	21855.92
484.28	22686.81
484.46	22876.40
484.64	23433.44
484.82	22773.41
485.00	23529.41
485.18	23379.61
485.35	23836.02
485.53	24039.64
485.71	24067.73
485.89	24744.14
486.07	24318.17
486.25	24510.09
486.43	24196.46
486.61	24950.11
486.78	25015.65
486.96	25254.38
487.14	25626.53
487.32	25511.84
487.50	25872.28
487.68	25593.76
487.85	26293.58
488.03	26546.36
488.21	27201.71
488.39	26789.77
488.57	26796.79
488.75	27456.82
488.92	27957.70
489.10	28086.43
489.28	28166.01
489.46	28458.57
489.64	28168.35
489.81	29020.30
489.99	28694.97
490.17	29219.25
490.35	29422.87
490.53	29092.86
490.70	29415.85
490.88	29319.89
491.06	29926.09
491.24	29926.09
491.41	30225.68
491.59	30663.36
491.77	30546.33
491.95	31225.09
492.13	31131.47
492.30	31304.67
492.48	30843.58
492.66	31543.40
492.84	31775.11
493.01	32336.84
493.19	32070.02
493.37	32528.77
493.54	32666.86
493.72	32910.27
493.90	32907.93
494.08	33193.48
494.25	33610.09
494.43	33441.57
494.61	33853.51
494.79	34237.36
494.96	34033.73
495.14	34071.18
495.32	34679.72
495.49	34642.27
495.67	34803.77
495.85	35302.30
496.02	35391.24
496.20	35377.20
496.38	34813.13
496.55	35604.23
496.73	36507.68
496.91	35583.16
497.09	36175.32
497.26	36720.66
497.44	36465.55
497.62	36477.25
497.79	37181.75
497.97	36926.63
498.14	37710.71
498.32	38052.43
498.50	37621.77
498.67	38103.92
498.85	37968.17
499.03	37982.21
499.20	38368.40
499.38	38604.80
499.56	38806.08
499.73	39246.10
499.91	38998.01
500.08	38782.68
500.26	39271.85
500.44	39433.35
500.61	39187.59
500.79	39133.76
500.97	39882.73
501.14	40554.46
501.32	40245.51
501.49	40222.11
501.67	40058.27
501.84	40519.35
502.02	40893.84
502.20	40861.07
502.37	40933.63
502.55	40774.47
502.72	40762.77
502.90	41207.47
503.07	41132.57
503.25	41560.89
503.43	41684.94
503.60	41493.02
503.78	41930.70
503.95	42232.63
504.13	41970.49
504.30	42094.53
504.48	41790.27
504.65	42267.73
504.83	42780.31
505.01	43325.66
505.18	43189.91
505.36	43351.40
505.53	42831.80
505.71	43119.69
505.88	43533.96
506.06	43524.60
506.23	43973.98
506.41	43793.76
506.58	43988.03
506.76	44369.54
506.93	44046.54
507.11	44453.79
507.28	44210.38
507.46	44226.76
507.63	44758.06
507.81	45113.83
507.98	44931.26
508.16	44900.84
508.33	44828.28
508.50	45148.93
508.68	45855.78
508.85	45574.91
509.03	45757.47
509.20	45883.86
509.38	46211.54
509.55	46197.49
509.73	46241.96
509.90	46398.78
510.08	46270.05
510.25	46277.07
510.42	46618.79
510.60	46885.61
510.77	46894.97
510.95	47026.04
511.12	46941.78
511.30	47327.97
511.47	47339.68
511.64	47250.74
511.82	47229.67
511.99	47716.50
512.17	47765.65
512.34	47735.23
512.51	47957.58
512.69	48224.40
512.86	47854.59
513.04	48435.05
513.21	48413.98
513.38	48753.36
513.56	48538.03
513.73	48594.20
513.90	48802.51
514.08	48458.45
514.25	49078.69
514.43	48942.94
514.60	49254.23
514.77	48985.07
514.95	49724.68
515.12	49151.25
515.29	49167.63
515.47	49701.28
515.64	49848.73
515.81	49649.78
515.99	49874.48
516.16	50415.14
516.33	50085.12
516.51	50492.38
516.68	50326.20
516.85	50284.07
517.03	50263.00
517.20	50548.55
517.37	50883.25
517.54	50632.81
517.72	50454.93
517.89	50674.94
518.06	50644.51
518.24	50714.73
518.41	50609.40
518.58	51189.86
518.75	50988.57
518.93	51515.19
519.10	51299.86
519.27	51562.00
519.45	51035.38
519.62	51365.40
519.79	51533.92
519.96	51489.45
520.14	51973.94
520.31	51786.69
520.48	51819.46
520.65	51613.49
520.83	52112.03
521.00	52081.60
521.17	52034.79
521.34	52186.92
521.52	52315.65
521.69	52360.12
521.86	52425.66
522.03	52949.94
522.20	52383.53
522.38	52903.13
522.55	52540.35
522.72	52626.95
522.89	52975.69
523.07	53106.76
523.24	53230.80
523.41	53078.67
523.58	52938.24
523.75	52926.53
523.92	53151.23
524.10	53153.57
524.27	53350.17
524.44	53591.25
524.61	53860.41
524.78	54080.42
524.96	53696.57
525.13	53584.22
525.30	53682.53
525.47	53462.52
525.64	53689.55
525.81	54007.86
525.98	54099.14
526.16	53813.60
526.33	54061.69
526.50	54347.24
526.67	54089.78
526.84	54192.76
527.01	54092.12
527.18	54293.41
527.36	54543.84
527.53	54490.01
527.70	54482.99
527.87	54653.85
528.04	54522.78
528.21	54691.30
528.38	54286.39
528.55	54920.67
528.72	54979.18
528.89	54623.42
529.07	54824.71
529.24	54672.57
529.41	55000.25
529.58	55068.12
529.75	54927.69
529.92	54892.58
530.09	55011.95
530.26	55131.32
530.43	55358.35
530.60	55063.44
530.77	55325.58
530.94	55463.67
531.11	55358.35
531.28	55384.10
531.46	55292.82
531.63	55576.02
531.80	55693.05
531.97	55854.54
532.14	55742.20
532.31	55641.56
532.48	55468.36
532.65	55927.10
532.82	55842.84
532.99	55763.26
533.16	55877.95
533.33	56011.36
533.50	56355.42
533.67	56025.40
533.84	55917.74
534.01	55969.23
534.18	55884.97
534.35	56357.76
534.52	56074.55
534.69	56596.49
534.86	56247.75
535.03	55994.98
535.20	56357.76
535.37	56439.68
535.54	56390.53
535.71	56238.39
535.88	56624.58
536.05	56556.70
536.22	56996.73
536.38	56947.57
536.55	56935.87
536.72	56715.86
536.89	56584.79
537.06	56718.20
537.23	56807.14
537.40	56793.10
537.57	56931.19
537.74	56786.08
537.91	57188.65
538.08	57258.87
538.25	56912.47
538.42	56933.53
538.59	57286.95
538.75	57073.96
538.92	57034.17
539.09	57411.00
539.26	57415.68
539.43	57476.54
539.60	57282.27
539.77	57153.54
539.94	57394.62
540.11	57181.63
540.28	57511.64
540.44	57570.16
540.61	57478.88
540.78	57387.60
540.95	57352.49
541.12	57539.73
541.29	57539.73
541.46	57745.70
541.62	57722.29
541.79	57666.12
541.96	57553.77
542.13	57673.14
542.30	57858.04
542.47	58071.03
542.63	58166.99
542.80	57939.96
542.97	58136.57
543.14	58155.29
543.31	58127.20
543.48	57968.05
543.64	58347.21
543.81	58445.52
543.98	58590.63
544.15	58323.81
544.32	58637.44
544.48	58560.20
544.65	58347.21
544.82	58550.84
544.99	58181.04
545.16	58707.66
545.32	58520.41
545.49	58724.04
545.66	58749.79
545.83	58756.81
546.00	58946.39
546.16	58672.55
546.33	58611.70
546.50	58459.56
546.67	58869.15
546.83	58501.69
547.00	58880.86
547.17	58726.38
547.34	58752.13
547.50	59011.93
547.67	59082.14
547.84	58958.09
548.00	58899.58
548.17	59227.26
548.34	58810.64
548.51	59166.40
548.67	59185.13
548.84	59250.66
549.01	59110.23
549.18	59126.61
549.34	59091.51
549.51	59037.67
549.68	59061.08
549.84	58993.20
550.01	59400.46
550.18	59470.67
550.34	59271.73
550.51	59290.45
550.68	59414.50
550.84	59213.21
551.01	59428.54
551.18	59276.41
551.34	59283.43
551.51	59590.04
551.68	59618.13
551.84	59828.77
552.01	59552.59
552.18	59840.48
552.34	59674.30
552.51	59657.91
552.68	59561.95
552.84	59667.28
553.01	59828.77
553.18	59716.43
553.34	59891.97
553.51	59735.15
553.67	59868.56
553.84	59957.50
554.01	60037.08
554.17	59767.92
554.34	59870.90
554.51	59721.11
554.67	60123.68
554.84	60025.38
555.00	59868.56
555.17	59842.82
555.33	60163.47
555.50	59964.52
555.67	59924.74
555.83	59990.27
556.00	60198.58
556.16	60392.84
556.33	60119.00
556.50	60179.85
556.66	60327.31
556.83	60151.77
556.99	60423.27
557.16	60247.73
557.32	60456.04
557.49	60388.16
557.65	60027.72
557.82	60226.66
557.98	60104.96
558.15	60275.82
558.32	60453.70
558.48	60285.18
558.65	60484.12
558.81	60467.74
558.98	60556.68
559.14	60390.50
559.31	60451.36
559.47	60406.89
559.64	60622.22
559.80	60598.81
559.97	60980.32
560.13	60662.00
560.30	60608.17
560.46	60687.75
560.63	60626.90
560.79	60727.54
560.96	60807.12
561.12	60624.56
561.29	60725.20
561.45	60636.26
561.61	60694.77
561.78	60718.18
561.94	60669.03
562.11	60662.00
562.27	60718.18
562.44	60776.69
562.60	60692.43
562.77	60713.50
562.93	60774.35
563.10	60884.36
563.26	60652.64
563.42	61090.32
563.59	60949.89
563.75	60849.25
563.92	60952.23
564.08	60926.49
564.24	60872.65
564.41	60715.84
564.57	60853.93
564.74	60851.59
564.90	61066.92
565.07	61078.62
565.23	61172.24
565.39	61031.81
565.56	61146.50
565.72	60757.97
565.88	61048.19
566.05	60952.23
566.21	60980.32
566.38	60980.32
566.54	61050.53
566.70	61315.01
566.87	61174.58
567.03	60935.85
567.19	61317.35
567.36	61307.99
567.52	60793.07
567.68	61242.46
567.85	61080.96
568.01	61214.37
568.17	61116.07
568.34	61539.71
568.50	61436.72
568.66	61324.38
568.83	61286.93
568.99	61258.84
569.15	61078.62
569.32	61226.07
569.48	61097.34
569.64	61144.16
569.81	61162.88
569.97	61137.13
570.13	61282.25
570.30	61158.20
570.46	61104.37
570.62	61176.92
570.78	61240.12
570.95	61181.60
571.11	61286.93
571.27	61109.05
571.43	61300.97
571.60	61235.44
571.76	61347.78
571.92	61265.86
572.09	61432.04
572.25	61307.99
572.41	61214.37
572.57	61226.07
572.74	61663.75
572.90	61392.25
573.06	61284.59
573.22	61408.64
573.38	61556.09
573.55	61439.06
573.71	61722.27
573.87	61614.60
574.03	61425.02
574.20	61256.50
574.36	61310.33
574.52	61429.70
574.68	61329.06
574.84	61600.56
575.01	61581.84
575.17	61553.75
575.33	61570.13
575.49	61581.84
575.65	61553.75
575.82	61628.65
575.98	61553.75
576.14	61467.15
576.30	61413.32
576.46	61551.41
576.62	61315.01
576.79	61464.81
576.95	61518.64
577.11	61478.85
577.27	61556.09
577.43	61654.39
577.59	61528.00
577.75	61532.68
577.92	61329.06
578.08	61511.62
578.24	61621.62
578.40	61366.51
578.56	61544.39
578.72	61462.47
578.88	61729.29
579.04	61677.80
579.21	61434.38
579.37	61663.75
579.53	61691.84
579.69	61415.66
579.85	61642.69
580.01	61488.21
580.17	61513.96
580.33	61689.50
580.49	61675.46
580.65	61841.63
580.82	61834.61
580.98	61645.03
581.14	61612.26
581.30	61717.59
581.46	61616.94
581.62	61598.22
581.78	61448.42
581.94	61481.19
582.10	61626.31
582.26	61712.91
582.42	61705.88
582.58	61820.57
582.74	61834.61
582.90	61820.57
583.06	61867.38
583.22	61708.22
583.38	61886.10
583.54	61825.25
583.70	61673.12
583.86	61939.94
584.02	61670.78
584.18	61918.87
584.34	61893.13
584.50	61846.32
584.66	61829.93
584.82	61588.86
584.98	61652.05
585.14	61680.14
585.30	61820.57
585.46	61626.31
585.62	61876.74
585.78	61841.63
585.94	61694.18
586.10	61808.87
586.26	62080.37
586.42	61918.87
586.58	61703.54
586.74	61738.65
586.90	61661.41
587.06	61687.16
587.22	61904.83
587.38	61677.80
587.54	61843.98
587.70	61921.21
587.86	62103.77
588.02	61879.08
588.18	62124.84
588.34	61865.04
588.49	61914.19
588.65	61897.81
588.81	61989.09
588.97	61893.13
589.13	61820.57
589.29	62024.20
589.45	62099.09
589.61	62113.14
589.77	62401.02
589.93	62071.01
590.08	62038.24
590.24	61918.87
590.40	62237.19
590.56	62157.61
590.72	61928.23
590.88	62080.37
591.04	62017.17
591.20	62223.14
591.35	62312.08
591.51	62445.49
591.67	62225.48
591.83	62269.95
591.99	62087.39
592.15	62120.16
592.31	62148.24
592.46	62122.50
592.62	61949.30
592.78	62073.35
592.94	62347.19
593.10	62080.37
593.26	62291.02
593.41	62391.66
593.57	62185.69
593.73	62190.37
593.89	62314.42
594.05	62120.16
594.20	61897.81
594.36	62260.59
594.52	61984.41
594.68	62115.48
594.84	62014.83
594.99	62438.47
595.15	62108.46
595.31	62401.02
595.47	62195.06
595.62	62204.42
595.78	62202.08
595.94	62255.91
596.10	62141.22
596.25	62241.87
596.41	62181.01
596.57	61958.66
596.73	62145.90
596.88	62159.95
597.04	62209.10
597.20	62422.09
597.36	62162.29
597.51	62527.41
597.67	62087.39
597.83	62045.26
597.99	62202.08
598.14	62115.48
598.30	62291.02
598.46	62351.87
598.61	62351.87
598.77	62358.89
598.93	62302.72
599.09	62274.63
599.24	62457.20
599.40	62269.95
599.56	62272.29
599.71	62262.93
599.87	62443.15
600.03	62286.34
600.18	62401.02
600.34	62230.16
600.50	62162.29
600.65	62269.95
600.81	62457.20
600.97	62550.82
601.12	62450.17
601.28	62419.75
601.44	62417.41
601.59	62691.25
601.75	62190.37
601.91	62396.34
602.06	62384.64
602.22	62326.13
602.37	62260.59
602.53	62342.51
602.69	62541.45
602.84	62164.63
603.00	62363.57
603.16	62405.70
603.31	62590.61
603.47	62412.73
603.62	62155.27
603.78	62443.15
603.94	62340.17
604.09	62438.47
604.25	62218.46
604.40	62305.06
604.56	62316.76
604.71	62560.18
604.87	62422.09
605.03	62522.73
605.18	62550.82
605.34	62342.51
605.49	62120.16
605.65	62328.47
605.80	62199.74
605.96	62312.08
606.12	62188.03
606.27	62241.87
606.43	62351.87
606.58	62459.54
606.74	62272.29
606.89	62370.60
607.05	62358.89
607.20	62110.80
607.36	62138.88
607.51	62295.70
607.67	62129.52
607.82	62188.03
607.98	62239.53
608.13	62181.01
608.29	62232.50
608.44	62148.24
608.60	62284.00
608.75	62440.81
608.91	62298.04
609.06	62012.49
609.22	62150.59
609.37	62040.58
609.53	62204.42
609.68	62122.50
609.84	62075.69
609.99	62080.37
610.15	62164.63
610.30	62213.78
610.46	62052.28
610.61	62159.95
610.76	62295.70
610.92	62124.84
611.07	62199.74
611.23	61811.21
611.38	62110.80
611.54	61991.43
611.69	61970.36
611.84	62122.50
612.00	62063.99
612.15	61975.05
612.31	62159.95
612.46	62120.16
612.62	62279.31
612.77	62113.14
612.92	62171.65
613.08	61996.11
613.23	61998.45
613.39	62038.24
613.54	62017.17
613.69	62042.92
613.85	61963.34
614.00	61996.11
614.15	61963.34
614.31	62017.17
614.46	62192.72
614.62	62162.29
614.77	62089.73
614.92	62096.75
615.08	61904.83
615.23	61975.05
615.38	61851.00
615.54	61827.59
615.69	61783.12
615.84	61869.72
616.00	61984.41
616.15	61811.21
616.30	62078.03
616.46	61904.83
616.61	61932.92
616.76	61858.02
616.92	61759.72
617.07	61865.04
617.22	61820.57
617.37	61698.86
617.53	61858.02
617.68	61876.74
617.83	61621.62
617.99	61860.36
618.14	61762.06
618.29	61902.49
618.45	61811.21
618.60	61853.34
618.75	61546.73
618.90	61563.11
619.06	61687.16
619.21	61413.32
619.36	61661.41
619.51	61546.73
619.67	61275.22
619.82	61410.98
619.97	61626.31
620.12	61469.49
620.28	61497.58
620.43	61478.85
620.58	61684.82
620.73	61710.56
620.89	61602.90
621.04	61712.91
621.19	61584.18
621.34	61410.98
621.49	61212.03
621.65	61350.12
621.80	61642.69
621.95	61307.99
622.10	61523.32
622.25	61310.33
622.41	61410.98
622.56	61483.53
622.71	61300.97
622.86	61303.31
623.01	61296.29
623.16	61275.22
623.32	61193.31
623.47	61425.02
623.62	61258.84
623.77	61333.74
623.92	61219.05
624.07	61265.86
624.23	61418.00
624.38	61544.39
624.53	61406.30
624.68	61516.30
624.83	61371.19
624.98	61535.02
625.13	61003.72
625.29	61209.69
625.44	61169.90
625.59	61127.77
625.74	61001.38
625.89	60882.02
626.04	61162.88
626.19	60966.27
626.34	60889.04
626.49	61045.85
626.65	61031.81
626.80	61291.61
626.95	61052.87
627.10	61043.51
627.25	60977.98
627.40	60938.19
627.55	60736.90
627.70	60736.90
627.85	60865.63
628.00	60757.97
628.15	60584.77
628.30	60795.42
628.45	60940.53
628.60	60764.99
628.76	60832.86
628.91	60835.20
629.06	60891.38
629.21	60896.06
629.36	60767.33
629.51	60638.60
629.66	60804.78
629.81	60659.66
629.96	60402.21
630.11	60757.97
630.26	60757.97
630.41	60643.28
630.56	60416.25
630.71	60449.02
630.86	60755.63
631.01	60652.64
631.16	60626.90
631.31	60533.28
631.46	60500.51
631.61	60650.30
631.76	60446.68
631.91	60743.92
632.06	60561.36
632.21	60491.15
632.36	60540.30
632.51	60418.59
632.66	60664.35
632.81	60479.44
632.96	60418.59
633.10	60484.12
633.25	60329.65
633.40	60449.02
633.55	60327.31
633.70	60411.57
633.85	60205.60
634.00	60172.83
634.15	60451.36
634.30	60158.79
634.45	60301.56
634.60	60472.42
634.75	60509.87
634.90	60411.57
635.05	60465.40
635.19	60097.94
635.34	60437.31
635.49	60348.37
635.64	60062.83
635.79	60327.31
635.94	60156.45
636.09	59920.05
636.24	59845.16
636.39	59894.31
636.53	60128.36
636.68	59838.14
636.83	59964.52
636.98	60102.62
637.13	59922.40
637.28	60142.41
637.43	59877.93
637.57	60156.45
637.72	60072.19
637.87	59803.03
638.02	60001.97
638.17	60081.55
638.32	59725.79
638.46	59538.55
638.61	59845.16
638.76	59770.26
638.91	59849.84
639.06	59966.87
639.20	59997.29
639.35	59908.35
639.50	59929.42
639.65	59859.20
639.80	59906.01
639.94	59688.34
640.09	59693.02
640.24	59875.58
640.39	59732.81
640.54	59442.59
640.68	59360.67
640.83	59655.57
640.98	59377.05
641.13	59451.95
641.27	59494.08
641.42	59585.36
641.57	59543.23
641.72	59538.55
641.86	59536.21
642.01	59407.48
642.16	59355.99
642.31	59264.70
642.45	59409.82
642.60	59082.14
642.75	59442.59
642.90	59365.35
643.04	59379.39
643.19	59250.66
643.34	59325.56
643.48	59231.94
643.63	59435.56
643.78	59442.59
643.93	59372.37
644.07	59461.31
644.22	59173.42
644.37	59292.79
644.51	59098.53
644.66	59070.44
644.81	59213.21
644.95	59264.70
645.10	59199.17
645.25	59117.25
645.39	59154.70
645.54	59175.76
645.69	59107.89
645.83	59264.70
645.98	59309.18
646.13	59353.65
646.27	59082.14
646.42	59002.56
646.57	59159.38
646.71	59054.06
646.86	59224.92
647.00	59229.60
647.15	59018.95
647.30	58983.84
647.44	58965.12
647.59	58939.37
647.74	58763.83
647.88	59119.59
648.03	59068.10
648.17	59054.06
648.32	59297.47
648.47	58885.54
648.61	59007.25
648.76	58911.28
648.90	58829.37
649.05	58915.96
649.20	58630.42
649.34	58805.96
649.49	58717.02
649.63	58899.58
649.78	58843.41
649.92	58766.17
650.07	59016.61
650.21	58649.14
650.36	58670.21
650.51	58653.82
650.65	58815.32
650.80	58939.37
650.94	58513.39
651.09	58590.63
651.23	58670.21
651.38	58576.59
651.52	58508.71
651.67	58466.58
651.81	58653.82
651.96	58227.85
652.10	58468.92
652.25	58410.41
652.39	58578.93
652.54	58471.26
652.68	58482.97
652.83	58534.46
652.97	58651.48
653.12	58578.93
653.26	58342.53
653.41	58344.87
653.55	58337.85
653.70	58124.86
653.84	58150.61
653.99	58323.81
654.13	58204.44
654.27	58052.31
654.42	58375.30
654.56	58192.74
654.71	58347.21
654.85	58431.47
655.00	58464.24
655.14	58365.94
655.29	58129.54
655.43	58171.67
655.57	58024.22
655.72	58028.90
655.86	57757.40
656.01	57879.11
656.15	57921.24
656.30	57680.16
656.44	57951.66
656.58	57923.58
656.73	57977.41
656.87	57935.28
657.01	57846.34
657.16	58047.63
657.30	58038.26
657.45	58120.18
657.59	58010.18
657.73	57471.85
657.88	57883.79
658.02	57715.27
658.16	57708.25
658.31	57570.16
658.45	57663.78
658.60	57790.17
658.74	57462.49
658.88	57696.55
659.03	57343.12
659.17	57460.15
659.31	57616.97
659.46	57455.47
659.60	57614.63
659.74	57628.67
659.89	57481.22
660.03	57584.20
660.17	57605.26
660.32	57361.85
660.46	57371.21
660.60	57029.49
660.74	57240.14
660.89	57139.50
661.03	57118.43
661.17	57020.13
661.32	57228.44
661.46	57254.18
661.60	57265.89
661.74	57057.58
661.89	57343.12
662.03	57296.31
662.17	56949.92
662.31	56865.66
662.46	56839.91
662.60	56736.93
662.74	56760.33
662.88	56582.45
663.03	56451.38
663.17	56664.37
663.31	56493.51
663.45	56809.48
663.60	56638.62
663.74	56519.26
663.88	56540.32
664.02	56790.76
664.17	57120.77
664.31	56683.09
664.45	56545.00
664.59	56418.61
664.73	56619.90
664.88	56299.25
665.02	55889.65
665.16	56313.29
665.30	56126.05
665.44	55957.53
665.59	56004.34
665.73	56088.60
665.87	56086.26
666.01	56229.03
666.15	55887.31
666.29	55936.46
666.44	56079.24
666.58	56123.71
666.72	55765.60
666.86	55793.69
667.00	55957.53
667.14	55641.56
667.28	55545.59
667.43	55732.84
667.57	55545.59
667.71	55267.07
667.85	55625.17
667.99	55444.95
668.13	55206.22
668.27	55529.21
668.41	55679.00
668.56	55442.61
668.70	55494.10
668.84	55430.91
668.98	55388.78
669.12	55318.56
669.26	55318.56
669.40	55182.81
669.54	55208.56
669.68	55082.17
669.82	54944.08
669.96	54988.55
670.10	54504.06
670.25	54733.43
670.39	54611.72
670.53	54681.94
670.67	54541.50
670.81	54550.87
670.95	54656.19
671.09	54644.49
671.23	54499.37
671.37	54803.64
671.51	54759.17
671.65	54901.95
671.79	54522.78
671.93	54424.48
672.07	54447.88
672.21	54204.47
672.35	53785.51
672.49	54099.14
672.63	54014.88
672.77	53963.39
672.91	53867.43
673.05	53806.58
673.19	54099.14
673.33	53684.87
673.47	53815.94
673.61	53668.48
673.75	53485.92
673.89	53687.21
674.03	53729.34
674.17	53558.48
674.31	53214.42
674.45	53301.02
674.59	52729.93
674.73	53174.63
674.87	52758.02
675.01	52573.11
675.15	52519.28
675.29	52839.93
675.43	52877.38
675.56	52931.22
675.70	52765.04
675.84	52783.76
675.98	52069.90
676.12	52971.00
676.26	52687.80
676.40	52619.92
676.54	51992.66
676.68	52119.05
676.82	51430.93
676.96	52149.48
677.10	51737.54
677.23	51686.05
677.37	51672.01
677.51	51349.01
677.65	51229.65
677.79	51196.88
677.93	51288.16
678.07	51187.52
678.21	50693.66
678.34	51093.89
678.48	50979.21
678.62	50663.24
678.76	50892.61
678.90	50637.49
679.04	50642.17
679.18	50349.60
679.31	50010.23
679.45	50314.50
679.59	49949.37
679.73	49958.73
679.87	49296.36
680.00	49481.27
680.14	49851.07
680.28	49717.66
680.42	49656.81
680.56	49523.40
680.70	49013.16
680.83	49371.26
680.97	48828.26
681.11	49132.53
681.25	48928.90
681.39	48460.79
681.52	48439.73
681.66	48168.22
681.80	48013.75
681.94	48065.24
682.07	48032.47
682.21	48254.82
682.35	47608.84
682.49	48109.71
682.62	47622.88
682.76	47608.84
682.90	47646.29
683.04	47587.77
683.17	47222.65
683.31	47194.56
683.45	47334.99
683.59	46981.57
683.72	47145.41
683.86	46784.97
684.00	46623.47
684.13	46227.92
684.27	46316.86
684.41	46014.93
684.55	46057.06
684.68	45567.89
684.82	45722.37
684.96	45701.30
685.09	45256.60
685.23	45078.72
685.37	44849.35
685.50	45031.91
685.64	44327.41
685.78	44971.05
685.91	44912.54
686.05	44957.01
686.19	44940.63
686.32	45006.16
686.46	44388.26
686.60	44343.79
686.73	43798.44
686.87	43517.58
687.01	44058.24
687.14	43328.00
687.28	43498.86
687.42	43196.93
687.55	42731.16
687.69	43379.49
687.82	43075.22
687.96	43271.82
688.10	42796.70
688.23	42887.98
688.37	42696.05
688.50	42700.73
688.64	41923.68
688.78	42234.97
688.91	41783.24
689.05	41764.52
689.18	41684.94
689.32	40912.56
689.46	41340.88
689.59	40900.86
689.73	40552.12
689.86	40748.73
690.00	40615.32
690.13	40584.89
690.27	40329.77
690.41	40811.92
690.54	40701.92
690.68	40659.79
690.81	40561.48
690.95	40554.46
691.08	40037.20
691.22	39543.35
691.35	39749.32
691.49	39821.87
691.62	39288.23
691.76	38995.67
691.89	39051.84
692.03	38220.95
692.16	38101.58
692.30	38113.28
692.43	38204.56
692.57	38169.46
692.70	38040.73
692.84	37790.29
692.97	37727.10
693.11	38059.45
693.24	38260.74
693.38	37696.67
693.51	37373.67
693.65	37797.31
693.78	37378.36
693.92	37422.83
694.05	37251.97
694.19	36809.61
694.32	36332.14
694.45	36474.91
694.59	36086.38
694.72	36336.82
694.86	36212.77
694.99	35601.89
695.13	36046.59
695.26	35555.08
695.39	35220.38
695.53	35529.33
695.66	35842.96
695.80	35608.91
695.93	35611.25
696.07	34892.71
696.20	34974.63
696.33	34923.13
696.47	35070.59
696.60	34548.65
696.73	34150.76
696.87	33755.21
697.00	34045.43
697.14	33738.82
697.27	33827.76
697.40	33247.31
697.54	33118.58
697.67	32905.59
697.80	33134.96
697.94	33003.89
698.07	33064.75
698.21	32889.21
698.34	32987.51
698.47	32840.06
698.61	32215.13
698.74	32435.14
698.87	31948.31
699.01	31882.78
699.14	31615.96
699.27	31821.92
699.40	31206.36
699.54	31353.82
699.67	31072.95
699.80	30895.07
699.94	31051.89
700.07	30986.35
700.20	30445.69
700.34	30366.11
700.47	30078.22
700.60	30192.91
700.73	30185.89
700.87	30183.55
701.00	30078.22
701.13	29804.38
701.26	29497.77
701.40	30110.99
701.53	29818.42
701.66	29244.99
701.79	29214.57
701.93	28975.83
702.06	29076.48
702.19	28699.65
702.32	28828.38
702.46	28257.29
702.59	28063.02
702.72	27995.15
702.85	27910.89
702.99	28158.99
703.12	28332.18
703.25	28161.33
703.38	28194.09
703.51	27929.61
703.65	27964.72
703.78	27569.17
703.91	27723.65
704.04	27232.13
704.17	27381.93
704.31	27260.22
704.44	26874.03
704.57	27002.76
704.70	26707.85
704.83	26445.71
704.96	26150.81
705.10	26441.03
705.23	26272.51
>>>>>End Processed Spectral Data<<<<<
