SpectraSuite Data File
++++++++++++++++++++++++++++++++++++
Date: Tue Oct 01 18:27:29 GMT-05:00 2013
User: stostad
Dark Spectrum Present: No
Reference Spectrum Present: No
Number of Sampled Component Spectra: 1
Spectrometers: USB2+H05261
Integration Time (usec): 100000 (USB2+H05261)
Spectra Averaged: 1 (USB2+H05261)
Boxcar Smoothing: 0 (USB2+H05261)
Correct for Electrical Dark: No (USB2+H05261)
Strobe/Lamp Enabled: No (USB2+H05261)
Correct for Detector Non-linearity: No (USB2+H05261)
Correct for Stray Light: No (USB2+H05261)
Number of Pixels in Processed Spectrum: 2048
>>>>>Begin Processed Spectral Data<<<<<
365.73	28.09
365.92	28.09
366.12	28.09
366.32	2.34
366.52	14.04
366.72	32.77
366.91	0.00
367.11	0.00
367.31	0.00
367.51	37.45
367.70	21.06
367.90	0.00
368.10	0.00
368.30	0.00
368.49	18.72
368.69	2.34
368.89	18.72
369.09	60.85
369.28	53.83
369.48	0.00
369.68	11.70
369.87	49.15
370.07	0.00
370.27	77.24
370.47	53.83
370.66	304.27
370.86	304.27
371.06	383.85
371.25	386.19
371.45	318.31
371.65	409.59
371.84	348.74
372.04	318.31
372.24	482.15
372.44	409.59
372.63	383.85
372.83	353.42
373.03	428.32
373.22	388.53
373.42	442.36
373.62	386.19
373.81	486.83
374.01	498.53
374.21	428.32
374.40	479.81
374.60	423.64
374.79	465.77
374.99	425.98
375.19	472.79
375.38	519.60
375.58	496.19
375.78	428.32
375.97	486.83
376.17	489.17
376.37	561.73
376.56	468.11
376.76	554.71
376.95	376.83
377.15	554.71
377.35	496.19
377.54	528.96
377.74	489.17
377.93	468.11
378.13	543.00
378.33	589.82
378.52	500.87
378.72	503.22
378.91	528.96
379.11	510.24
379.31	554.71
379.50	517.26
379.70	547.69
379.89	528.96
380.09	587.47
380.28	500.87
380.48	510.24
380.68	484.49
380.87	526.62
381.07	594.50
381.26	596.84
381.46	596.84
381.65	538.32
381.85	636.63
382.04	557.05
382.24	627.26
382.43	634.29
382.63	566.41
382.83	610.88
383.02	557.05
383.22	580.45
383.41	571.09
383.61	711.52
383.80	685.78
384.00	662.37
384.19	613.22
384.39	657.69
384.58	622.58
384.78	594.50
384.97	685.78
385.17	692.80
385.36	681.10
385.56	695.14
385.75	610.88
385.95	730.25
386.14	739.61
386.34	606.20
386.53	671.73
386.72	741.95
386.92	704.50
387.11	627.26
387.31	697.48
387.50	723.23
387.70	718.54
387.89	657.69
388.09	664.71
388.28	727.91
388.48	734.93
388.67	718.54
388.86	739.61
389.06	805.14
389.25	816.85
389.45	798.12
389.64	779.40
389.84	791.10
390.03	826.21
390.22	849.61
390.42	767.70
390.61	823.87
390.81	840.25
391.00	812.17
391.19	903.45
391.39	805.14
391.58	828.55
391.78	835.57
391.97	798.12
392.16	793.44
392.36	898.77
392.55	856.64
392.75	898.77
392.94	800.46
393.13	915.15
393.33	964.30
393.52	877.70
393.71	987.71
393.91	938.55
394.10	929.19
394.29	898.77
394.49	922.17
394.68	997.07
394.88	968.98
395.07	961.96
395.26	968.98
395.46	1032.18
395.65	1062.60
395.84	968.98
396.04	1097.71
396.23	1048.56
396.42	926.85
396.62	1088.35
396.81	1081.33
397.00	1071.97
397.19	1064.94
397.39	1029.84
397.58	1193.67
397.77	1053.24
397.97	1055.58
398.16	1102.39
398.35	1151.54
398.55	1144.52
398.74	1156.22
398.93	1224.10
399.12	1100.05
399.32	1266.23
399.51	1221.76
399.70	1200.69
399.90	1205.38
400.09	1338.79
400.28	1336.45
400.47	1247.51
400.67	1345.81
400.86	1322.40
401.05	1303.68
401.24	1390.28
401.44	1373.89
401.63	1345.81
401.82	1313.04
402.01	1420.71
402.21	1432.41
402.40	1394.96
402.59	1308.36
402.78	1460.49
402.97	1401.98
403.17	1437.09
403.36	1570.50
403.55	1385.60
403.74	1460.49
403.93	1439.43
404.13	1519.01
404.32	1474.54
404.51	1488.58
404.70	1575.18
404.89	1610.29
405.09	1687.53
405.28	1720.29
405.47	1664.12
405.66	1636.03
405.85	1593.90
406.05	1603.27
406.24	1727.32
406.43	1675.82
406.62	1746.04
406.81	1781.15
407.00	1760.08
407.20	1849.02
407.39	1781.15
407.58	1743.70
407.77	1900.52
407.96	1895.83
408.15	1902.86
408.34	1860.73
408.54	1956.69
408.73	1928.60
408.92	1867.75
409.11	1933.28
409.30	1975.41
409.49	2026.90
409.68	1954.35
409.87	1949.67
410.07	2057.33
410.26	2153.29
410.45	1987.11
410.64	2085.42
410.83	2239.89
411.02	2139.25
411.21	2267.98
411.40	2303.09
411.59	2258.62
411.78	2291.38
411.98	2216.49
412.17	2403.73
412.36	2293.72
412.55	2410.75
412.74	2424.80
412.93	2282.02
413.12	2373.30
413.31	2539.48
413.50	2415.43
413.69	2499.69
413.88	2600.34
414.07	2480.97
414.26	2715.02
414.45	2544.16
414.64	2649.49
414.83	2743.11
415.02	2670.55
415.22	2663.53
415.41	2820.35
415.60	2839.07
415.79	2825.03
415.98	2799.28
416.17	3009.93
416.36	2928.01
416.55	2958.44
416.74	2820.35
416.93	3014.61
417.12	2986.52
417.31	3075.46
417.50	3005.25
417.69	3070.78
417.88	3089.51
418.07	3056.74
418.26	3122.27
418.45	3236.96
418.64	3199.51
418.83	3171.43
419.02	3126.96
419.21	3236.96
419.39	3272.07
419.58	3218.24
419.77	3274.41
419.96	3358.67
420.15	3412.50
420.34	3279.09
420.53	3400.80
420.72	3358.67
420.91	3531.87
421.10	3531.87
421.29	3475.70
421.48	3449.95
421.67	3555.27
421.86	3492.08
422.05	3478.04
422.24	3478.04
422.43	3557.61
422.61	3555.27
422.80	3581.02
422.99	3639.53
423.18	3564.64
423.37	3536.55
423.56	3719.11
423.75	3485.06
423.94	3606.77
424.13	3541.23
424.32	3599.74
424.50	3728.47
424.69	3700.39
424.88	3707.41
425.07	3574.00
425.26	3655.92
425.45	3674.64
425.64	3569.32
425.83	3726.13
426.01	3850.18
426.20	3637.19
426.39	3719.11
426.58	3744.86
426.77	3676.98
426.96	3838.48
427.15	3815.07
427.33	3896.99
427.52	3822.09
427.71	3882.95
427.90	3932.10
428.09	3936.78
428.28	3967.21
428.46	3896.99
428.65	3976.57
428.84	3946.14
429.03	4098.28
429.22	3911.04
429.40	4147.43
429.59	4018.70
429.78	3824.44
429.97	3852.52
430.16	4077.21
430.34	4117.00
430.53	4100.62
430.72	4252.75
430.91	4128.70
431.10	4004.66
431.28	4187.22
431.47	4142.75
431.66	4381.48
431.85	4170.83
432.03	4360.42
432.22	4468.08
432.41	4409.57
432.60	4456.38
432.79	4341.69
432.97	4454.04
433.16	4407.23
433.35	4535.96
433.54	4456.38
433.72	4442.34
433.91	4454.04
434.10	4601.49
434.28	4468.08
434.47	4418.93
434.66	4746.61
434.85	4629.58
435.03	4751.29
435.22	4741.93
435.41	4884.70
435.59	4622.56
435.78	4744.27
435.97	4821.50
436.16	4842.57
436.34	4919.81
436.53	4947.89
436.72	4887.04
436.90	4830.87
437.09	4898.74
437.28	4844.91
437.46	4943.21
437.65	4933.85
437.84	4936.19
438.02	5006.41
438.21	5093.01
438.40	4994.70
438.58	5207.69
438.77	5228.76
438.96	5076.62
439.14	5296.63
439.33	5348.12
439.52	5432.38
439.70	5425.36
439.89	5577.50
440.08	5479.19
440.26	5554.09
440.45	5650.05
440.63	5661.76
440.82	5584.52
441.01	5556.43
441.19	5710.91
441.38	5802.19
441.57	5715.59
441.75	5823.25
441.94	5966.03
442.12	5989.43
442.31	5893.47
442.50	5949.64
442.68	5832.62
442.87	5989.43
443.05	5954.32
443.24	5966.03
443.43	6164.97
443.61	6232.85
443.80	6399.02
443.98	5966.03
444.17	5844.32
444.35	6099.44
444.54	6148.59
444.73	6111.14
444.91	6267.95
445.10	6246.89
445.28	6218.80
445.47	6382.64
445.65	6195.40
445.84	6300.72
446.02	6267.95
446.21	6258.59
446.39	6265.61
446.58	6319.45
446.77	6399.02
446.95	6150.93
447.14	6274.98
447.32	6541.80
447.51	6361.58
447.69	6291.36
447.88	6345.19
448.06	6408.39
448.25	6349.87
448.43	6356.90
448.62	6532.44
448.80	6445.84
448.99	6539.46
449.17	6670.53
449.36	6450.52
449.54	6665.85
449.73	6782.87
449.91	6707.98
450.10	6715.00
450.28	6696.27
450.46	6729.04
450.65	6693.93
450.83	6628.40
451.02	6820.32
451.20	6801.60
451.39	6932.67
451.57	6836.70
451.76	6869.47
451.94	6693.93
452.13	6972.46
452.31	7117.57
452.49	6796.92
452.68	6953.73
452.86	6965.43
453.05	6904.58
453.23	7014.59
453.42	6906.92
453.60	6993.52
453.78	7115.23
453.97	6897.56
454.15	7096.50
454.34	6937.35
454.52	7258.00
454.70	7393.75
454.89	7265.02
455.07	7396.09
455.26	7199.49
455.44	7297.79
455.62	7571.63
455.81	7321.20
455.99	7463.97
456.17	7492.05
456.36	7393.75
456.54	7578.65
456.73	7658.23
456.91	7955.48
457.09	7707.38
457.28	7971.86
457.46	7728.45
457.64	8004.63
457.83	7906.33
458.01	7730.79
458.19	7796.32
458.38	7822.07
458.56	8025.70
458.74	7946.12
458.93	7896.97
459.11	8077.19
459.29	8006.97
459.48	8180.17
459.66	8138.04
459.84	8236.35
460.03	8528.91
460.21	8056.12
460.39	8280.82
460.57	8276.13
460.76	8173.15
460.94	8285.50
461.12	8287.84
461.31	8297.20
461.49	8229.32
461.67	8252.73
461.85	8655.30
462.04	8542.96
462.22	8968.93
462.40	8755.94
462.59	8498.49
462.77	8727.86
462.95	8746.58
463.13	8655.30
463.32	8767.65
463.50	8805.10
463.68	8865.95
463.86	8631.90
464.05	8805.10
464.23	8821.48
464.41	8744.24
464.59	8753.60
464.78	9128.09
464.96	9055.53
465.14	9067.24
465.32	9048.51
465.50	8975.95
465.69	9252.14
465.87	9142.13
466.05	9102.34
466.23	9104.68
466.41	9200.65
466.60	9348.10
466.78	9151.49
466.96	9020.42
467.14	9195.96
467.32	9090.64
467.51	9305.97
467.69	9132.77
467.87	9088.30
468.05	9376.19
468.23	9139.79
468.41	9266.18
468.60	9465.13
468.78	9406.61
468.96	9369.16
469.14	9614.92
469.32	9570.45
469.50	9259.16
469.69	9483.85
469.87	9607.90
470.05	9879.40
470.23	9537.68
470.41	9767.06
470.59	9921.53
470.77	10106.43
470.95	10244.52
471.14	9984.73
471.32	9884.08
471.50	10272.61
471.68	10216.44
471.86	10129.84
472.04	10214.10
472.22	10516.03
472.40	10223.46
472.58	10434.11
472.77	10403.68
472.95	10593.26
473.13	10890.51
473.31	10553.48
473.49	10450.49
473.67	10501.98
473.85	10626.03
474.03	10888.17
474.21	10738.38
474.39	11026.26
474.57	10958.39
474.75	11243.93
474.93	11117.54
475.12	11129.25
475.30	11267.34
475.48	11377.34
475.66	11389.05
475.84	11410.11
476.02	11616.08
476.20	11517.78
476.38	11707.36
476.56	11749.49
476.74	11840.77
476.92	12042.06
477.10	12086.53
477.28	11981.20
477.46	12077.16
477.64	12201.21
477.82	12374.41
478.00	12791.03
478.18	12606.13
478.36	12725.49
478.54	12772.30
478.72	12737.20
478.90	13074.23
479.08	13151.47
479.26	13123.38
479.44	13446.38
479.62	13207.64
479.80	13472.12
479.98	13516.59
480.16	13818.52
480.34	13767.03
480.52	13942.57
480.70	14019.81
480.88	13900.44
481.06	13963.64
481.24	14031.51
481.41	14359.19
481.59	14420.04
481.77	14714.95
481.95	14567.49
482.13	14597.92
482.31	15019.22
482.49	15190.08
482.67	15433.49
482.85	15576.27
483.03	15454.56
483.21	15655.84
483.39	15508.39
483.57	15585.63
483.74	15941.39
483.92	16109.91
484.10	15826.70
484.28	16259.70
484.46	16388.43
484.64	16505.46
484.82	16666.95
485.00	16896.33
485.18	16842.50
485.35	17130.38
485.53	17387.84
485.71	17167.83
485.89	17460.40
486.07	17371.46
486.25	17635.94
486.43	17781.05
486.61	18148.51
486.78	18136.81
486.96	18097.02
487.14	18317.03
487.32	18314.69
487.50	18682.16
487.68	18764.07
487.85	19112.81
488.03	19337.51
488.21	19227.50
488.39	19290.70
488.57	19756.46
488.75	19754.12
488.92	20215.21
489.10	20294.79
489.28	19962.43
489.46	20065.41
489.64	20266.70
489.81	20575.65
489.99	20968.86
490.17	20816.72
490.35	21238.02
490.53	21254.40
490.70	21057.80
490.88	21060.14
491.06	21511.86
491.24	21537.61
491.41	21603.14
491.59	21935.50
491.77	21860.60
491.95	22232.75
492.13	22698.52
492.30	22438.72
492.48	22471.48
492.66	22670.43
492.84	22735.96
493.01	22984.06
493.19	23049.60
493.37	23021.51
493.54	23367.91
493.72	23653.45
493.90	23740.05
494.08	23807.93
494.25	24271.36
494.43	24215.18
494.61	24336.89
494.79	24215.18
494.96	24402.43
495.14	24519.45
495.32	24758.19
495.49	24989.90
495.67	25165.44
495.85	24870.53
496.02	25436.94
496.20	25717.81
496.38	25432.26
496.55	25469.71
496.73	25806.75
496.91	26139.10
497.09	26408.26
497.26	25965.90
497.44	25869.94
497.62	26356.77
497.79	26731.26
497.97	26927.86
498.14	26948.93
498.32	27154.90
498.50	26932.54
498.67	27225.11
498.85	27030.85
499.03	27716.62
499.20	27503.64
499.38	27733.01
499.56	27917.91
499.73	28053.66
499.91	28067.70
500.08	28353.25
500.26	27817.27
500.44	28397.72
500.61	28783.91
500.79	28353.25
500.97	28734.76
501.14	28989.88
501.32	29158.39
501.49	28968.81
501.67	29446.28
501.84	29287.12
502.02	29486.07
502.20	29961.20
502.37	29734.17
502.55	29628.84
502.72	29483.73
502.90	30118.01
503.07	29696.72
503.25	30045.46
503.43	30178.87
503.60	30052.48
503.78	29940.13
503.95	29970.56
504.13	30389.52
504.30	30504.20
504.48	30932.52
504.65	30719.53
504.83	31276.58
505.01	31145.51
505.18	31222.75
505.36	31438.08
505.53	31124.44
505.71	31747.03
505.88	31508.29
506.06	31721.28
506.23	31721.28
506.41	31615.96
506.58	31861.71
506.76	31625.32
506.93	32418.76
507.11	31866.39
507.28	32463.23
507.46	32458.55
507.63	32287.69
507.81	32369.61
507.98	32421.10
508.16	32547.49
508.33	32753.46
508.50	32851.76
508.68	33134.96
508.85	33837.12
509.03	33261.35
509.20	33600.73
509.38	33336.25
509.55	33181.77
509.73	33956.49
509.90	34024.37
510.08	33745.84
510.25	33694.35
510.42	33827.76
510.60	34272.46
510.77	34284.17
510.95	34253.74
511.12	33947.13
511.30	34405.88
511.47	34677.38
511.64	34717.17
511.82	35150.17
511.99	34300.55
512.17	35007.39
512.34	35185.27
512.51	35337.41
512.69	35585.50
512.86	35143.14
513.04	35786.79
513.21	35744.66
513.38	35639.34
513.56	35772.75
513.73	35356.13
513.90	35517.63
514.08	36364.90
514.25	36292.35
514.43	36282.98
514.60	36315.75
514.77	36137.87
514.95	36706.62
515.12	36659.81
515.29	36318.09
515.47	36624.70
515.64	37420.48
515.81	37099.83
515.99	36739.39
516.16	37074.09
516.33	37240.26
516.51	37528.15
516.68	37453.25
516.85	37881.57
517.03	37586.66
517.20	37722.41
517.37	37827.74
517.54	37827.74
517.72	37560.92
517.89	37907.32
518.06	38071.15
518.24	37972.85
518.41	38110.94
518.58	38234.99
518.75	38054.77
518.93	38096.90
519.10	38234.99
519.27	38714.80
519.45	38880.98
519.62	38639.90
519.79	38534.58
519.96	38672.67
520.14	39164.18
520.31	38857.57
520.48	38953.54
520.65	39093.97
520.83	39480.16
521.00	39196.95
521.17	39175.89
521.34	39370.15
521.52	39791.45
521.69	39379.51
521.86	39763.36
522.03	39798.47
522.20	40404.67
522.38	40002.10
522.55	40414.03
522.72	40009.12
522.89	40196.36
523.07	40926.61
523.24	40254.87
523.41	40814.26
523.58	40273.60
523.75	41062.36
523.92	40844.69
524.10	40840.01
524.27	40940.65
524.44	41099.81
524.61	41457.91
524.78	40907.88
524.96	40811.92
525.13	40935.97
525.30	41258.96
525.47	42007.94
525.64	41565.57
525.81	41954.10
525.98	41879.21
526.16	41490.68
526.33	41216.83
526.50	42110.92
526.67	41481.31
526.84	42230.29
527.01	41940.06
527.18	42071.13
527.36	42204.54
527.53	42202.20
527.70	42887.98
527.87	41998.57
528.04	42340.29
528.21	42532.22
528.38	42576.69
528.55	43042.45
528.72	42927.77
528.89	42988.62
529.07	42258.37
529.24	42763.93
529.41	42967.55
529.58	42693.71
529.75	42852.87
529.92	43330.34
530.09	42925.42
530.26	43124.37
530.43	43536.30
530.60	43028.41
530.77	43330.34
530.94	43419.28
531.11	43758.66
531.28	43229.69
531.46	43826.53
531.63	43838.23
531.80	44198.68
531.97	43721.21
532.14	44055.90
532.31	43739.93
532.48	43761.00
532.65	43892.07
532.82	44114.42
532.99	44626.99
533.16	44458.48
533.33	44608.27
533.50	44521.67
533.67	44533.37
533.84	43931.86
534.01	44399.96
534.18	44266.55
534.35	45331.50
534.52	44725.30
534.69	45015.52
534.86	45179.36
535.03	44591.89
535.20	44898.50
535.37	44835.30
535.54	45195.74
535.71	44975.73
535.88	45631.08
536.05	45254.26
536.22	45705.98
536.38	45488.31
536.55	45336.18
536.72	45427.46
536.89	45132.55
537.06	45682.58
537.23	45591.30
537.40	45516.40
537.57	46068.76
537.74	45991.53
537.91	45663.85
538.08	46110.89
538.25	46300.48
538.42	46153.02
538.59	46368.35
538.75	45696.62
538.92	46384.74
539.09	46054.72
539.26	46656.24
539.43	46075.79
539.60	46499.42
539.77	46052.38
539.94	46569.64
540.11	46609.43
540.28	46646.88
540.44	46253.67
540.61	46780.29
540.78	46738.16
540.95	46630.49
541.12	46747.52
541.29	46838.80
541.46	46698.37
541.62	47107.96
541.79	47208.61
541.96	46590.70
542.13	46808.37
542.30	47264.78
542.47	47342.02
542.63	46937.10
542.80	47306.91
542.97	47501.17
543.14	47468.40
543.31	47213.29
543.48	47959.92
543.64	48025.45
543.81	47922.47
543.98	47672.03
544.15	47800.76
544.32	47906.08
544.48	48264.19
544.65	47821.83
544.82	47627.56
544.99	47786.72
545.16	48137.80
545.32	48264.19
545.49	48633.99
545.66	48528.67
545.83	48222.06
546.00	48341.42
546.16	48299.30
546.33	48303.98
546.50	48203.33
546.67	48938.26
546.83	47990.34
547.00	48341.42
547.17	48238.44
547.34	48460.79
547.50	48643.35
547.67	48744.00
547.84	48418.66
548.00	49099.76
548.17	49155.93
548.34	48917.20
548.51	49249.55
548.67	49076.35
548.84	48868.05
549.01	48781.45
549.18	48933.58
549.34	48615.27
549.51	49130.19
549.68	49020.18
549.84	49181.68
550.01	49326.79
550.18	49085.72
550.34	49233.17
550.51	49326.79
550.68	49219.13
550.84	48793.15
551.01	49113.80
551.18	49427.43
551.34	49291.68
551.51	49752.77
551.68	49385.30
551.84	49710.64
552.01	49392.33
552.18	49705.96
552.34	49338.49
552.51	49897.88
552.68	49865.11
552.84	49701.28
553.01	50162.36
553.18	49792.56
553.34	50005.55
553.51	49769.15
553.67	49715.32
553.84	50026.61
554.01	50141.30
554.17	50108.53
554.34	50171.72
554.51	50356.63
554.67	50548.55
554.84	50288.75
555.00	50106.19
555.17	50040.65
555.33	50145.98
555.50	50248.96
555.67	50330.88
555.83	49991.50
556.00	50199.81
556.16	50761.54
556.33	50478.33
556.50	50375.35
556.66	50710.05
556.83	50424.50
556.99	50597.70
557.16	50590.68
557.32	50691.32
557.49	50665.58
557.65	50913.67
557.82	50483.01
557.98	50684.30
558.15	50913.67
558.32	51035.38
558.48	50869.20
558.65	50932.40
558.81	50405.78
558.98	50815.37
559.14	50674.94
559.31	50515.78
559.47	51091.55
559.64	50719.41
559.80	50885.59
559.97	50988.57
560.13	51014.32
560.30	51016.66
560.46	50590.68
560.63	51100.92
560.79	51339.65
560.96	51309.22
561.12	51227.31
561.29	51540.94
561.45	51175.81
561.61	51267.09
561.78	50955.80
561.94	51084.53
562.11	51161.77
562.27	51234.33
562.44	51150.07
562.60	51208.58
562.77	51334.97
562.93	51288.16
563.10	51798.40
563.26	51622.86
563.42	51522.21
563.59	50897.29
563.75	51515.19
563.92	51482.42
564.08	51250.71
564.24	51444.98
564.41	51194.54
564.57	51489.45
564.74	51423.91
564.90	51290.50
565.07	51538.60
565.23	51426.25
565.39	51531.57
565.56	51585.41
565.72	51168.79
565.88	51503.49
566.05	51421.57
566.21	51461.36
566.38	51409.87
566.54	51618.17
566.70	51716.48
566.87	51679.03
567.03	51456.68
567.19	51297.52
567.36	51601.79
567.52	51468.38
567.68	51896.70
567.85	51356.03
568.01	51856.91
568.17	51613.49
568.34	51716.48
568.50	51653.28
568.66	51566.68
568.83	51753.93
568.99	51573.70
569.15	51779.67
569.32	51526.89
569.48	51695.41
569.64	51948.19
569.81	52097.98
569.97	51793.71
570.13	52011.38
570.30	51786.69
570.46	51971.60
570.62	51459.02
570.78	51770.31
570.95	51819.46
571.11	51744.56
571.27	51941.17
571.43	52301.61
571.60	52577.79
571.76	51812.44
571.92	51894.36
572.09	52093.30
572.25	51885.00
572.41	51980.96
572.57	51718.82
572.74	52179.90
572.90	52245.44
573.06	52374.17
573.22	52093.30
573.38	52348.42
573.55	52224.37
573.71	52268.84
573.87	51849.89
574.03	51620.52
574.20	52055.85
574.36	51873.29
574.52	51868.61
574.68	52362.46
574.84	52147.14
575.01	52341.40
575.17	52250.12
575.33	52006.70
575.49	52018.41
575.65	52037.13
575.82	52137.77
575.98	51875.63
576.14	51840.53
576.30	52446.72
576.46	52273.52
576.62	52392.89
576.79	52640.99
576.95	52229.05
577.11	51985.64
577.27	52032.45
577.43	52069.90
577.59	52243.10
577.75	52009.04
577.92	52095.64
578.08	51971.60
578.24	52299.27
578.40	52474.81
578.56	52498.22
578.72	52051.17
578.88	52395.23
579.04	52128.41
579.21	51845.21
579.37	51943.51
579.53	52205.65
579.69	52161.18
579.85	52310.97
580.01	52411.62
580.17	52250.12
580.33	52486.51
580.49	52371.83
580.65	52144.80
580.82	52273.52
580.98	52060.54
581.14	52292.25
581.30	52334.38
581.46	52233.74
581.62	52322.68
581.78	52353.10
581.94	52528.64
582.10	52088.62
582.26	52076.92
582.42	52238.42
582.58	52528.64
582.74	52039.47
582.90	52245.44
583.06	52325.02
583.22	52332.04
583.38	52910.15
583.54	52308.63
583.70	52692.48
583.86	52643.33
584.02	52292.25
584.18	52519.28
584.34	52362.46
584.50	52397.57
584.66	52554.39
584.82	52325.02
584.98	52521.62
585.14	52512.26
585.30	52505.24
585.46	52746.31
585.62	52266.50
585.78	52750.99
585.94	52470.13
586.10	52409.28
586.26	52041.81
586.42	52308.63
586.58	52231.40
586.74	52463.11
586.90	52540.35
587.06	52320.34
587.22	52935.90
587.38	52383.53
587.54	52591.84
587.70	52765.04
587.86	52655.03
588.02	52278.21
588.18	52542.69
588.34	52760.36
588.49	52772.06
588.65	52493.54
588.81	52701.84
588.97	53188.67
589.13	52734.61
589.29	52788.44
589.45	53024.84
589.61	52690.14
589.77	52961.64
589.93	52528.64
590.08	52940.58
590.24	52821.21
590.40	52903.13
590.56	52982.71
590.72	53097.39
590.88	52594.18
591.04	52725.25
591.20	53165.27
591.35	52921.85
591.51	53172.29
591.67	52830.57
591.83	52839.93
591.99	52743.97
592.15	52959.30
592.31	53062.29
592.46	52832.91
592.62	52947.60
592.78	53228.46
592.94	52931.22
593.10	52961.64
593.26	52985.05
593.41	52750.99
593.57	52910.15
593.73	52797.80
593.89	53275.27
594.05	52966.32
594.20	53102.07
594.36	53233.14
594.52	53006.11
594.68	53209.74
594.84	53085.69
594.99	52896.11
595.15	53191.01
595.31	53153.57
595.47	53066.97
595.62	52739.29
595.78	53029.52
595.94	53020.16
596.10	53013.13
596.25	52968.66
596.41	53364.21
596.57	52846.96
596.73	53354.85
596.88	52989.73
597.04	52978.03
597.20	52917.17
597.36	53130.16
597.51	53132.50
597.67	53003.77
597.83	53017.82
597.99	53237.83
598.14	53158.25
598.30	53134.84
598.46	53523.37
598.61	53312.72
598.77	52809.51
598.93	53371.24
599.09	53123.14
599.24	53315.06
599.40	52980.37
599.56	52996.75
599.71	53272.93
599.87	53228.46
600.03	53408.68
600.18	53301.02
600.34	53413.37
600.50	53368.90
600.65	53233.14
600.81	53455.50
600.97	53261.23
601.12	53343.15
601.28	53183.99
601.44	53109.10
601.59	53298.68
601.75	53001.43
601.91	53511.67
602.06	53563.16
602.22	53279.96
602.37	53289.32
602.53	53024.84
602.69	53418.05
602.84	52912.49
603.00	53092.71
603.16	53172.29
603.31	53139.52
603.47	53345.49
603.62	53312.72
603.78	53275.27
603.94	53043.56
604.09	53439.11
604.25	53542.10
604.40	52961.64
604.56	53057.60
604.71	53359.53
604.87	53242.51
605.03	52973.34
605.18	53034.20
605.34	52779.08
605.49	53198.04
605.65	53284.64
605.80	53176.97
605.96	53160.59
606.12	53389.96
606.27	53514.01
606.43	52933.56
606.58	53296.34
606.74	53137.18
606.89	52594.18
607.05	53003.77
607.20	52954.62
607.36	53223.78
607.51	53556.14
607.67	52910.15
607.82	53057.60
607.98	53106.76
608.13	53008.45
608.29	52947.60
608.44	52884.40
608.60	52811.85
608.75	52910.15
608.91	52736.95
609.06	52519.28
609.22	52861.00
609.37	52725.25
609.53	52776.74
609.68	52898.45
609.84	52818.87
609.99	52800.15
610.15	53104.41
610.30	53385.28
610.46	52594.18
610.61	52332.04
610.76	52575.45
610.92	52404.59
611.07	52371.83
611.23	52507.58
611.38	52725.25
611.54	52903.13
611.69	52856.32
611.84	52865.68
612.00	52989.73
612.15	52608.22
612.31	52912.49
612.46	52659.71
612.62	52603.54
612.77	52545.03
612.92	52781.42
613.08	52659.71
613.23	52545.03
613.39	52437.36
613.54	52451.41
613.69	52774.40
613.85	52671.42
614.00	52720.57
614.15	52793.12
614.31	52472.47
614.46	52687.80
614.62	52009.04
614.77	52552.05
614.92	52582.48
615.08	52582.48
615.23	52549.71
615.38	52704.18
615.54	52514.60
615.69	52491.19
615.84	52093.30
616.00	52741.63
616.15	52313.31
616.30	52655.03
616.46	52327.36
616.61	52126.07
616.76	52128.41
616.92	51936.49
617.07	52292.25
617.22	51929.47
617.37	52097.98
617.53	52652.69
617.68	52346.08
617.83	52163.52
617.99	52264.16
618.14	52451.41
618.29	52533.32
618.45	52154.16
618.60	52250.12
618.75	51948.19
618.90	51866.27
619.06	52097.98
619.21	51840.53
619.36	52179.90
619.51	51863.93
619.67	51840.53
619.82	51995.00
619.97	52016.07
620.12	51751.59
620.28	51789.03
620.43	51819.46
620.58	51936.49
620.73	51608.81
620.89	51950.53
621.04	51679.03
621.19	52009.04
621.34	52034.79
621.49	52137.77
621.65	51887.34
621.80	52350.76
621.95	52135.43
622.10	51746.90
622.25	51707.12
622.41	51873.29
622.56	51735.20
622.71	51826.48
622.86	51817.12
623.01	51529.23
623.16	51833.50
623.32	51559.66
623.47	51470.72
623.62	51255.39
623.77	51674.35
623.92	51672.01
624.07	51606.47
624.23	51756.27
624.38	51306.88
624.53	51065.81
624.68	51299.86
624.83	51356.03
624.98	51473.06
625.13	50997.93
625.29	51241.35
625.44	51672.01
625.59	51313.90
625.74	51154.75
625.89	51386.46
626.04	51433.27
626.19	51140.71
626.34	51414.55
626.49	51100.92
626.65	51304.54
626.80	51166.45
626.95	51077.51
627.10	50731.11
627.25	50843.46
627.40	50946.44
627.55	50796.65
627.70	51143.05
627.85	51316.25
628.00	51180.49
628.15	51023.68
628.30	51150.07
628.45	50871.54
628.60	50326.20
628.76	50791.97
628.91	50955.80
629.06	50548.55
629.21	50766.22
629.36	50813.03
629.51	50946.44
629.66	50944.10
629.81	50394.07
629.96	50532.17
630.11	50901.97
630.26	50581.32
630.41	50546.21
630.56	50314.50
630.71	50480.67
630.86	50803.67
631.01	50553.23
631.16	49993.84
631.31	50333.22
631.46	50033.63
631.61	50309.82
631.76	50211.51
631.91	50511.10
632.06	50199.81
632.21	50211.51
632.36	50768.56
632.51	49972.78
632.66	50211.51
632.81	49904.90
632.96	50300.45
633.10	49808.94
633.25	50082.78
633.40	49965.76
633.55	50270.03
633.70	49869.79
633.85	49925.97
634.00	50061.72
634.15	50471.31
634.30	50277.05
634.45	50288.75
634.60	50274.71
634.75	50522.80
634.90	49944.69
635.05	50232.58
635.19	49879.16
635.34	49979.80
635.49	50010.23
635.64	49703.62
635.79	49921.29
635.94	49897.88
636.09	49916.61
636.24	49696.59
636.39	49727.02
636.53	49989.16
636.68	49844.05
636.83	50040.65
636.98	49954.05
637.13	49874.48
637.28	49883.84
637.43	49668.51
637.57	49876.82
637.72	49343.17
637.87	49918.95
638.02	49794.90
638.17	49904.90
638.32	49680.21
638.46	49528.08
638.61	49680.21
638.76	49392.33
638.91	49425.09
639.06	49425.09
639.20	49523.40
639.35	49172.31
639.50	49226.15
639.65	48982.73
639.80	49570.21
639.94	49139.55
640.09	49064.65
640.24	49514.03
640.39	49155.93
640.54	48846.98
640.68	49518.71
640.83	49003.80
640.98	48940.60
641.13	48617.61
641.27	49284.66
641.42	48692.50
641.57	48872.73
641.72	48935.92
641.86	48636.33
642.01	48369.51
642.16	48685.48
642.31	48556.75
642.45	48568.46
642.60	48893.79
642.75	48531.01
642.90	48488.88
643.04	48652.72
643.19	48669.10
643.34	48587.18
643.48	48189.29
643.63	48617.61
643.78	48655.06
643.93	49008.48
644.07	48683.14
644.22	48392.92
644.37	48388.24
644.51	48348.45
644.66	48378.87
644.81	48697.19
644.95	48755.70
645.10	48285.25
645.25	48376.53
645.39	48177.59
645.54	48498.24
645.69	48236.10
645.83	48409.30
645.98	48271.21
646.13	47863.96
646.27	47756.29
646.42	48278.23
646.57	48088.65
646.71	48268.87
646.86	48418.66
647.00	48587.18
647.15	48055.88
647.30	48465.47
647.44	48580.16
647.59	48109.71
647.74	48147.16
647.88	48430.36
648.03	48198.65
648.17	47793.74
648.32	47840.55
648.47	47819.49
648.61	47854.59
648.76	48041.84
648.90	47980.98
649.05	47812.46
649.20	48034.81
649.34	48404.62
649.49	48018.43
649.63	47955.24
649.78	48147.16
649.92	47833.53
650.07	48076.94
650.21	47447.34
650.36	47709.48
650.51	47402.87
650.65	47655.65
650.80	47360.74
650.94	47430.96
651.09	47365.42
651.23	47201.58
651.38	47690.76
651.52	47318.61
651.67	47419.25
651.81	47863.96
651.96	47480.11
652.10	47320.95
652.25	47377.12
652.39	47428.62
652.54	47012.00
652.68	47463.72
652.83	47140.73
652.97	47442.66
653.12	46930.08
653.26	47023.70
653.41	47182.86
653.55	47487.13
653.70	47323.29
653.84	47452.02
653.99	47276.48
654.13	47075.19
654.27	46979.23
654.42	46937.10
654.56	46930.08
654.71	46803.69
654.85	46976.89
655.00	46637.51
655.14	46447.93
655.29	46864.55
655.43	47084.56
655.57	46328.56
655.72	47208.61
655.86	46986.25
656.01	46810.71
656.15	46609.43
656.30	46625.81
656.44	46628.15
656.58	46337.93
656.73	46134.30
656.87	46323.88
657.01	46220.90
657.16	46131.96
657.30	46368.35
657.45	46094.51
657.59	46382.40
657.73	46197.49
657.88	46150.68
658.02	46370.69
658.16	46443.25
658.31	46213.88
658.45	46611.77
658.60	46298.14
658.74	46270.05
658.88	45839.39
659.03	45675.55
659.17	45689.60
659.31	45918.97
659.46	45380.65
659.60	45326.81
659.74	45500.01
659.89	45645.13
660.03	45291.71
660.17	45670.87
660.32	45474.27
660.46	45375.97
660.60	45495.33
660.74	45600.66
660.89	45357.24
661.03	45390.01
661.17	45724.71
661.32	44987.44
661.46	44804.88
661.60	44849.35
661.74	45406.39
661.89	44987.44
662.03	44985.10
662.17	44708.91
662.31	44524.01
662.46	45432.14
662.60	45205.11
662.74	44615.29
662.88	44912.54
663.03	45181.70
663.17	44889.13
663.31	45029.57
663.45	45160.64
663.60	44395.28
663.74	44065.27
663.88	43728.23
664.02	44027.82
664.17	44046.54
664.31	43924.83
664.45	44451.45
664.59	43913.13
664.73	44526.35
664.88	44519.33
665.02	43763.34
665.16	44170.59
665.30	43959.94
665.44	44095.69
665.59	44114.42
665.73	43466.09
665.87	43498.86
666.01	43793.76
666.15	43461.41
666.29	43789.08
666.44	43428.64
666.58	43316.29
666.72	43089.26
666.86	43084.58
667.00	42997.98
667.14	43395.87
667.28	42864.57
667.43	42909.04
667.57	43255.44
667.71	43185.22
667.85	43215.65
667.99	43145.44
668.13	42941.81
668.27	42632.86
668.41	43100.97
668.56	42930.11
668.70	42719.46
668.84	42078.15
668.98	42270.08
669.12	42459.66
669.26	42068.79
669.40	42351.99
669.54	42230.29
669.68	42377.74
669.82	41982.19
669.96	42033.68
670.10	41818.35
670.25	42429.23
670.39	42127.30
670.53	41911.97
670.67	42017.30
670.81	42005.59
670.95	41596.00
671.09	40987.46
671.23	40875.12
671.37	40978.10
671.51	41205.13
671.65	41544.51
671.79	41013.21
671.93	41207.47
672.07	41420.46
672.21	40933.63
672.35	41511.74
672.49	40631.70
672.63	41071.72
672.77	40917.25
672.91	40507.65
673.05	40268.92
673.19	41038.95
673.33	40495.95
673.47	40341.47
673.61	40481.91
673.75	40486.59
673.89	40238.49
674.03	39880.39
674.17	39711.87
674.31	40425.73
674.45	39517.60
674.59	39714.21
674.73	39910.82
674.87	39962.31
675.01	39772.72
675.15	39796.13
675.29	39613.57
675.43	39533.99
675.56	39342.06
675.70	39208.65
675.84	39129.08
675.98	37759.86
676.12	38663.31
676.26	39213.34
676.40	38880.98
676.54	38806.08
676.68	38649.27
676.82	37574.96
676.96	38490.11
677.10	38796.72
677.23	38066.47
677.37	38234.99
677.51	38436.28
677.65	38288.82
677.79	37481.34
677.93	37668.58
678.07	37413.46
678.21	36629.38
678.34	37354.95
678.48	36432.78
678.62	36858.76
678.76	36507.68
678.90	36875.14
679.04	36435.12
679.18	36769.82
679.31	36451.50
679.45	36449.16
679.59	36381.29
679.73	36552.15
679.87	36430.44
680.00	36306.39
680.14	36554.49
680.28	36039.57
680.42	35906.16
680.56	35620.61
680.70	35225.06
680.83	35084.63
680.97	35124.42
681.11	35395.92
681.25	34958.24
681.39	34780.36
681.52	35264.85
681.66	35505.93
681.80	34520.56
681.94	34864.62
682.07	34836.53
682.21	34618.86
682.35	34132.03
682.49	34417.58
682.62	34415.24
682.76	34174.16
682.90	34284.17
683.04	33975.22
683.17	33682.65
683.31	33460.30
683.45	33855.85
683.59	33551.58
683.72	32886.87
683.86	33167.73
684.00	32797.93
684.13	32996.87
684.27	33640.52
684.41	33350.29
684.55	32985.17
684.68	33020.28
684.82	33015.60
684.96	32889.21
685.09	32793.25
685.23	32390.67
685.37	32088.74
685.50	32425.78
685.64	31957.67
685.78	31868.73
685.91	31576.17
686.05	31175.94
686.19	31332.75
686.32	31735.32
686.46	31370.20
686.60	31108.06
686.73	31281.26
686.87	31075.29
687.01	31606.59
687.14	31452.12
687.28	30792.09
687.42	31463.82
687.55	30820.17
687.69	31180.62
687.82	30651.66
687.96	30389.52
688.10	30108.65
688.23	30139.08
688.37	30127.38
688.50	29865.24
688.64	29858.21
688.78	30075.88
688.91	29607.78
689.05	29661.61
689.18	29589.05
689.32	29390.11
689.46	29223.93
689.59	29752.89
689.73	29340.96
689.86	28994.56
690.00	28837.74
690.13	29481.39
690.27	28811.99
690.41	28973.49
690.54	28240.90
690.68	28432.83
690.81	28622.41
690.95	28126.22
691.08	28266.65
691.22	27997.49
691.35	28137.92
691.49	27716.62
691.62	27583.21
691.76	27604.28
691.89	27627.68
692.03	27428.74
692.16	27166.60
692.30	27910.89
692.43	27658.11
692.57	27419.38
692.70	27501.29
692.84	26913.82
692.97	26703.17
693.11	26501.89
693.24	26515.93
693.38	26469.12
693.51	25909.73
693.65	26309.96
693.78	25874.62
693.92	26295.92
694.05	26064.21
694.19	25954.20
694.32	25689.72
694.45	25818.45
694.59	25488.43
694.72	25317.57
694.86	25898.03
694.99	25277.79
695.13	25223.95
695.26	25226.29
695.39	25216.93
695.53	25179.48
695.66	24999.26
695.80	24554.56
695.93	24306.46
696.07	24360.30
696.20	24173.05
696.33	24126.24
696.47	24114.54
696.60	24210.50
696.73	23779.84
696.87	23875.80
697.00	24084.11
697.14	23941.34
697.27	23922.62
697.40	23707.29
697.54	23779.84
697.67	23583.24
697.80	23477.91
697.94	23220.45
698.07	22848.31
698.21	22764.05
698.34	22860.01
698.47	22789.80
698.61	22312.33
698.74	22473.82
698.87	22389.56
699.01	22164.87
699.14	22075.93
699.27	22637.66
699.40	21996.35
699.54	21968.27
699.67	22115.72
699.80	21900.39
699.94	21771.66
700.07	21921.46
700.20	21649.96
700.34	21647.61
700.47	21535.27
700.60	21596.12
700.73	21338.66
700.87	21212.28
701.00	21081.21
701.13	21032.05
701.26	20861.19
701.40	20856.51
701.53	20589.69
701.66	20580.33
701.79	20556.93
701.93	20362.66
702.06	20332.23
702.19	19976.47
702.32	20240.95
702.46	20283.08
702.59	20184.78
702.72	19901.58
702.85	19936.68
702.99	19672.20
703.12	20123.93
703.25	19634.75
703.38	19433.47
703.51	19506.02
703.65	19297.72
703.78	18827.27
703.91	18871.74
704.04	18714.92
704.17	18850.67
704.31	19143.24
704.44	18703.22
704.57	19021.53
704.70	18712.58
704.83	18684.50
704.96	18429.38
705.10	18546.40
705.23	18625.98
>>>>>End Processed Spectral Data<<<<<
