SpectraSuite Data File
++++++++++++++++++++++++++++++++++++
Date: Tue Oct 01 18:27:25 GMT-05:00 2013
User: stostad
Dark Spectrum Present: No
Reference Spectrum Present: No
Number of Sampled Component Spectra: 1
Spectrometers: USB2+H05261
Integration Time (usec): 100000 (USB2+H05261)
Spectra Averaged: 1 (USB2+H05261)
Boxcar Smoothing: 0 (USB2+H05261)
Correct for Electrical Dark: No (USB2+H05261)
Strobe/Lamp Enabled: No (USB2+H05261)
Correct for Detector Non-linearity: No (USB2+H05261)
Correct for Stray Light: No (USB2+H05261)
Number of Pixels in Processed Spectrum: 2048
>>>>>Begin Processed Spectral Data<<<<<
365.73	110.01
365.92	110.01
366.12	110.01
366.32	63.19
366.52	0.00
366.72	14.04
366.91	0.00
367.11	0.00
367.31	0.00
367.51	30.43
367.70	32.77
367.90	37.45
368.10	0.00
368.30	0.00
368.49	0.00
368.69	0.00
368.89	0.00
369.09	0.00
369.28	0.00
369.48	0.00
369.68	0.00
369.87	0.00
370.07	0.00
370.27	114.69
370.47	102.98
370.66	245.76
370.86	248.10
371.06	290.23
371.25	421.30
371.45	280.86
371.65	400.23
371.84	313.63
372.04	386.19
372.24	414.27
372.44	332.36
372.63	360.44
372.83	440.02
373.03	400.23
373.22	390.87
373.42	468.11
373.62	454.06
373.81	444.70
374.01	484.49
374.21	447.04
374.40	414.27
374.60	425.98
374.79	449.38
374.99	463.43
375.19	430.66
375.38	444.70
375.58	390.87
375.78	440.02
375.97	514.92
376.17	458.74
376.37	423.64
376.56	538.32
376.76	500.87
376.95	482.15
377.15	557.05
377.35	510.24
377.54	613.22
377.74	547.69
377.93	430.66
378.13	428.32
378.33	566.41
378.52	535.98
378.72	526.62
378.91	554.71
379.11	528.96
379.31	475.13
379.50	472.79
379.70	554.71
379.89	641.31
380.09	629.60
380.28	561.73
380.48	500.87
380.68	454.06
380.87	552.37
381.07	557.05
381.26	650.67
381.46	617.90
381.65	554.71
381.85	634.29
382.04	519.60
382.24	638.97
382.43	568.75
382.63	486.83
382.83	524.28
383.02	573.43
383.22	545.34
383.41	624.92
383.61	631.94
383.80	596.84
384.00	582.79
384.19	674.07
384.39	660.03
384.58	582.79
384.78	613.22
384.97	526.62
385.17	610.88
385.36	620.24
385.56	674.07
385.75	624.92
385.95	648.33
386.14	748.97
386.34	650.67
386.53	610.88
386.72	674.07
386.92	770.04
387.11	744.29
387.31	599.18
387.50	683.44
387.70	674.07
387.89	730.25
388.09	748.97
388.28	657.69
388.48	755.99
388.67	683.44
388.86	753.65
389.06	791.10
389.25	833.23
389.45	723.23
389.64	753.65
389.84	816.85
390.03	748.97
390.22	791.10
390.42	763.01
390.61	847.27
390.81	814.51
391.00	826.21
391.19	847.27
391.39	849.61
391.58	856.64
391.78	788.76
391.97	889.40
392.16	800.46
392.36	812.17
392.55	821.53
392.75	903.45
392.94	915.15
393.13	837.91
393.33	856.64
393.52	961.96
393.71	931.53
393.91	952.60
394.10	908.13
394.29	933.87
394.49	922.17
394.68	997.07
394.88	968.98
395.07	999.41
395.26	947.92
395.46	990.05
395.65	1086.01
395.84	1069.62
396.04	1128.14
396.23	1048.56
396.42	1011.11
396.62	1015.79
396.81	1076.65
397.00	1076.65
397.19	1149.20
397.39	1043.88
397.58	1207.72
397.77	1048.56
397.97	1177.29
398.16	1123.46
398.35	1137.50
398.55	1071.97
398.74	1160.91
398.93	1205.38
399.12	1179.63
399.32	1109.41
399.51	1153.88
399.70	1294.32
399.90	1214.74
400.09	1231.12
400.28	1231.12
400.47	1294.32
400.67	1331.76
400.86	1341.13
401.05	1259.21
401.24	1310.70
401.44	1329.42
401.63	1296.66
401.82	1401.98
402.01	1364.53
402.21	1397.30
402.40	1430.07
402.59	1394.96
402.78	1425.39
402.97	1413.68
403.17	1409.00
403.36	1561.14
403.55	1483.90
403.74	1528.37
403.93	1530.71
404.13	1593.90
404.32	1490.92
404.51	1504.96
404.70	1577.52
404.89	1521.35
405.09	1668.80
405.28	1626.67
405.47	1589.22
405.66	1675.82
405.85	1771.79
406.05	1633.69
406.24	1666.46
406.43	1722.63
406.62	1788.17
406.81	1860.73
407.00	1776.47
407.20	1717.95
407.39	1652.42
407.58	1802.21
407.77	1832.64
407.96	1877.11
408.15	1947.33
408.34	1748.38
408.54	1884.13
408.73	1916.90
408.92	1935.62
409.11	1891.15
409.30	1865.41
409.49	1989.46
409.68	2064.35
409.87	2062.01
410.07	2066.69
410.26	2120.53
410.45	1963.71
410.64	1991.80
410.83	1998.82
411.02	2179.04
411.21	2076.06
411.40	2230.53
411.59	2106.48
411.78	2293.72
411.98	2160.31
412.17	2321.81
412.36	2246.91
412.55	2331.17
412.74	2326.49
412.93	2525.44
413.12	2279.68
413.31	2485.65
413.50	2422.45
413.69	2562.89
413.88	2612.04
414.07	2537.14
414.26	2607.36
414.45	2621.40
414.64	2644.81
414.83	2621.40
415.02	2722.04
415.22	2759.49
415.41	2848.43
415.60	2665.87
415.79	2855.45
415.98	2818.00
416.17	2876.52
416.36	2911.63
416.55	2942.05
416.74	2897.58
416.93	2871.84
417.12	2949.08
417.31	2871.84
417.50	2925.67
417.69	3091.85
417.88	3180.79
418.07	3178.45
418.26	3145.68
418.45	3112.91
418.64	3311.86
418.83	3145.68
419.02	3204.19
419.21	3215.90
419.39	3211.22
419.58	3206.53
419.77	3194.83
419.96	3379.73
420.15	3431.23
420.34	3349.31
420.53	3386.76
420.72	3370.37
420.91	3375.05
421.10	3358.67
421.29	3499.10
421.48	3475.70
421.67	3536.55
421.86	3342.28
422.05	3538.89
422.24	3599.74
422.43	3426.54
422.61	3503.78
422.80	3571.66
422.99	3604.42
423.18	3543.57
423.37	3660.60
423.56	3623.15
423.75	3662.94
423.94	3562.30
424.13	3330.58
424.32	3353.99
424.50	3728.47
424.69	3620.81
424.88	3737.84
425.07	3644.21
425.26	3585.70
425.45	3595.06
425.64	3543.57
425.83	3625.49
426.01	3768.26
426.20	3742.52
426.39	3613.79
426.58	3723.79
426.77	3588.04
426.96	3758.90
427.15	3620.81
427.33	3646.55
427.52	3815.07
427.71	3756.56
427.90	3815.07
428.09	3803.37
428.28	3840.82
428.46	4025.72
428.65	3819.75
428.84	3969.55
429.03	4058.49
429.22	4025.72
429.40	4072.53
429.59	4128.70
429.78	3915.72
429.97	3946.14
430.16	3918.06
430.34	4095.94
430.53	4088.92
430.72	4100.62
430.91	4163.81
431.10	4065.51
431.28	4383.82
431.47	4231.69
431.66	4280.84
431.85	4128.70
432.03	4308.93
432.22	4531.28
432.41	4264.46
432.60	4493.83
432.79	4276.16
432.97	4397.87
433.16	4477.44
433.35	4465.74
433.54	4456.38
433.72	4451.70
433.91	4472.76
434.10	4552.34
434.28	4510.21
434.47	4531.28
434.66	4601.49
434.85	4622.56
435.03	4566.39
435.22	4681.07
435.41	4718.52
435.59	4702.14
435.78	4592.13
435.97	4629.58
436.16	4828.53
436.34	4631.92
436.53	4767.67
436.72	4952.57
436.90	4842.57
437.09	4788.74
437.28	4849.59
437.46	4978.32
437.65	4833.21
437.84	5137.48
438.02	4997.04
438.21	4908.10
438.40	5013.43
438.58	5022.79
438.77	5198.33
438.96	5160.88
439.14	5179.61
439.33	5217.05
439.52	5151.52
439.70	5275.57
439.89	5528.35
440.08	5355.15
440.26	5343.44
440.45	5593.88
440.63	5612.60
440.82	5699.20
441.01	5579.84
441.19	5600.90
441.38	5687.50
441.57	5692.18
441.75	5738.99
441.94	5813.89
442.12	5902.83
442.31	5987.09
442.50	5937.94
442.68	5849.00
442.87	5930.92
443.05	5923.90
443.24	6036.24
443.43	6174.33
443.61	6162.63
443.80	6279.66
443.98	6052.63
444.17	5994.11
444.35	6078.37
444.54	6176.67
444.73	6246.89
444.91	5975.39
445.10	5996.45
445.28	6179.01
445.47	5973.05
445.65	6204.76
445.84	6162.63
446.02	6237.53
446.21	6434.13
446.39	6029.22
446.58	6289.02
446.77	6183.70
446.95	6242.21
447.14	6155.61
447.32	6237.53
447.51	6242.21
447.69	6363.92
447.88	6445.84
448.06	6392.00
448.25	6251.57
448.43	6298.38
448.62	6396.68
448.80	6403.71
448.99	6452.86
449.17	6558.18
449.36	6242.21
449.54	6420.09
449.73	6686.91
449.91	6733.72
450.10	6565.20
450.28	6719.68
450.46	6654.14
450.65	6736.06
450.83	6782.87
451.02	6796.92
451.20	6803.94
451.39	6965.43
451.57	6808.62
451.76	6836.70
451.94	6827.34
452.13	7037.99
452.31	6888.20
452.49	6808.62
452.68	6867.13
452.86	6960.75
453.05	7150.34
453.23	7098.84
453.42	6988.84
453.60	6871.81
453.78	7143.32
453.97	7054.37
454.15	7037.99
454.34	7056.72
454.52	7248.64
454.70	7110.55
454.89	7169.06
455.07	7194.81
455.26	7281.41
455.44	7393.75
455.62	7618.44
455.81	7328.22
455.99	7344.60
456.17	7400.77
456.36	7524.82
456.54	7562.27
456.73	7438.22
456.91	7681.64
457.09	7805.69
457.28	7817.39
457.46	7686.32
457.64	7691.00
457.83	7751.85
458.01	7726.11
458.19	7913.35
458.38	7859.52
458.56	7875.90
458.74	7857.18
458.93	7796.32
459.11	7948.46
459.29	7901.65
459.48	8086.55
459.66	8053.78
459.84	8049.10
460.03	8208.26
460.21	8191.88
460.39	8088.89
460.57	8039.74
460.76	8166.13
460.94	8100.59
461.12	8446.99
461.31	8325.29
461.49	8257.41
461.67	8344.01
461.85	8421.25
462.04	8257.41
462.22	8744.24
462.40	8528.91
462.59	8386.14
462.77	8528.91
462.95	8589.77
463.13	8573.38
463.32	8802.75
463.50	8624.87
463.68	8706.79
463.86	8685.73
464.05	8746.58
464.23	8699.77
464.41	8861.27
464.59	8648.28
464.78	8922.12
464.96	8809.78
465.14	8812.12
465.32	8741.90
465.50	9071.92
465.69	9210.01
465.87	8975.95
466.05	8980.64
466.23	9085.96
466.41	9200.65
466.60	9163.20
466.78	8936.17
466.96	9090.64
467.14	8980.64
467.32	9219.37
467.51	9357.46
467.69	9104.68
467.87	9123.41
468.05	9226.39
468.23	9207.67
468.41	9474.49
468.60	9441.72
468.78	9249.80
468.96	9172.56
469.14	9427.68
469.32	9652.37
469.50	9439.38
469.69	9626.62
469.87	9610.24
470.05	9769.40
470.23	9544.70
470.41	9659.39
470.59	9886.42
470.77	9863.02
470.95	10008.13
471.14	9823.23
471.32	9753.01
471.50	10036.22
471.68	10171.97
471.86	10537.09
472.04	10272.61
472.22	10270.27
472.40	10157.92
472.58	10253.89
472.77	10286.65
472.95	10272.61
473.13	10799.23
473.31	10490.28
473.49	10471.56
473.67	10459.85
473.85	10431.77
474.03	10731.36
474.21	10724.33
474.39	10920.94
474.57	11056.69
474.75	11061.37
474.93	11105.84
475.12	10995.84
475.30	10995.84
475.48	11068.39
475.66	11220.53
475.84	11407.77
476.02	11461.60
476.20	11431.18
476.38	11667.57
476.56	11946.09
476.74	11943.75
476.92	11796.30
477.10	11669.91
477.28	12011.63
477.46	12086.53
477.64	11939.07
477.82	12320.58
478.00	12556.97
478.18	12610.81
478.36	12669.32
478.54	12681.02
478.72	12678.68
478.90	12580.38
479.08	12952.52
479.26	13076.57
479.44	13057.85
479.62	13310.63
479.80	13322.33
479.98	13420.63
480.16	13715.54
480.34	13788.10
480.52	13858.31
480.70	13827.88
480.88	13692.13
481.06	13886.40
481.24	13874.70
481.41	14178.97
481.59	14352.16
481.77	14279.61
481.95	14621.33
482.13	14609.62
482.31	14633.03
482.49	14967.73
482.67	14981.77
482.85	15122.20
483.03	15239.23
483.21	15183.06
483.39	15665.21
483.57	15564.56
483.74	15648.82
483.92	15779.89
484.10	15850.11
484.28	16114.59
484.46	16386.09
484.64	16526.52
484.82	16336.94
485.00	16713.77
485.18	16673.98
485.35	17057.82
485.53	16861.22
485.71	17088.25
485.89	17429.97
486.07	17273.15
486.25	17591.47
486.43	17497.84
486.61	17902.76
486.78	17834.88
486.96	18075.96
487.14	18382.57
487.32	18127.45
487.50	18459.81
487.68	18682.16
487.85	18843.65
488.03	19026.21
488.21	19190.05
488.39	19220.48
488.57	19267.29
488.75	19536.45
488.92	19641.78
489.10	19831.36
489.28	19796.25
489.46	20168.40
489.64	19887.53
489.81	20631.82
489.99	20449.26
490.17	20610.76
490.35	21186.53
490.53	21240.36
490.70	21106.95
490.88	20922.05
491.06	21275.47
491.24	21069.50
491.41	21696.77
491.59	21968.27
491.77	21839.54
491.95	22204.66
492.13	22108.70
492.30	22272.54
492.48	22164.87
492.66	22485.53
492.84	22787.46
493.01	22670.43
493.19	22803.84
493.37	23304.71
493.54	23096.41
493.72	23536.43
493.90	23393.65
494.08	23630.05
494.25	24011.56
494.43	23597.28
494.61	24159.01
494.79	24196.46
494.96	24407.11
495.14	24374.34
495.32	24615.41
495.49	24669.25
495.67	25013.31
495.85	25078.84
496.02	25221.61
496.20	25207.57
496.38	25369.07
496.55	25254.38
496.73	26221.02
496.91	25806.75
497.09	26148.46
497.26	26008.03
497.44	26064.21
497.62	26410.60
497.79	26555.72
497.97	26314.64
498.14	26998.08
498.32	27124.47
498.50	26670.40
498.67	27161.92
498.85	27515.34
499.03	27309.37
499.20	27234.47
499.38	27498.95
499.56	27695.56
499.73	27641.73
499.91	28056.00
500.08	28011.53
500.26	27693.22
500.44	28023.23
500.61	28414.10
500.79	28226.86
500.97	28472.62
501.14	28809.65
501.32	28671.56
501.49	28622.41
501.67	28566.24
501.84	28697.31
502.02	29537.56
502.20	29427.56
502.37	29528.20
502.55	29406.49
502.72	29432.24
502.90	29338.62
503.07	29261.38
503.25	30092.27
503.43	30178.87
503.60	29720.12
503.78	29933.11
503.95	30026.73
504.13	30134.40
504.30	29963.54
504.48	30415.26
504.65	30499.52
504.83	30726.55
505.01	30693.79
505.18	30864.64
505.36	30991.03
505.53	30778.04
505.71	31110.40
505.88	31236.79
506.06	31360.84
506.23	31866.39
506.41	31164.23
506.58	31545.74
506.76	31894.48
506.93	31711.92
507.11	31768.09
507.28	31826.60
507.46	31908.52
507.63	31896.82
507.81	32500.68
507.98	31833.63
508.16	32280.67
508.33	32662.18
508.50	32634.09
508.68	33134.96
508.85	33195.82
509.03	32952.40
509.20	33539.88
509.38	33111.56
509.55	33317.53
509.73	33397.10
509.90	33773.93
510.08	33631.16
510.25	33488.38
510.42	33518.81
510.60	34204.59
510.77	33713.08
510.95	34195.23
511.12	33689.67
511.30	34274.80
511.47	34040.75
511.64	34153.10
511.82	34520.56
511.99	34546.31
512.17	34527.58
512.34	34333.32
512.51	35026.12
512.69	35070.59
512.86	35204.00
513.04	35515.29
513.21	35344.43
513.38	35091.65
513.56	35374.86
513.73	35271.87
513.90	35475.50
514.08	35346.77
514.25	36062.97
514.43	36353.20
514.60	35971.69
514.77	35938.93
514.95	36371.92
515.12	36016.16
515.29	36133.19
515.47	36449.16
515.64	36903.23
515.81	36493.63
515.99	36385.97
516.16	36779.18
516.33	36795.56
516.51	37153.66
516.68	37263.67
516.85	36877.48
517.03	37383.04
517.20	37371.33
517.37	37212.18
517.54	37436.87
517.72	37347.93
517.89	37284.73
518.06	37469.64
518.24	37556.24
518.41	37869.87
518.58	38132.01
518.75	37490.70
518.93	37897.95
519.10	37479.00
519.27	38536.92
519.45	38068.81
519.62	38572.03
519.79	38522.88
519.96	38550.96
520.14	38450.32
520.31	38375.42
520.48	38869.28
520.65	38953.54
520.83	39082.27
521.00	38995.67
521.17	39152.48
521.34	39449.73
521.52	39426.32
521.69	39243.76
521.86	39248.44
522.03	39498.88
522.20	39526.97
522.38	39643.99
522.55	39957.63
522.72	40205.72
522.89	39625.27
523.07	39976.35
523.24	39754.00
523.41	40257.21
523.58	39672.08
523.75	40219.77
523.92	40470.20
524.10	40554.46
524.27	40797.88
524.44	40500.63
524.61	41020.23
524.78	40566.16
524.96	40840.01
525.13	40739.36
525.30	40872.78
525.47	40985.12
525.64	41212.15
525.81	41177.04
525.98	41336.20
526.16	41429.82
526.33	41488.34
526.50	41715.37
526.67	41258.96
526.84	41586.64
527.01	41420.46
527.18	42000.91
527.36	42117.94
527.53	41935.38
527.70	42499.45
527.87	41827.71
528.04	42216.24
528.21	42387.10
528.38	42597.75
528.55	42246.67
528.72	42436.25
528.89	42157.73
529.07	42398.80
529.24	42777.97
529.41	42574.34
529.58	42595.41
529.75	42646.90
529.92	42803.72
530.09	42934.79
530.26	43103.31
530.43	42930.11
530.60	42876.27
530.77	42906.70
530.94	43168.84
531.11	43239.06
531.28	43328.00
531.46	43318.64
531.63	43318.64
531.80	43718.87
531.97	43592.48
532.14	43557.37
532.31	43536.30
532.48	43718.87
532.65	44154.21
532.82	43585.46
532.99	43693.12
533.16	44135.48
533.33	44198.68
533.50	44165.91
533.67	43990.37
533.84	43709.50
534.01	44186.97
534.18	44238.47
534.35	44549.76
534.52	44416.35
534.69	44561.46
534.86	44851.69
535.03	44285.28
535.20	44542.74
535.37	44821.26
535.54	44882.11
535.71	44996.80
535.88	45092.76
536.05	45193.40
536.22	45359.58
536.38	45216.81
536.55	45134.89
536.72	45041.27
536.89	44786.15
537.06	45020.20
537.23	45272.98
537.40	45034.25
537.57	45195.74
537.74	45460.23
537.91	45750.45
538.08	45572.57
538.25	45399.37
538.42	45755.13
538.59	45808.96
538.75	45591.30
538.92	45909.61
539.09	46181.11
539.26	45933.01
539.43	45851.09
539.60	45827.69
539.77	46045.36
539.94	46312.18
540.11	46312.18
540.28	46277.07
540.44	46211.54
540.61	46197.49
540.78	46522.83
540.95	46356.65
541.12	46541.55
541.29	46230.26
541.46	46363.67
541.62	46237.28
541.79	46625.81
541.96	46190.47
542.13	46391.76
542.30	46916.04
542.47	46855.18
542.63	46574.32
542.80	46862.21
542.97	47096.26
543.14	46623.47
543.31	47569.05
543.48	47648.63
543.64	47501.17
543.81	47634.58
543.98	47753.95
544.15	47306.91
544.32	47604.16
544.48	47599.47
544.65	47246.05
544.82	47718.84
544.99	47339.68
545.16	48018.43
545.32	47927.15
545.49	48198.65
545.66	48222.06
545.83	47922.47
546.00	48428.02
546.16	47798.42
546.33	48020.77
546.50	47789.06
546.67	47957.58
546.83	47327.97
547.00	48102.69
547.17	47966.94
547.34	48313.34
547.50	48311.00
547.67	48107.37
547.84	48243.12
548.00	48484.20
548.17	48533.35
548.34	48531.01
548.51	48828.26
548.67	48547.39
548.84	48322.70
549.01	48315.68
549.18	48404.62
549.34	48577.82
549.51	48828.26
549.68	48748.68
549.84	48947.62
550.01	49034.22
550.18	48563.78
550.34	49296.36
550.51	49184.02
550.68	48659.74
550.84	48868.05
551.01	49139.55
551.18	48800.17
551.34	49109.12
551.51	49074.01
551.68	49640.42
551.84	49242.53
552.01	48966.35
552.18	49081.03
552.34	48886.77
552.51	49294.02
552.68	49338.49
552.84	49394.67
553.01	49511.69
553.18	49544.46
553.34	49670.85
553.51	49673.19
553.67	49764.47
553.84	49724.68
554.01	49364.24
554.17	49918.95
554.34	49762.13
554.51	50080.44
554.67	50150.66
554.84	49900.22
555.00	50012.57
555.17	49886.18
555.33	49797.24
555.50	49808.94
555.67	49822.98
555.83	49815.96
556.00	49956.39
556.16	50595.36
556.33	50075.76
556.50	50321.52
556.66	50520.46
556.83	50153.00
556.99	50181.09
557.16	50288.75
557.32	50270.03
557.49	50534.51
557.65	50213.85
557.82	50490.04
557.98	50527.48
558.15	50670.26
558.32	50567.27
558.48	50330.88
558.65	50429.18
558.81	50195.13
558.98	50375.35
559.14	50368.33
559.31	50314.50
559.47	50515.78
559.64	50539.19
559.80	50749.84
559.97	51107.94
560.13	50625.79
560.30	50780.26
560.46	50387.05
560.63	50539.19
560.79	50815.37
560.96	50607.06
561.12	51000.27
561.29	51126.66
561.45	50862.18
561.61	50918.35
561.78	51196.88
561.94	50810.69
562.11	50761.54
562.27	50761.54
562.44	50852.82
562.60	51220.28
562.77	50906.65
562.93	51267.09
563.10	51388.80
563.26	50927.72
563.42	51194.54
563.59	50822.39
563.75	50990.91
563.92	51011.98
564.08	51253.05
564.24	51014.32
564.41	51147.73
564.57	51072.83
564.74	51002.61
564.90	50824.73
565.07	51161.77
565.23	51002.61
565.39	51201.56
565.56	51143.05
565.72	51276.46
565.88	51423.91
566.05	51440.29
566.21	51409.87
566.38	51587.75
566.54	51292.84
566.70	51421.57
566.87	51604.13
567.03	51257.73
567.19	51323.27
567.36	51365.40
567.52	51189.86
567.68	51393.48
567.85	51370.08
568.01	51522.21
568.17	51459.02
568.34	51688.39
568.50	51585.41
568.66	51136.02
568.83	51573.70
568.99	50951.12
569.15	51552.64
569.32	51309.22
569.48	51363.06
569.64	51772.65
569.81	51690.73
569.97	51615.83
570.13	51707.12
570.30	51231.99
570.46	51243.69
570.62	51477.74
570.78	51414.55
570.95	51669.67
571.11	51547.96
571.27	51587.75
571.43	51632.22
571.60	51934.15
571.76	51517.53
571.92	51592.43
572.09	51437.95
572.25	52018.41
572.41	51793.71
572.57	51327.95
572.74	51824.14
572.90	51381.78
573.06	51653.28
573.22	51697.75
573.38	51688.39
573.55	51819.46
573.71	51910.74
573.87	51456.68
574.03	51744.56
574.20	51501.15
574.36	51505.83
574.52	52123.73
574.68	51913.08
574.84	51959.89
575.01	52097.98
575.17	52186.92
575.33	51941.17
575.49	51814.78
575.65	51702.43
575.82	51707.12
575.98	51700.09
576.14	51924.78
576.30	51899.04
576.46	51779.67
576.62	52037.13
576.79	51985.64
576.95	51774.99
577.11	51632.22
577.27	51849.89
577.43	51629.88
577.59	51779.67
577.75	51798.40
577.92	51779.67
578.08	51854.57
578.24	51845.21
578.40	52317.99
578.56	51938.83
578.72	52123.73
578.88	52163.52
579.04	51774.99
579.21	52037.13
579.37	51924.78
579.53	52090.96
579.69	51650.94
579.85	51955.21
580.01	52002.02
580.17	51973.94
580.33	52058.20
580.49	51889.68
580.65	52215.01
580.82	51896.70
580.98	51959.89
581.14	51650.94
581.30	51952.87
581.46	52135.43
581.62	52112.03
581.78	51997.34
581.94	51927.13
582.10	51824.14
582.26	51777.33
582.42	51849.89
582.58	51880.31
582.74	51798.40
582.90	52154.16
583.06	51945.85
583.22	52261.82
583.38	52472.47
583.54	52465.45
583.70	52329.70
583.86	52261.82
584.02	51901.38
584.18	52273.52
584.34	51941.17
584.50	52261.82
584.66	52289.91
584.82	51608.81
584.98	52584.82
585.14	52175.22
585.30	51931.81
585.46	52175.22
585.62	52151.82
585.78	52493.54
585.94	51917.76
586.10	52097.98
586.26	51913.08
586.42	52203.31
586.58	52219.69
586.74	52032.45
586.90	51957.55
587.06	52044.15
587.22	52486.51
587.38	52336.72
587.54	52416.30
587.70	52610.56
587.86	52528.64
588.02	52210.33
588.18	52090.96
588.34	52378.85
588.49	52123.73
588.65	52196.29
588.81	52172.88
588.97	52346.08
589.13	52561.41
589.29	52610.56
589.45	52416.30
589.61	52348.42
589.77	52582.48
589.93	52420.98
590.08	52231.40
590.24	52554.39
590.40	52842.27
590.56	52774.40
590.72	52624.60
590.88	52568.43
591.04	52343.74
591.20	52793.12
591.35	52568.43
591.51	52577.79
591.67	52722.91
591.83	52589.50
591.99	52879.72
592.15	52708.86
592.31	52795.46
592.46	52767.38
592.62	52748.65
592.78	52765.04
592.94	52610.56
593.10	52610.56
593.26	52442.04
593.41	52783.76
593.57	52652.69
593.73	52582.48
593.89	52446.72
594.05	52783.76
594.20	52729.93
594.36	52631.63
594.52	52910.15
594.68	52891.43
594.84	52762.70
594.99	52666.73
595.15	52608.22
595.31	52493.54
595.47	52575.45
595.62	52460.77
595.78	52423.32
595.94	52608.22
596.10	52718.23
596.25	53088.03
596.41	52914.83
596.57	53073.99
596.73	53102.07
596.88	52945.26
597.04	52526.30
597.20	52811.85
597.36	52502.90
597.51	53251.87
597.67	52547.37
597.83	52839.93
597.99	52907.81
598.14	53038.88
598.30	53116.12
598.46	53057.60
598.61	52818.87
598.77	52774.40
598.93	53214.42
599.09	52683.12
599.24	52985.05
599.40	52715.89
599.56	52856.32
599.71	52982.71
599.87	53071.65
600.03	52907.81
600.18	53006.11
600.34	52905.47
600.50	53010.79
600.65	52807.17
600.81	53059.94
600.97	52851.64
601.12	52884.40
601.28	53071.65
601.44	52807.17
601.59	52802.49
601.75	52699.50
601.91	53130.16
602.06	53006.11
602.22	53048.24
602.37	52940.58
602.53	52968.66
602.69	52973.34
602.84	52694.82
603.00	52758.02
603.16	52821.21
603.31	52577.79
603.47	53034.20
603.62	52891.43
603.78	53020.16
603.94	53010.79
604.09	52856.32
604.25	52830.57
604.40	53073.99
604.56	52907.81
604.71	52680.78
604.87	52633.97
605.03	52762.70
605.18	52521.62
605.34	52507.58
605.49	52638.65
605.65	52816.53
605.80	52889.09
605.96	52727.59
606.12	52889.09
606.27	53221.44
606.43	52781.42
606.58	52910.15
606.74	52428.00
606.89	52317.99
607.05	52577.79
607.20	52959.30
607.36	52451.41
607.51	52942.92
607.67	53144.20
607.82	52755.68
607.98	52945.26
608.13	52734.61
608.29	52488.85
608.44	52861.00
608.60	52582.48
608.75	52533.32
608.91	52154.16
609.06	52189.27
609.22	52467.79
609.37	52390.55
609.53	52303.95
609.68	52575.45
609.84	52463.11
609.99	52559.07
610.15	52495.88
610.30	52596.52
610.46	52540.35
610.61	52100.32
610.76	52081.60
610.92	52168.20
611.07	52589.50
611.23	52458.43
611.38	52617.58
611.54	52556.73
611.69	52236.08
611.84	52411.62
612.00	52631.63
612.15	52271.18
612.31	52622.26
612.46	52205.65
612.62	52528.64
612.77	52175.22
612.92	52388.21
613.08	52184.58
613.23	52500.56
613.39	52046.49
613.54	52133.09
613.69	52399.91
613.85	52629.29
614.00	52790.78
614.15	52399.91
614.31	52163.52
614.46	52292.25
614.62	52207.99
614.77	52294.59
614.92	52573.11
615.08	52362.46
615.23	52100.32
615.38	52350.76
615.54	52100.32
615.69	52109.69
615.84	51599.45
616.00	52259.48
616.15	52147.14
616.30	52072.24
616.46	51856.91
616.61	52088.62
616.76	52210.33
616.92	51899.04
617.07	51899.04
617.22	51903.72
617.37	51723.50
617.53	52224.37
617.68	52245.44
617.83	51962.23
617.99	51966.91
618.14	51721.16
618.29	51941.17
618.45	52004.36
618.60	51957.55
618.75	51681.37
618.90	51791.37
619.06	51735.20
619.21	51578.39
619.36	52027.77
619.51	51594.77
619.67	51634.56
619.82	51798.40
619.97	51723.50
620.12	51634.56
620.28	51253.05
620.43	51772.65
620.58	51522.21
620.73	51461.36
620.89	51391.14
621.04	51604.13
621.19	51444.98
621.34	51489.45
621.49	51592.43
621.65	51543.28
621.80	51913.08
621.95	51459.02
622.10	51447.32
622.25	50932.40
622.41	51224.96
622.56	51437.95
622.71	51723.50
622.86	51311.56
623.01	51459.02
623.16	51227.31
623.32	51133.68
623.47	51285.82
623.62	51517.53
623.77	51494.13
623.92	51168.79
624.07	51283.48
624.23	51349.01
624.38	51412.21
624.53	50810.69
624.68	51400.50
624.83	51079.85
624.98	51044.74
625.13	50504.08
625.29	51007.29
625.44	51051.76
625.59	50885.59
625.74	51082.19
625.89	51065.81
626.04	50899.63
626.19	51421.57
626.34	51208.58
626.49	50518.12
626.65	50883.25
626.80	50541.53
626.95	50450.25
627.10	50384.71
627.25	50637.49
627.40	50588.34
627.55	50550.89
627.70	50511.10
627.85	50651.53
628.00	50394.07
628.15	50883.25
628.30	50534.51
628.45	50693.66
628.60	50527.48
628.76	50483.01
628.91	50597.70
629.06	50525.14
629.21	50405.78
629.36	50253.64
629.51	50415.14
629.66	50508.76
629.81	50478.33
629.96	50295.77
630.11	50204.49
630.26	50363.65
630.41	50206.83
630.56	50356.63
630.71	50120.23
630.86	49921.29
631.01	49869.79
631.16	49932.99
631.31	49642.76
631.46	49827.66
631.61	49872.14
631.76	50087.46
631.91	50012.57
632.06	49893.20
632.21	49626.38
632.36	50389.39
632.51	49738.72
632.66	49680.21
632.81	49663.83
632.96	49797.24
633.10	49570.21
633.25	49610.00
633.40	49900.22
633.55	49598.29
633.70	49691.91
633.85	49741.06
634.00	49675.53
634.15	49727.02
634.30	49738.72
634.45	49846.39
634.60	50068.74
634.75	49317.43
634.90	49455.52
635.05	49741.06
635.19	49628.72
635.34	49560.84
635.49	49504.67
635.64	49490.63
635.79	49668.51
635.94	49591.27
636.09	49567.87
636.24	49343.17
636.39	49272.96
636.53	49439.14
636.68	49165.29
636.83	49432.11
636.98	49233.17
637.13	49024.86
637.28	49490.63
637.43	49090.40
637.57	49443.82
637.72	49237.85
637.87	49151.25
638.02	49310.41
638.17	49207.42
638.32	49404.03
638.46	49584.25
638.61	49228.49
638.76	49336.15
638.91	48643.35
639.06	48699.53
639.20	48643.35
639.35	48891.45
639.50	48797.83
639.65	48809.53
639.80	49027.20
639.94	48362.49
640.09	48650.38
640.24	48793.15
640.39	48484.20
640.54	48582.50
640.68	48603.56
640.83	48399.94
640.98	48872.73
641.13	48626.97
641.27	48671.44
641.42	48322.70
641.57	48193.97
641.72	48547.39
641.86	48320.36
642.01	48067.58
642.16	48271.21
642.31	47995.03
642.45	48421.00
642.60	48275.89
642.75	48229.08
642.90	48626.97
643.04	48268.87
643.19	48055.88
643.34	48456.11
643.48	48093.33
643.63	48289.93
643.78	48371.85
643.93	48182.27
644.07	48470.15
644.22	48128.44
644.37	48374.19
644.51	48278.23
644.66	47978.64
644.81	48093.33
644.95	48442.07
645.10	47742.25
645.25	47826.51
645.39	47945.87
645.54	47763.31
645.69	48147.16
645.83	47852.25
645.98	47948.21
646.13	47709.48
646.27	48179.93
646.42	47526.92
646.57	47973.96
646.71	47896.72
646.86	47742.25
647.00	47969.28
647.15	47997.37
647.30	47966.94
647.44	48004.39
647.59	47550.32
647.74	47763.31
647.88	47613.52
648.03	47459.04
648.17	47452.02
648.32	47442.66
648.47	47742.25
648.61	47042.43
648.76	47571.39
648.90	47454.36
649.05	47730.54
649.20	47793.74
649.34	47775.02
649.49	47278.82
649.63	47674.37
649.78	47222.65
649.92	47187.54
650.07	47374.78
650.21	47267.12
650.36	47473.09
650.51	46738.16
650.65	46920.72
650.80	46857.52
650.94	46932.42
651.09	46794.33
651.23	46707.73
651.38	46887.95
651.52	46972.21
651.67	46997.96
651.81	47253.08
651.96	47070.51
652.10	47091.58
652.25	46892.63
652.39	46796.67
652.54	47044.77
652.68	47119.66
652.83	46857.52
652.97	47047.11
653.12	46478.36
653.26	46351.97
653.41	47086.90
653.55	47026.04
653.70	46876.25
653.84	47683.73
653.99	46569.64
654.13	47035.41
654.27	46773.27
654.42	46646.88
654.56	46398.78
654.71	46637.51
654.85	46504.10
655.00	46115.58
655.14	46485.38
655.29	46157.70
655.43	46457.29
655.57	46307.50
655.72	46541.55
655.86	46700.71
656.01	46852.84
656.15	46349.63
656.30	46375.37
656.44	46363.67
656.58	45900.25
656.73	45933.01
656.87	45972.80
657.01	45691.94
657.16	45867.48
657.30	46124.94
657.45	45879.18
657.59	45617.04
657.73	45488.31
657.88	45717.68
658.02	46181.11
658.16	45888.54
658.31	45872.16
658.45	46309.84
658.60	45717.68
658.74	45677.90
658.88	45682.58
659.03	45399.37
659.17	45354.90
659.31	45139.57
659.46	44722.96
659.60	44938.29
659.74	44837.64
659.89	45127.87
660.03	45287.03
660.17	45471.93
660.32	44877.43
660.46	45352.56
660.60	44992.12
660.74	45483.63
660.89	45567.89
661.03	44694.87
661.17	44673.81
661.32	44488.90
661.46	44884.45
661.60	44261.87
661.74	44601.25
661.89	44254.85
662.03	44226.76
662.17	44346.13
662.31	44631.68
662.46	44402.30
662.60	44236.12
662.74	44271.23
662.88	44268.89
663.03	44669.12
663.17	44727.64
663.31	44423.37
663.45	44470.18
663.60	44575.50
663.74	43913.13
663.88	43746.95
664.02	43363.11
664.17	43866.32
664.31	43271.82
664.45	43693.12
664.59	43714.19
664.73	43770.36
664.88	43831.21
665.02	43519.92
665.16	43583.12
665.30	43952.92
665.44	43955.26
665.59	43641.63
665.73	43381.83
665.87	43016.71
666.01	43283.53
666.15	43419.28
666.29	42857.55
666.44	43309.27
666.58	42763.93
666.72	42384.76
666.86	42665.63
667.00	42698.39
667.14	42483.06
667.28	42674.99
667.43	42593.07
667.57	42464.34
667.71	43012.02
667.85	42997.98
667.99	42569.66
668.13	42281.78
668.27	42272.42
668.41	41972.83
668.56	42174.11
668.70	42405.83
668.84	41963.46
668.98	41425.14
669.12	41911.97
669.26	41947.08
669.40	41874.52
669.54	41769.20
669.68	42190.50
669.82	41401.74
669.96	41628.77
670.10	41701.32
670.25	41670.90
670.39	41270.67
670.53	41495.36
670.67	41312.80
670.81	41399.40
670.95	41233.22
671.09	40671.49
671.23	40634.04
671.37	40924.27
671.51	40816.60
671.65	40524.04
671.79	40683.19
671.93	40992.14
672.07	40804.90
672.21	40671.49
672.35	40477.22
672.49	40662.13
672.63	40381.26
672.77	40130.83
672.91	40292.32
673.05	39835.92
673.19	40217.43
673.33	39990.39
673.47	40039.54
673.61	39866.34
673.75	39974.01
673.89	39625.27
674.03	39278.87
674.17	39922.52
674.31	39702.51
674.45	39484.84
674.59	39311.64
674.73	38820.13
674.87	39192.27
675.01	39100.99
675.15	39208.65
675.29	39421.64
675.43	38834.17
675.56	38686.71
675.70	38749.91
675.84	38431.60
675.98	37635.81
676.12	37986.89
676.26	38792.04
676.40	38110.94
676.54	38426.92
676.68	38309.89
676.82	37736.46
676.96	37933.06
677.10	37993.92
677.23	38089.88
677.37	37951.79
677.51	37574.96
677.65	37734.12
677.79	37432.19
677.93	37062.38
678.07	37310.48
678.21	36514.70
678.34	36598.96
678.48	36252.56
678.62	36322.77
678.76	36395.33
678.90	36290.01
679.04	36416.40
679.18	36388.31
679.31	36009.14
679.45	36172.98
679.59	36151.91
679.73	36573.21
679.87	36128.51
680.00	35765.73
680.14	36559.17
680.28	35835.94
680.42	35714.23
680.56	35236.77
680.70	34719.51
680.83	34672.70
680.97	34609.50
681.11	34878.66
681.25	34623.54
681.39	34904.41
681.52	35093.99
681.66	34813.13
681.80	34527.58
681.94	34462.05
682.07	34672.70
682.21	34632.91
682.35	33965.85
682.49	34012.66
682.62	33729.46
682.76	33584.35
682.90	33968.19
683.04	33687.33
683.17	33453.28
683.31	33102.20
683.45	33397.10
683.59	33102.20
683.72	32713.67
683.86	32673.88
684.00	32594.30
684.13	32540.47
684.27	32912.61
684.41	32814.31
684.55	32744.09
684.68	32568.55
684.82	32577.92
684.96	32395.35
685.09	32135.56
685.23	31587.87
685.37	31936.61
685.50	31798.52
685.64	31730.64
685.78	31461.48
685.91	31754.05
686.05	31171.25
686.19	31152.53
686.32	31290.62
686.46	31075.29
686.60	31115.08
686.73	30972.31
686.87	31220.41
687.01	30941.88
687.14	30719.53
687.28	30600.16
687.42	30981.67
687.55	30551.01
687.69	30700.81
687.82	30740.60
687.96	30225.68
688.10	29645.23
688.23	29724.80
688.37	29919.07
688.50	29340.96
688.64	29287.12
688.78	29642.88
688.91	29282.44
689.05	29420.53
689.18	29310.53
689.32	29244.99
689.46	29188.82
689.59	29333.93
689.73	28882.21
689.86	29024.98
690.00	29202.86
690.13	29029.66
690.27	28669.22
690.41	29237.97
690.54	28154.30
690.68	27948.34
690.81	28479.64
690.95	28011.53
691.08	27831.31
691.22	28020.89
691.35	27470.87
691.49	27370.22
691.62	27491.93
691.76	27349.16
691.89	27491.93
692.03	27477.89
692.16	27377.25
692.30	27197.02
692.43	27117.45
692.57	27445.12
692.70	26962.97
692.84	26773.39
692.97	26497.20
693.11	26403.58
693.24	25736.53
693.38	25834.83
693.51	26328.69
693.65	25902.71
693.78	25769.30
693.92	25940.16
694.05	25865.26
694.19	25701.42
694.32	25376.09
694.45	25392.47
694.59	25469.71
694.72	25476.73
694.86	25603.12
694.99	25221.61
695.13	25106.93
695.26	24982.88
695.39	24769.89
695.53	24697.33
695.66	24219.86
695.80	24299.44
695.93	24395.40
696.07	23875.80
696.20	24098.16
696.33	23662.82
696.47	23756.44
696.60	23880.49
696.73	23782.18
696.87	23482.59
697.00	23356.21
697.14	23468.55
697.27	23473.23
697.40	23676.86
697.54	23426.42
697.67	23208.75
697.80	23452.17
697.94	23023.85
698.07	22686.81
698.21	22363.82
698.34	22525.32
698.47	22359.14
698.61	21912.10
698.74	22057.21
698.87	22223.39
699.01	22176.58
699.14	21792.73
699.27	21944.86
699.40	22066.57
699.54	21827.84
699.67	21535.27
699.80	21734.21
699.94	21486.12
700.07	21689.74
700.20	21591.44
700.34	21212.28
700.47	20973.54
700.60	21371.43
700.73	21097.59
700.87	20996.95
701.00	20570.97
701.13	20563.95
701.26	20442.24
701.40	20304.15
701.53	20402.45
701.66	20252.66
701.79	20100.52
701.93	20348.62
702.06	20276.06
702.19	20318.19
702.32	19646.46
702.46	19971.79
702.59	20065.41
702.72	19765.82
702.85	19503.68
702.99	19786.89
703.12	19487.30
703.25	19445.17
703.38	19103.45
703.51	19201.76
703.65	19178.35
703.78	18892.80
703.91	18452.78
704.04	18602.58
704.17	18574.49
704.31	18604.92
704.44	18480.87
704.57	18499.59
704.70	18672.79
704.83	18244.48
704.96	18249.16
705.10	18272.56
705.23	18295.97
>>>>>End Processed Spectral Data<<<<<
