SpectraSuite Data File
++++++++++++++++++++++++++++++++++++
Date: Fri Oct 04 11:39:55 GMT-05:00 2013
User: price-jones
Dark Spectrum Present: No
Reference Spectrum Present: No
Number of Sampled Component Spectra: 1
Spectrometers: USB2+H05261
Integration Time (usec): 100000 (USB2+H05261)
Spectra Averaged: 1 (USB2+H05261)
Boxcar Smoothing: 0 (USB2+H05261)
Correct for Electrical Dark: No (USB2+H05261)
Strobe/Lamp Enabled: No (USB2+H05261)
Correct for Detector Non-linearity: No (USB2+H05261)
Correct for Stray Light: No (USB2+H05261)
Number of Pixels in Processed Spectrum: 2048
>>>>>Begin Processed Spectral Data<<<<<
365.73	30.43
365.92	30.43
366.12	30.43
366.32	0.00
366.52	0.00
366.72	0.00
366.91	0.00
367.11	0.00
367.31	81.92
367.51	0.00
367.70	0.00
367.90	0.00
368.10	0.00
368.30	0.00
368.49	0.00
368.69	0.00
368.89	0.00
369.09	0.00
369.28	0.00
369.48	0.00
369.68	0.00
369.87	0.00
370.07	0.00
370.27	0.00
370.47	39.79
370.66	220.01
370.86	255.12
371.06	304.27
371.25	344.06
371.45	290.23
371.65	332.36
371.84	257.46
372.04	322.99
372.24	297.25
372.44	252.78
372.63	332.36
372.83	442.36
373.03	374.49
373.22	304.27
373.42	299.59
373.62	360.44
373.81	430.66
374.01	444.70
374.21	414.27
374.40	430.66
374.60	437.68
374.79	421.30
374.99	435.34
375.19	351.08
375.38	386.19
375.58	447.04
375.78	407.25
375.97	430.66
376.17	484.49
376.37	411.93
376.56	519.60
376.76	498.53
376.95	486.83
377.15	500.87
377.35	421.30
377.54	507.90
377.74	458.74
377.93	444.70
378.13	430.66
378.33	449.38
378.52	463.43
378.72	479.81
378.91	440.02
379.11	514.92
379.31	528.96
379.50	362.78
379.70	524.28
379.89	531.30
380.09	491.51
380.28	468.11
380.48	482.15
380.68	444.70
380.87	447.04
381.07	512.58
381.26	510.24
381.46	575.77
381.65	606.20
381.85	543.00
382.04	538.32
382.24	512.58
382.43	458.74
382.63	519.60
382.83	505.56
383.02	554.71
383.22	627.26
383.41	465.77
383.61	547.69
383.80	559.39
384.00	587.47
384.19	571.09
384.39	615.56
384.58	615.56
384.78	538.32
384.97	585.13
385.17	615.56
385.36	650.67
385.56	622.58
385.75	653.01
385.95	585.13
386.14	641.31
386.34	568.75
386.53	697.48
386.72	585.13
386.92	645.99
387.11	606.20
387.31	622.58
387.50	578.11
387.70	631.94
387.89	669.39
388.09	674.07
388.28	662.37
388.48	671.73
388.67	638.97
388.86	568.75
389.06	676.41
389.25	746.63
389.45	692.80
389.64	711.52
389.84	821.53
390.03	709.18
390.22	746.63
390.42	678.76
390.61	734.93
390.81	690.46
391.00	784.08
391.19	760.67
391.39	716.20
391.58	753.65
391.78	837.91
391.97	727.91
392.16	669.39
392.36	819.19
392.55	821.53
392.75	753.65
392.94	856.64
393.13	802.80
393.33	851.96
393.52	741.95
393.71	858.98
393.91	868.34
394.10	835.57
394.29	800.46
394.49	854.30
394.68	905.79
394.88	905.79
395.07	887.06
395.26	882.38
395.46	908.13
395.65	908.13
395.84	917.49
396.04	976.00
396.23	959.62
396.42	910.47
396.62	994.73
396.81	896.43
397.00	999.41
397.19	994.73
397.39	1050.90
397.58	1032.18
397.77	968.98
397.97	973.66
398.16	896.43
398.35	1057.92
398.55	994.73
398.74	954.94
398.93	1102.39
399.12	1086.01
399.32	1130.48
399.51	1071.97
399.70	1170.27
399.90	1149.20
400.09	1132.82
400.28	1142.18
400.47	1198.35
400.67	1179.63
400.86	1102.39
401.05	1128.14
401.24	1247.51
401.44	1158.57
401.63	1191.33
401.82	1294.32
402.01	1156.22
402.21	1284.95
402.40	1266.23
402.59	1231.12
402.78	1315.38
402.97	1310.70
403.17	1275.59
403.36	1219.42
403.55	1331.76
403.74	1448.79
403.93	1313.04
404.13	1479.22
404.32	1547.09
404.51	1481.56
404.70	1380.92
404.89	1420.71
405.09	1474.54
405.28	1481.56
405.47	1519.01
405.66	1526.03
405.85	1437.09
406.05	1420.71
406.24	1460.49
406.43	1558.80
406.62	1504.96
406.81	1638.38
407.00	1556.46
407.20	1488.58
407.39	1500.28
407.58	1673.48
407.77	1621.99
407.96	1750.72
408.15	1671.14
408.34	1722.63
408.54	1739.02
408.73	1785.83
408.92	1741.36
409.11	1804.55
409.30	1753.06
409.49	1743.70
409.68	1785.83
409.87	1902.86
410.07	1734.34
410.26	1797.53
410.45	1753.06
410.64	1991.80
410.83	1802.21
411.02	1956.69
411.21	1959.03
411.40	2010.52
411.59	2069.03
411.78	1947.33
411.98	2017.54
412.17	2097.12
412.36	2022.22
412.55	2197.76
412.74	2221.17
412.93	2113.50
413.12	2094.78
413.31	2253.94
413.50	2207.13
413.69	2282.02
413.88	2349.90
414.07	2385.01
414.26	2352.24
414.45	2289.04
414.64	2253.94
414.83	2476.29
415.02	2466.92
415.22	2403.73
415.41	2509.05
415.60	2466.92
415.79	2572.25
415.98	2321.81
416.17	2509.05
416.36	2607.36
416.55	2609.70
416.74	2708.00
416.93	2747.79
417.12	2663.53
417.31	2754.81
417.50	2614.38
417.69	2726.72
417.88	2759.49
418.07	2888.22
418.26	2768.85
418.45	2904.60
418.64	2918.65
418.83	3080.14
419.02	2850.77
419.21	2918.65
419.39	3049.72
419.58	2988.86
419.77	2928.01
419.96	2967.80
420.15	3068.44
420.34	2970.14
420.53	2993.55
420.72	3138.66
420.91	3061.42
421.10	3080.14
421.29	3056.74
421.48	3089.51
421.67	3171.43
421.86	3155.04
422.05	3346.97
422.24	3262.71
422.43	3243.98
422.61	3225.26
422.80	3297.81
422.99	3159.72
423.18	3222.92
423.37	3475.70
423.56	3267.39
423.75	3351.65
423.94	3234.62
424.13	3019.29
424.32	3148.02
424.50	3204.19
424.69	3262.71
424.88	3459.31
425.07	3330.58
425.26	3101.21
425.45	3251.00
425.64	3288.45
425.83	3325.90
426.01	3431.23
426.20	3377.39
426.39	3302.50
426.58	3361.01
426.77	3316.54
426.96	3407.82
427.15	3304.84
427.33	3454.63
427.52	3442.93
427.71	3478.04
427.90	3442.93
428.09	3524.85
428.28	3475.70
428.46	3578.68
428.65	3517.83
428.84	3665.28
429.03	3779.97
429.22	3590.38
429.40	3684.00
429.59	3756.56
429.78	3538.89
429.97	3447.61
430.16	3592.72
430.34	3691.02
430.53	3728.47
430.72	3758.90
430.91	3679.32
431.10	3765.92
431.28	3791.67
431.47	3850.18
431.66	3836.14
431.85	3735.50
432.03	3983.59
432.22	3948.48
432.41	3941.46
432.60	4037.42
432.79	3988.27
432.97	4241.05
433.16	3936.78
433.35	3922.74
433.54	3962.53
433.72	4060.83
433.91	3927.42
434.10	4065.51
434.28	4049.13
434.47	4049.13
434.66	4070.19
434.85	4376.80
435.03	4283.18
435.22	4351.06
435.41	4685.75
435.59	4507.87
435.78	4636.60
435.97	4395.53
436.16	4341.69
436.34	4287.86
436.53	4458.72
436.72	4514.89
436.90	4353.40
437.09	4463.40
437.28	4400.21
437.46	4479.79
437.65	4507.87
437.84	4575.75
438.02	4566.39
438.21	4573.41
438.40	4386.16
438.58	4568.73
438.77	4762.99
438.96	4545.32
439.14	4861.29
439.33	4739.58
439.52	4819.16
439.70	4748.95
439.89	4957.25
440.08	4826.18
440.26	4840.23
440.45	4830.87
440.63	5060.24
440.82	5167.90
441.01	5020.45
441.19	5125.77
441.38	5088.32
441.57	5097.69
441.75	5352.81
441.94	5348.12
442.12	5355.15
442.31	5324.72
442.50	5317.70
442.68	5385.57
442.87	5465.15
443.05	5331.74
443.24	5523.66
443.43	5493.24
443.61	5523.66
443.80	5621.97
443.98	5530.69
444.17	5195.99
444.35	5467.49
444.54	5598.56
444.73	5554.09
444.91	5673.46
445.10	5570.48
445.28	5467.49
445.47	5383.23
445.65	5483.88
445.84	5598.56
446.02	5715.59
446.21	5572.82
446.39	5528.35
446.58	5734.31
446.77	5640.69
446.95	5399.62
447.14	5586.86
447.32	5818.57
447.51	5682.82
447.69	5521.32
447.88	5659.42
448.06	5825.59
448.25	5671.12
448.43	5706.23
448.62	5563.45
448.80	5717.93
448.99	5713.25
449.17	6017.52
449.36	5764.74
449.54	5886.45
449.73	5916.87
449.91	5968.37
450.10	5928.58
450.28	5987.09
450.46	5909.85
450.65	5942.62
450.83	6059.65
451.02	6026.88
451.20	6038.58
451.39	6073.69
451.57	6054.97
451.76	6033.90
451.94	6143.91
452.13	6265.61
452.31	6106.46
452.49	6167.31
452.68	6232.85
452.86	6157.95
453.05	6235.19
453.23	6438.81
453.42	6403.71
453.60	6242.21
453.78	6293.70
453.97	6298.38
454.15	6420.09
454.34	6244.55
454.52	6361.58
454.70	6455.20
454.89	6310.08
455.07	6450.52
455.26	6429.45
455.44	6548.82
455.62	6555.84
455.81	6574.56
455.99	6787.55
456.17	6675.21
456.36	6705.63
456.54	6537.12
456.73	6820.32
456.91	6967.77
457.09	6897.56
457.28	7045.01
457.46	6850.75
457.64	7075.44
457.83	6937.35
458.01	6738.40
458.19	7049.69
458.38	6911.60
458.56	7143.32
458.74	7042.67
458.93	7166.72
459.11	7002.88
459.29	7082.46
459.48	7232.26
459.66	7080.12
459.84	7260.34
460.03	7342.26
460.21	7243.96
460.39	7250.98
460.57	7337.58
460.76	7218.21
460.94	7330.56
461.12	7185.44
461.31	7389.07
461.49	7482.69
461.67	7267.36
461.85	7517.80
462.04	7456.95
462.22	8095.91
462.40	7449.93
462.59	7641.85
462.77	7573.97
462.95	7829.09
463.13	7501.42
463.32	7639.51
463.50	7573.97
463.68	7562.27
463.86	7700.36
464.05	7726.11
464.23	7873.56
464.41	7840.79
464.59	7691.00
464.78	7875.90
464.96	7815.05
465.14	7730.79
465.32	7843.14
465.50	7896.97
465.69	7878.24
465.87	7908.67
466.05	7882.92
466.23	7983.57
466.41	7861.86
466.60	8191.88
466.78	8105.28
466.96	7875.90
467.14	7857.18
467.32	8234.00
467.51	8301.88
467.69	8091.23
467.87	8234.00
468.05	8084.21
468.23	8219.96
468.41	8128.68
468.60	8262.09
468.78	8329.97
468.96	8219.96
469.14	8383.80
469.32	8372.10
469.50	8271.45
469.69	8329.97
469.87	8535.93
470.05	8596.79
470.23	8610.83
470.41	8634.24
470.59	8557.00
470.77	8610.83
470.95	8737.22
471.14	8706.79
471.32	8557.00
471.50	8910.42
471.68	8751.26
471.86	8954.89
472.04	9034.47
472.22	9184.26
472.40	8856.59
472.58	8908.08
472.77	9092.98
472.95	9315.33
473.13	9472.15
473.31	9097.66
473.49	9263.84
473.67	9238.09
473.85	9245.12
474.03	9533.00
474.21	9444.06
474.39	9624.28
474.57	9652.37
474.75	9689.82
474.93	9898.13
475.12	9584.49
475.30	9741.31
475.48	9680.46
475.66	9816.21
475.84	9867.70
476.02	10043.24
476.20	9937.91
476.38	10122.82
476.56	10314.74
476.74	10183.67
476.92	10303.04
477.10	10387.30
477.28	10574.54
477.46	10420.06
477.64	10541.77
477.82	10684.55
478.00	10892.85
478.18	10881.15
478.36	10930.30
478.54	11108.18
478.72	11143.29
478.90	11063.71
479.08	11328.19
479.26	11337.56
479.44	11335.21
479.62	11655.87
479.80	11487.35
479.98	11585.65
480.16	11974.18
480.34	11880.56
480.52	11953.12
480.70	11927.37
480.88	11843.11
481.06	12212.92
481.24	11971.84
481.41	12283.13
481.59	12458.67
481.77	12683.36
481.95	12603.78
482.13	12554.63
482.31	12784.01
482.49	12816.77
482.67	12840.18
482.85	12896.35
483.03	13312.97
483.21	13495.53
483.39	13331.69
483.57	13687.45
483.74	13710.86
483.92	13839.59
484.10	13760.01
484.28	13998.74
484.46	14197.69
484.64	14232.80
484.82	14291.31
485.00	14174.28
485.18	14651.75
485.35	14764.10
485.53	14647.07
485.71	14686.86
485.89	14956.02
486.07	14963.04
486.25	15180.71
486.43	15330.51
486.61	15349.23
486.78	15637.12
486.96	15592.65
487.14	15800.96
487.32	15779.89
487.50	15681.59
487.68	16098.20
487.85	16198.85
488.03	16290.13
488.21	16477.37
488.39	16886.97
488.57	16910.37
488.75	16631.85
488.92	17425.29
489.10	17055.48
489.28	17301.24
489.46	17490.82
489.64	17586.79
489.81	17930.84
489.99	17722.54
490.17	17872.33
490.35	18115.75
490.53	18015.10
490.70	18192.98
490.88	17881.69
491.06	18497.25
491.24	18443.42
491.41	18579.17
491.59	18682.16
491.77	18773.44
491.95	19087.07
492.13	19080.05
492.30	19398.36
492.48	19253.25
492.66	19232.18
492.84	19704.97
493.01	19761.14
493.19	19932.00
493.37	19709.65
493.54	20240.95
493.72	20105.20
493.90	20210.53
494.08	20393.09
494.25	20439.90
494.43	20397.77
494.61	20854.17
494.79	20959.50
494.96	20898.64
495.14	21060.14
495.32	21020.35
495.49	21710.81
495.67	21259.09
495.85	21362.07
496.02	21680.38
496.20	21308.24
496.38	21771.66
496.55	21600.80
496.73	22356.80
496.91	22104.02
497.09	22237.43
497.26	22445.74
497.44	22356.80
497.62	22574.47
497.79	22778.09
497.97	22349.78
498.14	22977.04
498.32	23063.64
498.50	22799.16
498.67	23293.01
498.85	23206.41
499.03	23632.39
499.20	23934.32
499.38	23400.68
499.56	23988.15
499.73	23826.65
499.91	23868.78
500.08	24009.22
500.26	23721.33
500.44	24041.98
500.61	24142.63
500.79	24259.65
500.97	24592.01
501.14	24648.18
501.32	24769.89
501.49	24697.33
501.67	24671.59
501.84	24666.91
502.02	24971.18
502.20	24933.73
502.37	25362.04
502.55	25233.32
502.72	25151.40
502.90	25301.19
503.07	25226.29
503.25	25596.10
503.43	25418.22
503.60	25556.31
503.78	25619.50
503.95	25837.17
504.13	25687.38
504.30	25640.57
504.48	26129.74
504.65	26380.18
504.83	26441.03
505.01	26740.62
505.18	26441.03
505.36	26515.93
505.53	26511.25
505.71	26703.17
505.88	26794.45
506.06	26539.33
506.23	26934.88
506.41	26684.45
506.58	27026.17
506.76	27040.21
506.93	27110.43
507.11	26937.23
507.28	27433.42
507.46	27351.50
507.63	27129.15
507.81	27587.89
507.98	27248.52
508.16	27215.75
508.33	27613.64
508.50	27651.09
508.68	27843.01
508.85	28254.95
509.03	28095.79
509.20	27978.76
509.38	28709.01
509.55	28140.26
509.73	28697.31
509.90	28744.12
510.08	28126.22
510.25	28430.49
510.42	28606.03
510.60	29127.97
510.77	28854.12
510.95	28994.56
511.12	28950.09
511.30	29214.57
511.47	29020.30
511.64	29553.94
511.82	29385.43
511.99	29460.32
512.17	29685.01
512.34	29282.44
512.51	29825.45
512.69	29507.13
512.86	29804.38
513.04	30185.89
513.21	30000.99
513.38	30146.10
513.56	30462.07
513.73	29701.40
513.90	30391.86
514.08	30157.80
514.25	30675.06
514.43	30548.67
514.60	30644.63
514.77	30644.63
514.95	30850.60
515.12	30632.93
515.29	30527.61
515.47	30869.33
515.64	31065.93
515.81	30979.33
515.99	31157.21
516.16	31335.09
516.33	31346.79
516.51	31676.81
516.68	31405.31
516.85	31550.42
517.03	31440.42
517.20	31915.54
517.37	31742.35
517.54	31543.40
517.72	31700.22
517.89	31449.78
518.06	31981.08
518.24	31878.10
518.41	32170.66
518.58	31990.44
518.75	31915.54
518.93	32273.65
519.10	32393.01
519.27	32409.40
519.45	32297.05
519.62	32608.34
519.79	32952.40
519.96	32924.32
520.14	32900.91
520.31	32622.39
520.48	32706.65
520.65	32826.01
520.83	33102.20
521.00	33226.24
521.17	33048.36
521.34	32898.57
521.52	33315.19
521.69	33331.57
521.86	33413.49
522.03	33373.70
522.20	33596.05
522.38	33326.89
522.55	33635.84
522.72	33694.35
522.89	33544.56
523.07	33968.19
523.24	34157.78
523.41	33933.09
523.58	33970.54
523.75	34380.13
523.92	33729.46
524.10	33680.31
524.27	34455.03
524.44	34181.18
524.61	34646.95
524.78	34450.35
524.96	34668.02
525.13	34635.25
525.30	34588.44
525.47	34988.67
525.64	34686.74
525.81	34871.64
525.98	35098.67
526.16	34677.38
526.33	34969.94
526.50	35068.25
526.67	34953.56
526.84	35077.61
527.01	35168.89
527.18	35026.12
527.36	35234.42
527.53	35709.55
527.70	35789.13
527.87	35468.48
528.04	35306.98
528.21	35498.91
528.38	35777.43
528.55	35974.03
528.72	35796.15
528.89	35924.88
529.07	35775.09
529.24	35791.47
529.41	35875.73
529.58	35672.10
529.75	36018.50
529.92	35810.20
530.09	35833.60
530.26	36524.06
530.43	36304.05
530.60	36109.78
530.77	36243.20
530.94	36847.05
531.11	36163.62
531.28	36077.02
531.46	36495.97
531.63	36629.38
531.80	36570.87
531.97	37177.07
532.14	36671.51
532.31	36835.35
532.48	36641.09
532.65	37001.53
532.82	36629.38
532.99	36872.80
533.16	37127.92
533.33	37354.95
533.50	38005.62
533.67	37511.77
533.84	37439.21
534.01	37172.39
534.18	37099.83
534.35	37605.39
534.52	37408.78
534.69	37713.05
534.86	37926.04
535.03	37720.07
535.20	37785.61
535.37	37942.42
535.54	37907.32
535.71	37539.85
535.88	37872.21
536.05	38202.22
536.22	38157.75
536.38	38115.62
536.55	37912.00
536.72	38148.39
536.89	37876.89
537.06	38237.33
537.23	38298.19
537.40	37991.58
537.57	38256.06
537.74	38225.63
537.91	38635.22
538.08	38782.68
538.25	38703.10
538.42	38768.63
538.59	38719.48
538.75	38225.63
538.92	38534.58
539.09	38958.22
539.26	38738.21
539.43	38866.94
539.60	38738.21
539.77	38759.27
539.94	39119.71
540.11	38663.31
540.28	38988.64
540.44	38845.87
540.61	39009.71
540.78	39405.26
540.95	39421.64
541.12	39758.68
541.29	39707.19
541.46	39653.36
541.62	39601.86
541.79	39852.30
541.96	39299.94
542.13	39543.35
542.30	39625.27
542.47	39789.11
542.63	40119.12
542.80	39889.75
542.97	40512.33
543.14	40325.09
543.31	39793.79
543.48	40079.33
543.64	40362.54
543.81	40395.31
543.98	40287.64
544.15	40624.68
544.32	41095.13
544.48	40917.25
544.65	40584.89
544.82	40332.11
544.99	40477.22
545.16	40392.97
545.32	40671.49
545.49	41408.76
545.66	41694.30
545.83	41844.10
546.00	41607.70
546.16	41144.28
546.33	40439.78
546.50	40442.12
546.67	41097.47
546.83	40882.14
547.00	40985.12
547.17	40725.32
547.34	41067.04
547.50	40973.42
547.67	41148.96
547.84	40917.25
548.00	41387.69
548.17	41343.22
548.34	40823.62
548.51	41273.01
548.67	41041.29
548.84	41256.62
549.01	40982.78
549.18	41003.85
549.34	41256.62
549.51	41490.68
549.68	41090.44
549.84	41167.68
550.01	41736.43
550.18	41296.41
550.34	41579.62
550.51	41493.02
550.68	41584.30
550.84	41373.65
551.01	41258.96
551.18	41490.68
551.34	41174.70
551.51	41385.35
551.68	42031.34
551.84	41579.62
552.01	41612.38
552.18	41696.64
552.34	41502.38
552.51	41333.86
552.68	41708.35
552.84	41816.01
553.01	41991.55
553.18	41603.02
553.34	42096.88
553.51	41825.37
553.67	41855.80
553.84	41801.97
554.01	42457.32
554.17	41979.85
554.34	42373.06
554.51	41792.61
554.67	42546.26
554.84	42279.44
555.00	42579.03
555.17	41846.44
555.33	42363.70
555.50	41993.89
555.67	41942.40
555.83	42192.84
556.00	42089.85
556.16	42899.68
556.33	42017.30
556.50	42099.22
556.66	42321.57
556.83	42225.60
556.99	42808.40
557.16	42857.55
557.32	42375.40
557.49	42674.99
557.65	42096.88
557.82	42555.62
557.98	42232.63
558.15	42630.52
558.32	42609.45
558.48	42586.05
558.65	42679.67
558.81	42614.13
558.98	42433.91
559.14	42230.29
559.31	42309.86
559.47	42564.98
559.64	42396.46
559.80	42478.38
559.97	42930.11
560.13	42911.38
560.30	42953.51
560.46	43082.24
560.63	42995.64
560.79	42464.34
560.96	42981.60
561.12	42457.32
561.29	42927.77
561.45	42941.81
561.61	43086.92
561.78	43042.45
561.94	43075.22
562.11	42843.51
562.27	42902.02
562.44	43138.41
562.60	42539.24
562.77	42717.12
562.93	42787.33
563.10	43180.54
563.26	42862.23
563.42	43208.63
563.59	43557.37
563.75	43313.95
563.92	43201.61
564.08	43194.59
564.24	43037.77
564.41	42728.82
564.57	42965.21
564.74	43147.78
564.90	43374.81
565.07	43110.33
565.23	43189.91
565.39	43416.94
565.56	43400.55
565.72	42920.74
565.88	43456.73
566.05	43386.51
566.21	42913.72
566.38	43047.13
566.54	42953.51
566.70	43440.34
566.87	43487.15
567.03	43646.31
567.19	43803.13
567.36	43758.66
567.52	43531.62
567.68	43430.98
567.85	43192.25
568.01	43400.55
568.17	43091.60
568.34	43349.06
568.50	43658.01
568.66	43791.42
568.83	43388.85
568.99	43337.36
569.15	43714.19
569.32	43821.85
569.48	43107.99
569.64	43613.54
569.81	43040.11
569.97	43189.91
570.13	43578.43
570.30	43367.79
570.46	43852.28
570.62	43161.82
570.78	43482.47
570.95	43402.89
571.11	43416.94
571.27	42829.46
571.43	43395.87
571.60	43550.35
571.76	43367.79
571.92	43695.46
572.09	43494.18
572.25	43578.43
572.41	43665.03
572.57	43540.99
572.74	43824.19
572.90	43217.99
573.06	43761.00
573.22	43398.21
573.38	43564.39
573.55	43540.99
573.71	43983.35
573.87	43875.68
574.03	43739.93
574.20	43899.09
574.36	43339.70
574.52	43655.67
574.68	43423.96
574.84	43346.72
575.01	43871.00
575.17	43653.33
575.33	43831.21
575.49	43697.80
575.65	43796.10
575.82	43791.42
575.98	43559.71
576.14	43922.49
576.30	43871.00
576.46	43777.38
576.62	43955.26
576.79	43714.19
576.95	43798.44
577.11	43962.28
577.27	44079.31
577.43	43936.54
577.59	43821.85
577.75	43672.06
577.92	43028.41
578.08	43583.12
578.24	44107.40
578.40	44186.97
578.56	44011.43
578.72	44243.15
578.88	44130.80
579.04	43936.54
579.21	44374.22
579.37	44236.12
579.53	43786.74
579.69	43477.79
579.85	43995.05
580.01	44034.84
580.17	43409.92
580.33	43548.01
580.49	44088.67
580.65	43723.55
580.82	43594.82
580.98	43711.84
581.14	43852.28
581.30	43826.53
581.46	43381.83
581.62	43641.63
581.78	43620.56
581.94	43805.47
582.10	43452.05
582.26	44170.59
582.42	44179.95
582.58	43732.91
582.74	43491.83
582.90	43880.36
583.06	43990.37
583.22	43697.80
583.38	43847.60
583.54	43859.30
583.70	43203.95
583.86	43456.73
584.02	43592.48
584.18	43861.64
584.34	44285.28
584.50	43665.03
584.66	43882.70
584.82	43903.77
584.98	43732.91
585.14	43936.54
585.30	43863.98
585.46	43646.31
585.62	43742.27
585.78	43814.83
585.94	43831.21
586.10	44189.31
586.26	43519.92
586.42	43971.64
586.58	43906.11
586.74	43655.67
586.90	43629.93
587.06	43480.13
587.22	43924.83
587.38	43643.97
587.54	43908.45
587.70	44299.32
587.86	44208.04
588.02	44203.36
588.18	44161.23
588.34	43775.04
588.49	44009.09
588.65	43674.40
588.81	43887.39
588.97	43952.92
589.13	43971.64
589.29	44009.09
589.45	43976.33
589.61	44144.84
589.77	44404.64
589.93	43903.77
590.08	44088.67
590.24	44285.28
590.40	44025.48
590.56	44737.00
590.72	44245.49
590.88	43812.49
591.04	44114.42
591.20	44577.84
591.35	44252.51
591.51	44893.82
591.67	44442.09
591.83	44196.34
591.99	44425.71
592.15	44114.42
592.31	44194.00
592.46	43660.35
592.62	44027.82
592.78	44184.63
592.94	44086.33
593.10	43969.30
593.26	44687.85
593.41	44439.75
593.57	44460.82
593.73	44245.49
593.89	44383.58
594.05	44533.37
594.20	43873.34
594.36	43934.20
594.52	44278.25
594.68	44231.44
594.84	43908.45
594.99	44348.47
595.15	44177.61
595.31	44409.32
595.47	44201.02
595.62	44428.05
595.78	44048.88
595.94	44266.55
596.10	44357.83
596.25	43892.07
596.41	44086.33
596.57	44072.29
596.73	44348.47
596.88	44121.44
597.04	43988.03
597.20	44147.18
597.36	44126.12
597.51	44641.04
597.67	43906.11
597.83	44390.60
597.99	44392.94
598.14	44182.29
598.30	44100.37
598.46	44336.77
598.61	44116.76
598.77	43688.44
598.93	44531.03
599.09	44266.55
599.24	44261.87
599.40	44182.29
599.56	44397.62
599.71	44325.07
599.87	44526.35
600.03	44399.96
600.18	44069.95
600.34	44039.52
600.50	44364.85
600.65	44210.38
600.81	44619.97
600.97	44638.70
601.12	44662.10
601.28	44542.74
601.44	44294.64
601.59	44395.28
601.75	44311.02
601.91	44334.43
602.06	44186.97
602.22	44116.76
602.37	44114.42
602.53	44250.17
602.69	43981.01
602.84	44011.43
603.00	44027.82
603.16	44329.75
603.31	44144.84
603.47	44006.75
603.62	43550.35
603.78	44357.83
603.94	44058.24
604.09	43459.07
604.25	43842.92
604.40	44165.91
604.56	44339.11
604.71	44296.98
604.87	43936.54
605.03	44006.75
605.18	43913.13
605.34	44098.03
605.49	43826.53
605.65	43688.44
605.80	43826.53
605.96	43938.88
606.12	43409.92
606.27	43962.28
606.43	43922.49
606.58	43957.60
606.74	43903.77
606.89	43945.90
607.05	44182.29
607.20	44069.95
607.36	43573.75
607.51	43753.97
607.67	43555.03
607.82	43550.35
607.98	43831.21
608.13	43634.61
608.29	44030.16
608.44	43824.19
608.60	43393.53
608.75	43290.55
608.91	43655.67
609.06	43599.50
609.22	43847.60
609.37	43426.30
609.53	43793.76
609.68	43262.46
609.84	43470.77
609.99	43604.18
610.15	43737.59
610.30	43606.52
610.46	43587.80
610.61	44009.09
610.76	44404.64
610.92	44348.47
611.07	44526.35
611.23	44847.00
611.38	44584.86
611.54	44271.23
611.69	43824.19
611.84	43786.74
612.00	43489.49
612.15	43442.68
612.31	44076.97
612.46	43475.45
612.62	43562.05
612.77	43889.73
612.92	43957.60
613.08	43665.03
613.23	43426.30
613.39	43428.64
613.54	43503.54
613.69	43421.62
613.85	42595.41
614.00	43241.40
614.15	43058.84
614.31	43449.70
614.46	43690.78
614.62	43049.47
614.77	43428.64
614.92	42974.58
615.08	43030.75
615.23	43117.35
615.38	43136.07
615.54	43007.34
615.69	42902.02
615.84	42197.52
616.00	42759.25
616.15	42747.54
616.30	42939.47
616.46	42859.89
616.61	42829.46
616.76	42759.25
616.92	42667.97
617.07	42394.12
617.22	42553.28
617.37	42314.55
617.53	42373.06
617.68	42398.80
617.83	42389.44
617.99	42424.55
618.14	42361.36
618.29	42017.30
618.45	42281.78
618.60	42501.79
618.75	42258.37
618.90	42251.35
619.06	41897.93
619.21	42150.71
619.36	42330.93
619.51	42253.69
619.67	41975.17
619.82	41963.46
619.97	42174.11
620.12	42139.00
620.28	41916.65
620.43	42220.92
620.58	42487.74
620.73	42155.39
620.89	42333.27
621.04	42520.51
621.19	41872.18
621.34	41670.90
621.49	42153.05
621.65	41729.41
621.80	42010.28
621.95	42017.30
622.10	42080.49
622.25	42122.62
622.41	41710.69
622.56	41366.63
622.71	42389.44
622.86	41516.42
623.01	41748.14
623.16	42050.06
623.32	41434.50
623.47	41918.99
623.62	41317.48
623.77	41029.59
623.92	41216.83
624.07	41542.17
624.23	41474.29
624.38	41317.48
624.53	40903.20
624.68	41743.45
624.83	41530.47
624.98	41340.88
625.13	41130.23
625.29	41350.24
625.44	41338.54
625.59	41078.74
625.74	40952.35
625.89	40624.68
626.04	40610.64
626.19	40861.07
626.34	40882.14
626.49	41029.59
626.65	40793.20
626.80	41165.34
626.95	40973.42
627.10	40816.60
627.25	41038.95
627.40	41237.90
627.55	40697.24
627.70	40662.13
627.85	40608.29
628.00	40460.84
628.15	40919.59
628.30	40987.46
628.45	40694.89
628.60	40486.59
628.76	40690.21
628.91	40816.60
629.06	40334.45
629.21	40844.69
629.36	40280.62
629.51	40264.24
629.66	40392.97
629.81	40002.10
629.96	40172.96
630.11	40407.01
630.26	40367.22
630.41	40765.11
630.56	40250.19
630.71	40037.20
630.86	40371.90
631.01	40390.62
631.16	40840.01
631.31	40112.10
631.46	40128.48
631.61	40318.07
631.76	40067.63
631.91	40435.10
632.06	39880.39
632.21	39779.74
632.36	39475.48
632.51	39885.07
632.66	39604.20
632.81	39690.80
632.96	39800.81
633.10	39789.11
633.25	39988.05
633.40	39826.56
633.55	39641.65
633.70	39398.24
633.85	39482.50
634.00	39613.57
634.15	39501.22
634.30	39358.45
634.45	39592.50
634.60	39321.00
634.75	39562.08
634.90	39597.18
635.05	39115.03
635.19	39145.46
635.34	39805.49
635.49	39241.42
635.64	39318.66
635.79	39161.84
635.94	39274.19
636.09	38944.17
636.24	39367.81
636.39	39262.49
636.53	39358.45
636.68	39391.22
636.83	39014.39
636.98	39152.48
637.13	38895.02
637.28	39269.51
637.43	39201.63
637.57	38972.26
637.72	39260.15
637.87	39218.02
638.02	38785.02
638.17	38642.24
638.32	38773.31
638.46	38766.29
638.61	39227.38
638.76	38466.70
638.91	38389.47
639.06	38864.60
639.20	38618.84
639.35	38761.61
639.50	38337.98
639.65	38735.87
639.80	38623.52
639.94	38422.23
640.09	38621.18
640.24	38476.07
640.39	38740.55
640.54	38391.81
640.68	38403.51
640.83	38431.60
640.98	38260.74
641.13	37743.48
641.27	38590.75
641.42	38218.61
641.57	38213.93
641.72	38113.28
641.86	38377.76
642.01	37998.60
642.16	38443.30
642.31	37930.72
642.45	38377.76
642.60	37715.39
642.75	37689.65
642.90	38024.34
643.04	37626.45
643.19	37954.13
643.34	37881.57
643.48	37965.83
643.63	38087.54
643.78	38277.12
643.93	37972.85
644.07	37727.10
644.22	37860.51
644.37	37532.83
644.51	37921.36
644.66	38085.20
644.81	37869.87
644.95	37631.13
645.10	37734.12
645.25	37897.95
645.39	37624.11
645.54	37935.40
645.69	37490.70
645.83	37502.40
645.98	37397.08
646.13	37649.86
646.27	38108.60
646.42	37329.20
646.57	37448.57
646.71	37436.87
646.86	37172.39
647.00	37151.32
647.15	37401.76
647.30	36697.26
647.44	37308.14
647.59	37462.61
647.74	37322.18
647.88	37130.26
648.03	37481.34
648.17	37450.91
648.32	36781.52
648.47	37605.39
648.61	37010.89
648.76	36999.19
648.90	37254.31
649.05	37134.94
649.20	37188.77
649.34	37046.00
649.49	36704.28
649.63	36320.43
649.78	36947.70
649.92	37008.55
650.07	36657.47
650.21	36587.25
650.36	36973.44
650.51	36987.49
650.65	36802.58
650.80	36985.15
650.94	36833.01
651.09	36568.53
651.23	36421.08
651.38	36954.72
651.52	36149.57
651.67	36292.35
651.81	36620.02
651.96	36311.07
652.10	36856.42
652.25	36304.05
652.39	36741.73
652.54	36884.50
652.68	36315.75
652.83	36634.06
652.97	36629.38
653.12	36442.14
653.26	36191.70
653.41	36498.31
653.55	36287.67
653.70	36388.31
653.84	35665.08
653.99	36407.03
654.13	35997.44
654.27	36175.32
654.42	36062.97
654.56	36191.70
654.71	36374.27
654.85	36254.90
655.00	36273.62
655.14	35777.43
655.29	36048.93
655.43	36322.77
655.57	35896.80
655.72	35613.59
655.86	35611.25
656.01	35587.85
656.15	35136.12
656.30	35522.31
656.44	35433.37
656.58	35618.27
656.73	35711.89
656.87	36013.82
657.01	35805.52
657.16	35494.22
657.30	35800.83
657.45	35775.09
657.59	35857.01
657.73	35524.65
657.88	35416.99
658.02	35318.68
658.16	35391.24
658.31	35171.23
658.45	35241.45
658.60	35124.42
658.74	35093.99
658.88	35014.41
659.03	35042.50
659.17	35182.93
659.31	35140.80
659.46	35365.49
659.60	35367.84
659.74	35086.97
659.89	34780.36
660.03	35208.68
660.17	35007.39
660.32	34511.20
660.46	34724.19
660.60	34637.59
660.74	34569.71
660.89	34700.78
661.03	34511.20
661.17	34129.69
661.32	34639.93
661.46	34883.34
661.60	34433.96
661.74	34354.38
661.89	34356.72
662.03	34380.13
662.17	34632.91
662.31	34263.10
662.46	34464.39
662.60	34473.75
662.74	34052.45
662.88	33993.94
663.03	33642.86
663.17	33923.72
663.31	33462.64
663.45	33965.85
663.60	33390.08
663.74	33692.01
663.88	33942.45
664.02	33998.62
664.17	33745.84
664.31	33537.54
664.45	33780.95
664.59	33481.36
664.73	33336.25
664.88	33085.81
665.02	33156.03
665.16	32804.95
665.30	32947.72
665.44	32865.80
665.59	33226.24
665.73	33006.23
665.87	33165.39
666.01	33284.76
666.15	33209.86
666.29	33179.43
666.44	32910.27
666.58	32762.82
666.72	32933.68
666.86	32851.76
667.00	32755.80
667.14	32814.31
667.28	32645.79
667.43	32467.91
667.57	32528.77
667.71	32568.55
667.85	32128.53
667.99	32151.94
668.13	32343.86
668.27	32013.85
668.41	32105.13
668.56	31821.92
668.70	32446.85
668.84	32020.87
668.98	32238.54
669.12	32100.45
669.26	31833.63
669.40	31943.63
669.54	32091.09
669.68	31695.53
669.82	31641.70
669.96	31531.70
670.10	31243.81
670.25	31529.36
670.39	31590.21
670.53	31234.45
670.67	31580.85
670.81	31613.62
670.95	31606.59
671.09	31615.96
671.23	31363.18
671.37	31077.63
671.51	31150.19
671.65	31512.97
671.79	31281.26
671.93	30686.76
672.07	30771.02
672.21	30782.73
672.35	30541.65
672.49	30492.50
672.63	30391.86
672.77	30349.73
672.91	30375.47
673.05	30265.47
673.19	30668.04
673.33	30408.24
673.47	30455.05
673.61	30387.18
673.75	30286.53
673.89	29942.47
674.03	30043.12
674.17	29851.19
674.31	29898.00
674.45	29991.62
674.59	29743.53
674.73	29642.88
674.87	29401.81
675.01	29521.18
675.15	29099.88
675.29	29369.04
675.43	29355.00
675.56	29497.77
675.70	29481.39
675.84	29376.06
675.98	28343.89
676.12	29144.35
676.26	29427.56
676.40	29198.18
676.54	29041.37
676.68	29001.58
676.82	28470.28
676.96	28498.36
677.10	28254.95
677.23	28271.33
677.37	28386.02
677.51	28093.45
677.65	28236.22
677.79	28109.83
677.93	28151.96
678.07	27899.19
678.21	27840.67
678.34	27653.43
678.48	27646.41
678.62	27536.40
678.76	27328.10
678.90	27407.67
679.04	27531.72
679.18	27077.66
679.31	26977.01
679.45	27037.87
679.59	26602.53
679.73	26724.24
679.87	26675.09
680.00	26955.95
680.14	26831.90
680.28	26780.41
680.42	26611.89
680.56	26391.88
680.70	26216.34
680.83	26417.63
680.97	26127.40
681.11	26717.22
681.25	26221.02
681.39	26520.61
681.52	25935.48
681.66	26157.83
681.80	25876.96
681.94	25940.16
682.07	25724.83
682.21	25656.95
682.35	25724.83
682.49	25343.32
682.62	25537.59
682.76	25390.13
682.90	25450.99
683.04	25322.26
683.17	24919.68
683.31	24996.92
683.45	25109.27
683.59	25298.85
683.72	24673.93
683.86	24397.74
684.00	24493.71
684.13	24926.71
684.27	24161.35
684.41	24517.11
684.55	24320.51
684.68	23887.51
684.82	24018.58
684.96	23950.70
685.09	23814.95
685.23	23424.08
685.37	23819.63
685.50	23981.13
685.64	24189.44
685.78	23442.81
685.91	23592.60
686.05	23665.16
686.19	23559.83
686.32	23229.82
686.46	23122.15
686.60	23112.79
686.73	22740.64
686.87	23101.09
687.01	22820.22
687.14	22583.83
687.28	22726.60
687.42	22541.70
687.55	22752.35
687.69	23077.68
687.82	22394.25
687.96	22223.39
688.10	22211.68
688.23	22199.98
688.37	22410.63
688.50	21862.94
688.64	22143.81
688.78	21900.39
688.91	21825.50
689.05	21837.20
689.18	21600.80
689.32	21186.53
689.46	21432.29
689.59	21647.61
689.73	21514.20
689.86	21427.60
690.00	21238.02
690.13	21062.48
690.27	21326.96
690.41	21235.68
690.54	20779.28
690.68	21074.18
690.81	20943.11
690.95	20655.23
691.08	20950.14
691.22	20711.40
691.35	20533.52
691.49	20636.50
691.62	20348.62
691.76	20486.71
691.89	20039.67
692.03	20018.60
692.16	19917.96
692.30	19913.28
692.43	19592.62
692.57	19613.69
692.70	19480.28
692.84	19681.56
692.97	19510.71
693.11	19489.64
693.24	19063.66
693.38	19545.81
693.51	19136.22
693.65	19325.80
693.78	19548.15
693.92	19384.32
694.05	19061.32
694.19	19061.32
694.32	18958.34
694.45	18661.09
694.59	18558.11
694.72	18853.02
694.86	18256.18
694.99	18277.24
695.13	18368.52
695.26	18352.14
695.39	18160.22
695.53	18183.62
695.66	18097.02
695.80	18354.48
695.93	18256.18
696.07	17888.71
696.20	17916.80
696.33	17867.65
696.47	17846.58
696.60	17694.45
696.73	17673.39
696.87	17434.65
697.00	17270.81
697.14	17355.07
697.27	17259.11
697.40	17001.65
697.54	17025.06
697.67	17156.13
697.80	16910.37
697.94	16528.86
698.07	16812.07
698.21	16863.56
698.34	16816.75
698.47	16833.13
698.61	16325.24
698.74	16641.21
698.87	16587.38
699.01	16170.76
699.14	16477.37
699.27	16060.76
699.40	16482.05
699.54	15967.13
699.67	16006.92
699.80	15709.68
699.94	15576.27
700.07	15730.74
700.20	15482.64
700.34	15384.34
700.47	15496.69
700.60	15260.29
700.73	15531.80
700.87	15482.64
701.00	15302.42
701.13	15342.21
701.26	15412.43
701.40	15272.00
701.53	14981.77
701.66	15110.50
701.79	14897.51
701.93	15073.05
702.06	14675.16
702.19	14724.31
702.32	14675.16
702.46	14628.35
702.59	14431.74
702.72	14462.17
702.85	14249.18
702.99	14281.95
703.12	14106.41
703.25	13987.04
703.38	14345.14
703.51	14057.26
703.65	14300.67
703.78	14078.32
703.91	13998.74
704.04	13858.31
704.17	13909.80
704.31	13811.50
704.44	13839.59
704.57	13561.06
704.70	13406.59
704.83	13158.49
704.96	13310.63
705.10	13268.50
705.23	13319.99
>>>>>End Processed Spectral Data<<<<<
