SpectraSuite Data File
++++++++++++++++++++++++++++++++++++
Date: Fri Oct 04 11:39:47 GMT-05:00 2013
User: price-jones
Dark Spectrum Present: No
Reference Spectrum Present: No
Number of Sampled Component Spectra: 1
Spectrometers: USB2+H05261
Integration Time (usec): 100000 (USB2+H05261)
Spectra Averaged: 1 (USB2+H05261)
Boxcar Smoothing: 0 (USB2+H05261)
Correct for Electrical Dark: No (USB2+H05261)
Strobe/Lamp Enabled: No (USB2+H05261)
Correct for Detector Non-linearity: No (USB2+H05261)
Correct for Stray Light: No (USB2+H05261)
Number of Pixels in Processed Spectrum: 2048
>>>>>Begin Processed Spectral Data<<<<<
365.73	93.62
365.92	93.62
366.12	93.62
366.32	0.00
366.52	0.00
366.72	0.00
366.91	0.00
367.11	0.00
367.31	0.00
367.51	0.00
367.70	0.00
367.90	9.36
368.10	0.00
368.30	0.00
368.49	0.00
368.69	0.00
368.89	4.68
369.09	0.00
369.28	0.00
369.48	0.00
369.68	11.70
369.87	0.00
370.07	37.45
370.27	63.19
370.47	126.39
370.66	451.72
370.86	500.87
371.06	498.53
371.25	610.88
371.45	571.09
371.65	601.52
371.84	479.81
372.04	599.18
372.24	564.07
372.44	592.16
372.63	507.90
372.83	734.93
373.03	594.50
373.22	660.03
373.42	669.39
373.62	683.44
373.81	697.48
374.01	763.01
374.21	699.82
374.40	753.65
374.60	795.78
374.79	702.16
374.99	706.84
375.19	763.01
375.38	772.38
375.58	800.46
375.78	851.96
375.97	744.29
376.17	854.30
376.37	786.42
376.56	739.61
376.76	791.10
376.95	809.83
377.15	830.89
377.35	833.23
377.54	758.33
377.74	840.25
377.93	814.51
378.13	835.57
378.33	877.70
378.52	905.79
378.72	905.79
378.91	915.15
379.11	842.59
379.31	910.47
379.50	870.68
379.70	922.17
379.89	926.85
380.09	898.77
380.28	868.34
380.48	971.32
380.68	952.60
380.87	961.96
381.07	936.21
381.26	1006.43
381.46	971.32
381.65	987.71
381.85	1013.45
382.04	1032.18
382.24	1104.73
382.43	1114.10
382.63	1062.60
382.83	1013.45
383.02	1029.84
383.22	1165.59
383.41	1104.73
383.61	1057.92
383.80	1104.73
384.00	1102.39
384.19	1107.07
384.39	1128.14
384.58	1158.57
384.78	1078.99
384.97	1184.31
385.17	1146.86
385.36	1149.20
385.56	1214.74
385.75	1153.88
385.95	1228.78
386.14	1160.91
386.34	1135.16
386.53	1151.54
386.72	1128.14
386.92	1273.25
387.11	1256.87
387.31	1301.34
387.50	1191.33
387.70	1313.04
387.89	1350.49
388.09	1322.40
388.28	1261.55
388.48	1348.15
388.67	1284.95
388.86	1348.15
389.06	1327.08
389.25	1387.94
389.45	1301.34
389.64	1404.32
389.84	1434.75
390.03	1364.53
390.22	1357.51
390.42	1338.79
390.61	1432.41
390.81	1504.96
391.00	1465.18
391.19	1390.28
391.39	1441.77
391.58	1462.83
391.78	1577.52
391.97	1586.88
392.16	1467.52
392.36	1575.18
392.55	1605.61
392.75	1547.09
392.94	1540.07
393.13	1558.80
393.33	1629.01
393.52	1619.65
393.71	1802.21
393.91	1614.97
394.10	1652.42
394.29	1715.61
394.49	1563.48
394.68	1755.40
394.88	1785.83
395.07	1827.96
395.26	1762.42
395.46	1699.23
395.65	1827.96
395.84	1778.81
396.04	1865.41
396.23	1860.73
396.42	1795.19
396.62	1893.49
396.81	1898.17
397.00	1886.47
397.19	1853.70
397.39	1916.90
397.58	2111.16
397.77	2026.90
397.97	1947.33
398.16	1989.46
398.35	2047.97
398.55	2125.21
398.74	2094.78
398.93	2108.82
399.12	2143.93
399.32	2132.23
399.51	2036.27
399.70	2078.40
399.90	2064.35
400.09	2223.51
400.28	2293.72
400.47	2303.09
400.67	2172.02
400.86	2190.74
401.05	2200.10
401.24	2193.08
401.44	2291.38
401.63	2230.53
401.82	2333.51
402.01	2214.15
402.21	2359.26
402.40	2328.83
402.59	2303.09
402.78	2324.15
402.97	2448.20
403.17	2649.49
403.36	2574.59
403.55	2422.45
403.74	2450.54
403.93	2626.08
404.13	2619.06
404.32	2527.78
404.51	2579.27
404.70	2684.59
404.89	2682.25
405.09	2806.30
405.28	2572.25
405.47	2710.34
405.66	2698.64
405.85	2839.07
406.05	2794.60
406.24	2829.71
406.43	2768.85
406.62	2810.98
406.81	2878.86
407.00	2766.51
407.20	2895.24
407.39	2979.50
407.58	3023.97
407.77	2977.16
407.96	3026.31
408.15	3019.29
408.34	3089.51
408.54	3075.46
408.73	3094.19
408.92	3155.04
409.11	3054.40
409.30	3145.68
409.49	3199.51
409.68	3255.69
409.87	3323.56
410.07	3391.44
410.26	3400.80
410.45	3353.99
410.64	3520.17
410.83	3445.27
411.02	3433.57
411.21	3473.36
411.40	3541.23
411.59	3590.38
411.78	3496.76
411.98	3534.21
412.17	3566.98
412.36	3768.26
412.55	3796.35
412.74	3749.54
412.93	3786.99
413.12	3779.97
413.31	3859.54
413.50	3782.31
413.69	3904.01
413.88	3995.29
414.07	4049.13
414.26	4124.02
414.45	4189.56
414.64	4002.32
414.83	4222.33
415.02	4135.73
415.22	4337.01
415.41	4278.50
415.60	4351.06
415.79	4484.47
415.98	4503.19
416.17	4440.00
416.36	4514.89
416.55	4587.45
416.74	4704.48
416.93	4519.57
417.12	4557.02
417.31	4854.27
417.50	4844.91
417.69	4835.55
417.88	4844.91
418.07	4835.55
418.26	4924.49
418.45	4905.76
418.64	5074.28
418.83	5064.92
419.02	5146.84
419.21	5041.51
419.39	5252.16
419.58	4992.36
419.77	5088.32
419.96	5256.84
420.15	5128.11
420.34	5165.56
420.53	5228.76
420.72	5596.22
420.91	5364.51
421.10	5518.98
421.29	5476.85
421.48	5338.76
421.67	5483.88
421.86	5528.35
422.05	5638.35
422.24	5481.53
422.43	5626.65
422.61	5643.03
422.80	5563.45
422.99	5715.59
423.18	5682.82
423.37	5643.03
423.56	5664.10
423.75	5624.31
423.94	5528.35
424.13	5200.67
424.32	5631.33
424.50	5755.38
424.69	5696.86
424.88	5701.54
425.07	5638.35
425.26	5586.86
425.45	5727.29
425.64	5811.55
425.83	5715.59
426.01	5891.13
426.20	5673.46
426.39	5989.43
426.58	5760.06
426.77	5879.43
426.96	5888.79
427.15	5933.26
427.33	5858.36
427.52	6036.24
427.71	6059.65
427.90	5909.85
428.09	6087.73
428.28	6010.50
428.46	6265.61
428.65	6108.80
428.84	6274.98
429.03	6457.54
429.22	6099.44
429.40	6389.66
429.59	6303.06
429.78	6197.74
429.97	6272.64
430.16	6333.49
430.34	6452.86
430.53	6457.54
430.72	6696.27
430.91	6457.54
431.10	6331.15
431.28	6499.67
431.47	6764.15
431.66	6834.36
431.85	6654.14
432.03	6860.11
432.22	6874.15
432.41	6789.89
432.60	7124.59
432.79	6775.85
432.97	7061.40
433.16	6944.37
433.35	7009.90
433.54	7042.67
433.72	6986.50
433.91	7030.97
434.10	7140.97
434.28	7136.29
434.47	7248.64
434.66	7206.51
434.85	7225.23
435.03	7389.07
435.22	7569.29
435.41	7852.50
435.59	7873.56
435.78	7609.08
435.97	7651.21
436.16	7695.68
436.34	7606.74
436.53	7667.60
436.72	7606.74
436.90	7672.28
437.09	7550.57
437.28	7578.65
437.46	7632.49
437.65	7651.21
437.84	7934.42
438.02	8016.33
438.21	8072.51
438.40	7747.17
438.58	8098.25
438.77	8119.32
438.96	8135.70
439.14	8325.29
439.33	8152.09
439.52	8587.43
439.70	8622.53
439.89	8507.85
440.08	8688.07
440.26	8615.51
440.45	8592.11
440.63	8889.35
440.82	8908.08
441.01	8802.75
441.19	8975.95
441.38	8922.12
441.57	9050.85
441.75	9214.69
441.94	9308.31
442.12	9242.78
442.31	9614.92
442.50	9549.39
442.68	9364.48
442.87	9530.66
443.05	9437.04
443.24	9624.28
443.43	9603.22
443.61	9692.16
443.80	10038.56
443.98	9577.47
444.17	9341.08
444.35	9542.36
444.54	9923.87
444.73	9811.53
444.91	9928.55
445.10	9872.38
445.28	9914.51
445.47	9703.86
445.65	9706.20
445.84	9654.71
446.02	10057.28
446.21	10073.67
446.39	9832.59
446.58	10038.56
446.77	9933.23
446.95	9666.41
447.14	9888.76
447.32	10178.99
447.51	9984.73
447.69	9839.61
447.88	10272.61
448.06	9982.38
448.25	9888.76
448.43	10083.03
448.62	10026.86
448.80	10085.37
448.99	10057.28
449.17	10352.19
449.36	10136.86
449.54	10532.41
449.73	10534.75
449.91	10520.71
450.10	10647.10
450.28	10710.29
450.46	10448.15
450.65	10677.52
450.83	10546.45
451.02	10721.99
451.20	10890.51
451.39	10846.04
451.57	10946.69
451.76	10747.74
451.94	10630.71
452.13	11052.01
452.31	11035.63
452.49	10906.90
452.68	11052.01
452.86	11047.33
453.05	11173.72
453.23	11283.72
453.42	10930.30
453.60	10981.79
453.78	11143.29
453.97	11138.61
454.15	11318.83
454.34	11234.57
454.52	11641.82
454.70	11503.73
454.89	11459.26
455.07	11564.59
455.26	11637.14
455.44	11754.17
455.62	11754.17
455.81	11634.80
455.99	11800.98
456.17	11971.84
456.36	11742.47
456.54	12013.97
456.73	12074.82
456.91	12531.23
457.09	12489.10
457.28	12507.82
457.46	12245.68
457.64	12592.08
457.83	12306.54
458.01	12327.60
458.19	12533.57
458.38	12585.06
458.56	12746.56
458.74	12645.91
458.93	12723.15
459.11	12938.48
459.29	12657.62
459.48	12868.27
459.66	12547.61
459.84	13004.02
460.03	13266.16
460.21	12865.92
460.39	13032.10
460.57	13004.02
460.76	13207.64
460.94	13198.28
461.12	13135.09
461.31	13172.54
461.49	13366.80
461.67	13092.96
461.85	13493.19
462.04	13493.19
462.22	13977.68
462.40	13635.96
462.59	13504.89
462.77	13902.78
462.95	13900.44
463.13	13685.11
463.32	13673.41
463.50	13844.27
463.68	14171.94
463.86	14106.41
464.05	14001.08
464.23	13862.99
464.41	13982.36
464.59	13743.63
464.78	14401.32
464.96	13942.57
465.14	13905.12
465.32	14286.63
465.50	14406.00
465.69	14623.67
465.87	14251.52
466.05	14464.51
466.23	14366.21
466.41	14420.04
466.60	15030.92
466.78	14558.13
466.96	14593.24
467.14	14647.07
467.32	14618.99
467.51	14977.09
467.69	14403.66
467.87	14862.40
468.05	14888.15
468.23	14508.98
468.41	14682.18
468.60	15026.24
468.78	14981.77
468.96	15082.41
469.14	15131.56
469.32	15267.31
469.50	15037.94
469.69	15613.71
469.87	15822.02
470.05	15765.85
470.23	15552.86
470.41	15513.07
470.59	15681.59
470.77	15524.77
470.95	15854.79
471.14	16116.93
471.32	15737.76
471.50	16306.51
471.68	15899.26
471.86	16219.91
472.04	16379.07
472.22	16868.24
472.40	16217.57
472.58	16594.40
472.77	16776.96
472.95	16980.59
473.13	17310.60
473.31	17067.19
473.49	16868.24
473.67	16884.62
473.85	17156.13
474.03	17343.37
474.21	17207.62
474.39	17273.15
474.57	17731.90
474.75	17778.71
474.93	17605.51
475.12	17837.22
475.30	17977.65
475.48	18185.96
475.66	18097.02
475.84	18157.88
476.02	18501.93
476.20	18324.05
476.38	18726.63
476.56	18838.97
476.74	19365.59
476.92	18752.37
477.10	18801.52
477.28	19491.98
477.46	19398.36
477.64	19171.33
477.82	19983.49
478.00	20219.89
478.18	20264.36
478.36	20198.82
478.54	20528.84
478.72	20500.75
478.90	20812.04
479.08	21123.33
479.26	21191.21
479.44	21195.89
479.62	21469.73
479.80	21476.76
479.98	21727.19
480.16	21982.31
480.34	21874.65
480.52	22530.00
480.70	22380.20
480.88	22001.04
481.06	22436.38
481.24	22469.14
481.41	22679.79
481.59	23206.41
481.77	23241.52
481.95	23152.58
482.13	23927.30
482.31	23482.59
482.49	24348.59
482.67	24467.96
482.85	24526.47
483.03	24968.84
483.21	24999.26
483.39	25317.57
483.57	25177.14
483.74	25572.69
483.92	25589.08
484.10	25607.80
484.28	26078.25
484.46	26394.22
484.64	27101.06
484.82	26405.92
485.00	26773.39
485.18	27201.71
485.35	27309.37
485.53	27222.77
485.71	27833.65
485.89	28173.03
486.07	28196.43
486.25	28105.15
486.43	28479.64
486.61	28645.82
486.78	28861.15
486.96	29249.67
487.14	29741.19
487.32	29511.81
487.50	29869.92
487.68	29752.89
487.85	30534.63
488.03	31009.76
488.21	31246.15
488.39	31283.60
488.57	31419.35
488.75	31793.84
488.92	31744.69
489.10	32112.15
489.28	32474.93
489.46	32807.29
489.64	32706.65
489.81	33542.22
489.99	33055.39
490.17	33649.88
490.35	33706.05
490.53	33666.27
490.70	34312.25
490.88	34132.03
491.06	34380.13
491.24	34323.96
491.41	34792.06
491.59	35276.55
491.77	35337.41
491.95	35550.40
492.13	35597.21
492.30	35913.18
492.48	35981.06
492.66	35981.06
492.84	36123.83
493.01	36989.83
493.19	37413.46
493.37	37399.42
493.54	37528.15
493.72	37773.91
493.90	37752.84
494.08	37834.76
494.25	38569.69
494.43	38635.22
494.61	39058.86
494.79	39150.14
494.96	39030.77
495.14	39021.41
495.32	39643.99
495.49	39751.66
495.67	40098.06
495.85	40514.67
496.02	40540.42
496.20	40685.53
496.38	40575.53
496.55	40776.81
496.73	41851.12
496.91	41734.09
497.09	42047.72
497.26	41771.54
497.44	41481.31
497.62	41998.57
497.79	42588.39
497.97	42546.26
498.14	43180.54
498.32	43269.48
498.50	43157.14
498.67	44046.54
498.85	43054.15
499.03	43622.90
499.20	43938.88
499.38	43866.32
499.56	44491.24
499.73	44598.91
499.91	45130.21
500.08	45186.38
500.26	44339.11
500.44	44800.19
500.61	45081.06
500.79	45078.72
500.97	45296.39
501.14	45902.59
501.32	46092.17
501.49	45750.45
501.67	45682.58
501.84	45841.73
502.02	46103.87
502.20	46780.29
502.37	46726.46
502.55	46850.50
502.72	46796.67
502.90	46745.18
503.07	46906.68
503.25	47119.66
503.43	47152.43
503.60	47718.84
503.78	47749.27
503.95	47725.86
504.13	47812.46
504.30	47995.03
504.48	47758.63
504.65	48114.39
504.83	48472.49
505.01	48856.34
505.18	48271.21
505.36	49263.60
505.53	49050.61
505.71	49312.75
505.88	49256.57
506.06	48823.58
506.23	49558.50
506.41	49495.31
506.58	49993.84
506.76	49570.21
506.93	49902.56
507.11	49448.50
507.28	50052.36
507.46	50075.76
507.63	50178.75
507.81	50960.48
507.98	50115.55
508.16	50195.13
508.33	50553.23
508.50	50703.03
508.68	50728.77
508.85	51042.40
509.03	50916.01
509.20	51285.82
509.38	51622.86
509.55	51419.23
509.73	51760.95
509.90	51571.36
510.08	51194.54
510.25	51620.52
510.42	51852.23
510.60	52367.15
510.77	52203.31
510.95	52046.49
511.12	51646.26
511.30	52062.88
511.47	52523.96
511.64	52479.49
511.82	52774.40
511.99	52846.96
512.17	53078.67
512.34	52739.29
512.51	53116.12
512.69	53195.70
512.86	53195.70
513.04	53553.80
513.21	53509.33
513.38	53628.69
513.56	53609.97
513.73	53609.97
513.90	53815.94
514.08	53680.19
514.25	53694.23
514.43	54152.97
514.60	53947.01
514.77	54115.53
514.95	54136.59
515.12	54082.76
515.29	54082.76
515.47	54330.86
515.64	54705.34
515.81	54279.36
515.99	54831.73
516.16	54796.62
516.33	54780.24
516.51	54850.45
516.68	54864.50
516.85	54845.77
517.03	55030.68
517.20	55430.91
517.37	55131.32
517.54	55348.99
517.72	55267.07
517.89	55196.85
518.06	55679.00
518.24	55309.20
518.41	55337.29
518.58	55346.65
518.75	55398.14
518.93	55889.65
519.10	55592.40
519.27	56048.81
519.45	55655.60
519.62	55835.82
519.79	56046.47
519.96	56086.26
520.14	56168.18
520.31	56020.72
520.48	56360.10
520.65	56046.47
520.83	56589.47
521.00	56294.56
521.17	56341.38
521.34	56561.39
521.52	56500.53
521.69	56720.54
521.86	56774.37
522.03	57066.94
522.20	57045.88
522.38	57120.77
522.55	56889.06
522.72	56722.88
522.89	56891.40
523.07	57085.67
523.24	57354.83
523.41	57478.88
523.58	57062.26
523.75	57396.96
523.92	57137.16
524.10	57172.27
524.27	57403.98
524.44	57600.58
524.61	57815.91
524.78	57724.63
524.96	57701.23
525.13	57874.43
525.30	57801.87
525.47	57890.81
525.64	57855.70
525.81	58073.37
525.98	58138.91
526.16	58174.02
526.33	58134.23
526.50	58267.64
526.67	58073.37
526.84	58333.17
527.01	58232.53
527.18	58375.30
527.36	58412.75
527.53	58646.80
527.70	58745.11
527.87	58789.58
528.04	58387.00
528.21	58511.05
528.38	58494.67
528.55	58838.73
528.72	58756.81
528.89	58990.86
529.07	58922.99
529.24	58899.58
529.41	59011.93
529.58	58684.25
529.75	59030.65
529.92	58901.92
530.09	58862.13
530.26	59168.74
530.43	59346.62
530.60	59063.42
530.77	59367.69
530.94	59566.63
531.11	59173.42
531.28	59086.82
531.46	59316.20
531.63	59458.97
531.80	59442.59
531.97	59695.36
532.14	59587.70
532.31	59538.55
532.48	59576.00
532.65	59810.05
532.82	59751.54
532.99	59590.04
533.16	59730.47
533.33	59936.44
533.50	60044.10
533.67	59971.55
533.84	59927.08
534.01	59840.48
534.18	59749.20
534.35	60137.72
534.52	59931.76
534.69	60144.75
534.86	60212.62
535.03	60123.68
535.20	60243.05
535.37	60367.10
535.54	60266.45
535.71	60240.71
535.88	60341.35
536.05	60404.55
536.22	60591.79
536.38	60453.70
536.55	60570.72
536.72	60699.45
536.89	60589.45
537.06	60481.78
537.23	60776.69
537.40	60580.09
537.57	60647.96
537.74	60636.26
537.91	61080.96
538.08	61020.11
538.25	60772.01
538.42	60755.63
538.59	60963.93
538.75	60694.77
538.92	60823.50
539.09	60910.10
539.26	61172.24
539.43	61125.43
539.60	61162.88
539.77	61221.39
539.94	61469.49
540.11	61216.71
540.28	61293.95
540.44	61160.54
540.61	61151.18
540.78	61375.87
540.95	61345.44
541.12	61542.05
541.29	61563.11
541.46	61546.73
541.62	61516.30
541.79	61530.34
541.96	61279.91
542.13	61588.86
542.30	61694.18
542.47	61675.46
542.63	61872.06
542.80	62012.49
542.97	62021.86
543.14	62073.35
543.31	61984.41
543.48	62026.54
543.64	62145.90
543.81	62169.31
543.98	62307.40
544.15	62408.04
544.32	62337.83
544.48	62335.49
544.65	62347.19
544.82	62480.60
544.99	62085.05
545.16	62134.20
545.32	62234.84
545.49	62752.10
545.66	62688.91
545.83	62787.21
546.00	62848.06
546.16	62726.36
546.33	62293.36
546.50	62361.23
546.67	62415.07
546.83	62223.14
547.00	62429.11
547.17	62651.46
547.34	62707.63
547.50	62777.85
547.67	62784.87
547.84	62908.92
548.00	62831.68
548.17	62761.47
548.34	62740.40
548.51	62869.13
548.67	63089.14
548.84	62920.62
549.01	62955.73
549.18	62857.43
549.34	62761.47
549.51	62918.28
549.68	63028.29
549.84	62838.70
550.01	62981.48
550.18	63037.65
550.34	63302.13
550.51	63152.33
550.68	63271.70
550.84	63166.38
551.01	63079.78
551.18	62894.88
551.34	63063.39
551.51	63068.08
551.68	63133.61
551.84	63178.08
552.01	63281.06
552.18	63433.20
552.34	63236.59
552.51	63515.12
552.68	63337.24
552.84	63313.83
553.01	63547.89
553.18	63302.13
553.34	63559.59
553.51	63344.26
553.67	63472.99
553.84	63870.88
554.01	63641.51
554.17	63650.87
554.34	63664.91
554.51	63653.21
554.67	63629.80
554.84	63622.78
555.00	63667.25
555.17	63898.97
555.33	63786.62
555.50	63681.30
555.67	63695.34
555.83	63702.36
556.00	63723.43
556.16	63732.79
556.33	63810.03
556.50	63669.59
556.66	64023.01
556.83	63849.81
556.99	63889.60
557.16	64135.36
557.32	63922.37
557.49	63966.84
557.65	64037.06
557.82	63964.50
557.98	63973.86
558.15	63994.93
558.32	64254.73
558.48	64118.98
558.65	64177.49
558.81	64207.92
558.98	64163.45
559.14	64097.91
559.31	64123.66
559.47	63999.61
559.64	64172.81
559.80	64196.21
559.97	64317.92
560.13	64104.93
560.30	64306.22
560.46	64308.56
560.63	64353.03
560.79	64268.77
560.96	64245.36
561.12	64261.75
561.29	64203.24
561.45	64367.07
561.61	64505.16
561.78	64441.97
561.94	64423.25
562.11	64589.42
562.27	64460.69
562.44	64470.06
562.60	64659.64
562.77	64587.08
562.93	64493.46
563.10	64706.45
563.26	64395.16
563.42	64762.62
563.59	64624.53
563.75	64645.60
563.92	64795.39
564.08	64610.49
564.24	64596.45
564.41	64610.49
564.57	64528.57
564.74	64654.96
564.90	64617.51
565.07	64839.86
565.23	64753.26
565.39	64659.64
565.56	64704.11
565.72	64736.88
565.88	64774.33
566.05	64793.05
566.21	64690.07
566.38	64788.37
566.54	64678.36
566.70	64874.97
566.87	64980.29
567.03	64907.74
567.19	64931.14
567.36	64942.84
567.52	64760.28
567.68	64683.04
567.85	64701.77
568.01	64917.10
568.17	64734.54
568.34	64989.66
568.50	64837.52
568.66	64835.18
568.83	64928.80
568.99	64933.48
569.15	64889.01
569.32	64739.22
569.48	64802.41
569.64	64992.00
569.81	64891.35
569.97	64886.67
570.13	64980.29
570.30	64935.82
570.46	65020.08
570.62	64959.23
570.78	64867.95
570.95	64828.16
571.11	64996.68
571.27	64874.97
571.43	64966.25
571.60	65015.40
571.76	64865.61
571.92	65062.21
572.09	65162.85
572.25	65200.30
572.41	64898.37
572.57	65113.70
572.74	65137.11
572.90	65249.45
573.06	65272.86
573.22	64996.68
573.38	65155.83
573.55	65160.51
573.71	65513.94
573.87	65223.71
574.03	65181.58
574.20	65204.98
574.36	65148.81
574.52	65031.78
574.68	65228.39
574.84	65162.85
575.01	65338.40
575.17	65291.58
575.33	65165.20
575.49	65123.07
575.65	65408.61
575.82	65364.14
575.98	65270.52
576.14	65340.74
576.30	65307.97
576.46	65130.09
576.62	65240.09
576.79	65197.96
576.95	65134.77
577.11	65434.36
577.27	65303.29
577.43	65214.35
577.59	65343.08
577.75	65406.27
577.92	65228.39
578.08	65230.73
578.24	65097.32
578.40	65228.39
578.56	65207.32
578.72	65485.85
578.88	65532.66
579.04	65345.42
579.21	65307.97
579.37	65485.85
579.53	65535.00
579.69	65193.28
579.85	65322.01
580.01	65319.67
580.17	65286.90
580.33	65357.12
580.49	65462.44
580.65	65392.23
580.82	65535.00
580.98	65336.05
581.14	65535.00
581.30	65434.36
581.46	65366.48
581.62	65261.16
581.78	65336.05
581.94	65535.00
582.10	65427.34
582.26	65434.36
582.42	65535.00
582.58	65535.00
582.74	65408.61
582.90	65535.00
583.06	65535.00
583.22	65460.10
583.38	65516.28
583.54	65265.84
583.70	65403.93
583.86	65535.00
584.02	65436.70
584.18	65535.00
584.34	65535.00
584.50	65535.00
584.66	65511.59
584.82	65380.52
584.98	65527.98
585.14	65535.00
585.30	65366.48
585.46	65429.68
585.62	65317.33
585.78	65535.00
585.94	65322.01
586.10	65488.19
586.26	65535.00
586.42	65535.00
586.58	65535.00
586.74	65535.00
586.90	65523.30
587.06	65525.64
587.22	65535.00
587.38	65535.00
587.54	65535.00
587.70	65535.00
587.86	65535.00
588.02	65535.00
588.18	65535.00
588.34	65535.00
588.49	65535.00
588.65	65535.00
588.81	65535.00
588.97	65535.00
589.13	65535.00
589.29	65535.00
589.45	65535.00
589.61	65535.00
589.77	65535.00
589.93	65535.00
590.08	65535.00
590.24	65535.00
590.40	65535.00
590.56	65535.00
590.72	65535.00
590.88	65535.00
591.04	65535.00
591.20	65535.00
591.35	65535.00
591.51	65535.00
591.67	65535.00
591.83	65535.00
591.99	65535.00
592.15	65535.00
592.31	65535.00
592.46	65535.00
592.62	65535.00
592.78	65535.00
592.94	65535.00
593.10	65535.00
593.26	65535.00
593.41	65535.00
593.57	65535.00
593.73	65535.00
593.89	65535.00
594.05	65535.00
594.20	65535.00
594.36	65535.00
594.52	65535.00
594.68	65535.00
594.84	65535.00
594.99	65535.00
595.15	65535.00
595.31	65535.00
595.47	65535.00
595.62	65535.00
595.78	65535.00
595.94	65535.00
596.10	65535.00
596.25	65535.00
596.41	65535.00
596.57	65535.00
596.73	65535.00
596.88	65535.00
597.04	65535.00
597.20	65535.00
597.36	65535.00
597.51	65535.00
597.67	65535.00
597.83	65535.00
597.99	65535.00
598.14	65535.00
598.30	65535.00
598.46	65535.00
598.61	65535.00
598.77	65535.00
598.93	65535.00
599.09	65535.00
599.24	65535.00
599.40	65535.00
599.56	65535.00
599.71	65535.00
599.87	65535.00
600.03	65535.00
600.18	65535.00
600.34	65535.00
600.50	65535.00
600.65	65535.00
600.81	65535.00
600.97	65535.00
601.12	65535.00
601.28	65535.00
601.44	65535.00
601.59	65535.00
601.75	65535.00
601.91	65535.00
602.06	65535.00
602.22	65535.00
602.37	65535.00
602.53	65535.00
602.69	65535.00
602.84	65535.00
603.00	65535.00
603.16	65535.00
603.31	65535.00
603.47	65535.00
603.62	65535.00
603.78	65535.00
603.94	65535.00
604.09	65535.00
604.25	65535.00
604.40	65535.00
604.56	65535.00
604.71	65535.00
604.87	65535.00
605.03	65535.00
605.18	65535.00
605.34	65535.00
605.49	65535.00
605.65	65535.00
605.80	65535.00
605.96	65535.00
606.12	65535.00
606.27	65535.00
606.43	65535.00
606.58	65535.00
606.74	65535.00
606.89	65535.00
607.05	65535.00
607.20	65535.00
607.36	65535.00
607.51	65535.00
607.67	65535.00
607.82	65535.00
607.98	65535.00
608.13	65535.00
608.29	65535.00
608.44	65535.00
608.60	65535.00
608.75	65535.00
608.91	65535.00
609.06	65535.00
609.22	65535.00
609.37	65535.00
609.53	65535.00
609.68	65535.00
609.84	65535.00
609.99	65535.00
610.15	65535.00
610.30	65535.00
610.46	65535.00
610.61	65535.00
610.76	65535.00
610.92	65535.00
611.07	65535.00
611.23	65535.00
611.38	65535.00
611.54	65535.00
611.69	65535.00
611.84	65535.00
612.00	65535.00
612.15	65535.00
612.31	65535.00
612.46	65535.00
612.62	65535.00
612.77	65535.00
612.92	65535.00
613.08	65535.00
613.23	65535.00
613.39	65535.00
613.54	65535.00
613.69	65535.00
613.85	65535.00
614.00	65535.00
614.15	65535.00
614.31	65535.00
614.46	65535.00
614.62	65535.00
614.77	65535.00
614.92	65535.00
615.08	65535.00
615.23	65535.00
615.38	65535.00
615.54	65535.00
615.69	65535.00
615.84	65535.00
616.00	65535.00
616.15	65535.00
616.30	65535.00
616.46	65535.00
616.61	65535.00
616.76	65535.00
616.92	65535.00
617.07	65535.00
617.22	65535.00
617.37	65535.00
617.53	65535.00
617.68	65535.00
617.83	65525.64
617.99	65535.00
618.14	65535.00
618.29	65535.00
618.45	65535.00
618.60	65535.00
618.75	65535.00
618.90	65535.00
619.06	65535.00
619.21	65535.00
619.36	65535.00
619.51	65516.28
619.67	65331.37
619.82	65427.34
619.97	65516.28
620.12	65200.30
620.28	65457.76
620.43	65469.46
620.58	65535.00
620.73	65535.00
620.89	65535.00
621.04	65535.00
621.19	65535.00
621.34	65448.40
621.49	65303.29
621.65	65282.22
621.80	65471.81
621.95	65240.09
622.10	65347.76
622.25	65186.26
622.41	65319.67
622.56	65375.84
622.71	65518.62
622.86	65284.56
623.01	65443.72
623.16	65329.03
623.32	65270.52
623.47	65212.01
623.62	65139.45
623.77	65265.84
623.92	65186.26
624.07	65085.62
624.23	65270.52
624.38	65188.60
624.53	65314.99
624.68	65256.48
624.83	65228.39
624.98	65359.46
625.13	65137.11
625.29	65190.94
625.44	65179.24
625.59	64994.34
625.74	65069.23
625.89	64994.34
626.04	64732.20
626.19	64933.48
626.34	64818.80
626.49	65010.72
626.65	65043.49
626.80	65048.17
626.95	65080.94
627.10	64982.63
627.25	65029.44
627.40	64905.40
627.55	64816.46
627.70	64706.45
627.85	64748.58
628.00	64580.06
628.15	64865.61
628.30	64598.79
628.45	64793.05
628.60	64713.47
628.76	64821.14
628.91	64811.77
629.06	64804.75
629.21	64814.12
629.36	64837.52
629.51	64633.89
629.66	64945.18
629.81	64378.78
629.96	64402.18
630.11	64533.25
630.26	64605.81
630.41	64734.54
630.56	64559.00
630.71	64856.24
630.86	64750.92
631.01	64821.14
631.16	64666.66
631.31	64732.20
631.46	64570.70
631.61	64666.66
631.76	64750.92
631.91	64388.14
632.06	64516.87
632.21	64425.59
632.36	64559.00
632.51	64434.95
632.66	64498.14
632.81	64259.41
632.96	64434.95
633.10	64456.01
633.25	64453.67
633.40	64399.84
633.55	64453.67
633.70	64463.03
633.85	64062.80
634.00	64268.77
634.15	64303.88
634.30	64238.34
634.45	64287.49
634.60	64477.08
634.75	64444.31
634.90	64165.79
635.05	64369.41
635.19	64378.78
635.34	64477.08
635.49	64378.78
635.64	64212.60
635.79	64121.32
635.94	64114.29
636.09	64081.53
636.24	64186.85
636.39	63810.03
636.53	64069.82
636.68	64013.65
636.83	63955.14
636.98	64165.79
637.13	63997.27
637.28	64133.02
637.43	63943.44
637.57	64205.58
637.72	64214.94
637.87	64172.81
638.02	63964.50
638.17	63821.73
638.32	64004.29
638.46	63805.34
638.61	63894.28
638.76	64020.67
638.91	63971.52
639.06	63795.98
639.20	63639.17
639.35	63894.28
639.50	64039.40
639.65	63742.15
639.80	63856.84
639.94	63753.85
640.09	63835.77
640.24	63814.71
640.39	63758.53
640.54	63575.97
640.68	63676.61
640.83	63730.45
640.98	63552.57
641.13	63480.01
641.27	63643.85
641.42	63428.52
641.57	63721.08
641.72	63908.33
641.86	63620.44
642.01	63571.29
642.16	63494.05
642.31	63524.48
642.45	63608.74
642.60	63388.73
642.75	63325.53
642.90	63234.25
643.04	63227.23
643.19	63362.98
643.34	63456.60
643.48	63463.63
643.63	63547.89
643.78	63625.12
643.93	63566.61
644.07	63655.55
644.22	63353.62
644.37	63255.32
644.51	63269.36
644.66	63440.22
644.81	63489.37
644.95	63468.31
645.10	63114.89
645.25	63393.41
645.39	63341.92
645.54	63245.96
645.69	63379.37
645.83	63447.24
645.98	63245.96
646.13	63491.71
646.27	63355.96
646.42	63398.09
646.57	63318.51
646.71	63334.90
646.86	63220.21
647.00	63185.10
647.15	63084.46
647.30	62993.18
647.44	63128.93
647.59	63227.23
647.74	63208.51
647.88	63016.58
648.03	63231.91
648.17	63208.51
648.32	63208.51
648.47	63161.70
648.61	63164.04
648.76	63189.78
648.90	63175.74
649.05	63028.29
649.20	62976.79
649.34	63047.01
649.49	62972.11
649.63	62829.34
649.78	63117.23
649.92	62962.75
650.07	63058.71
650.21	63161.70
650.36	63063.39
650.51	62941.69
650.65	62951.05
650.80	63208.51
650.94	63000.20
651.09	62709.97
651.23	62808.28
651.38	62791.89
651.52	62700.61
651.67	62630.40
651.81	62873.81
651.96	62714.65
652.10	62770.83
652.25	62520.39
652.39	62869.13
652.54	62866.79
652.68	62824.66
652.83	62845.72
652.97	62759.12
653.12	62890.19
653.26	62754.44
653.41	62602.31
653.55	62719.34
653.70	62588.27
653.84	62569.54
653.99	62351.87
654.13	62466.56
654.27	62485.28
654.42	62443.15
654.56	62396.34
654.71	62548.48
654.85	62405.70
655.00	62583.58
655.14	62372.94
655.29	62223.14
655.43	62384.64
655.57	62621.03
655.72	62312.08
655.86	62274.63
656.01	62312.08
656.15	62019.52
656.30	62099.09
656.44	62122.50
656.58	62408.04
656.73	62274.63
656.87	62035.90
657.01	62213.78
657.16	62248.89
657.30	62007.81
657.45	62241.87
657.59	62094.41
657.73	62227.82
657.88	62279.31
658.02	62183.35
658.16	62155.27
658.31	61991.43
658.45	61935.26
658.60	61883.76
658.74	61738.65
658.88	61691.84
659.03	61977.39
659.17	61799.50
659.31	61731.63
659.46	61869.72
659.60	62220.80
659.74	61946.96
659.89	61874.40
660.03	61661.41
660.17	61970.36
660.32	61733.97
660.46	61595.88
660.60	61336.08
660.74	61483.53
660.89	61600.56
661.03	61270.54
661.17	61607.58
661.32	61595.88
661.46	61469.49
661.60	61504.60
661.74	61506.94
661.89	61516.30
662.03	61525.66
662.17	61408.64
662.31	61378.21
662.46	61263.52
662.60	61307.99
662.74	61090.32
662.88	60963.93
663.03	60954.57
663.17	60870.31
663.31	60896.06
663.45	61148.84
663.60	61048.19
663.74	60926.49
663.88	60959.25
664.02	61048.19
664.17	61080.96
664.31	61020.11
664.45	60924.14
664.59	61043.51
664.73	60919.46
664.88	60800.10
665.02	60570.72
665.16	60750.94
665.30	60615.19
665.44	60570.72
665.59	60537.96
665.73	60715.84
665.87	60437.31
666.01	60528.59
666.15	60729.88
666.29	60514.55
666.44	60568.38
666.58	60374.12
666.72	60507.53
666.86	60638.60
667.00	60240.71
667.14	60306.24
667.28	60128.36
667.43	60161.13
667.57	60013.68
667.71	60013.68
667.85	59901.33
667.99	59934.10
668.13	60219.64
668.27	60126.02
668.41	59990.27
668.56	59889.63
668.70	60271.14
668.84	60193.90
668.98	59732.81
669.12	59859.20
669.26	59929.42
669.40	59950.48
669.54	59983.25
669.68	59788.98
669.82	59695.36
669.96	59519.82
670.10	59377.05
670.25	59292.79
670.39	59386.41
670.53	59341.94
670.67	59138.32
670.81	59540.89
670.95	59583.02
671.09	59444.93
671.23	59327.90
671.37	59505.78
671.51	59568.97
671.65	59444.93
671.79	59206.19
671.93	59007.25
672.07	59028.31
672.21	59004.91
672.35	58920.65
672.49	58815.32
672.63	58733.40
672.77	58794.26
672.91	58885.54
673.05	59009.59
673.19	58958.09
673.33	58820.00
673.47	58609.35
673.61	58548.50
673.75	58560.20
673.89	58738.08
674.03	58520.41
674.17	58218.49
674.31	58408.07
674.45	58211.46
674.59	58211.46
674.73	58213.80
674.87	58262.96
675.01	58010.18
675.15	58131.89
675.29	57846.34
675.43	57970.39
675.56	58110.82
675.70	57968.05
675.84	58138.91
675.98	57176.95
676.12	57909.53
676.26	57813.57
676.40	57874.43
676.54	57425.04
676.68	57469.51
676.82	56959.28
676.96	56949.92
677.10	57088.01
677.23	56860.97
677.37	56917.15
677.51	57158.22
677.65	56872.68
677.79	56978.00
677.93	56671.39
678.07	57099.71
678.21	56449.04
678.34	56690.12
678.48	56388.19
678.62	56535.64
678.76	56559.05
678.90	56343.72
679.04	56238.39
679.18	56437.34
679.31	55793.69
679.45	55693.05
679.59	55730.50
679.73	55590.06
679.87	55856.88
680.00	55650.92
680.14	55662.62
680.28	55433.25
680.42	55260.05
680.56	55419.20
680.70	55409.84
680.83	55213.24
680.97	55110.25
681.11	55458.99
681.25	55105.57
681.39	55018.97
681.52	55150.04
681.66	54857.48
681.80	54871.52
681.94	54480.65
682.07	54461.93
682.21	54408.09
682.35	54169.36
682.49	54272.34
682.62	54094.46
682.76	54248.94
682.90	54473.63
683.04	54190.42
683.17	53972.75
683.31	53989.14
683.45	53895.52
683.59	53818.28
683.72	53876.79
683.86	53694.23
684.00	53420.39
684.13	53441.45
684.27	53366.55
684.41	53022.50
684.55	52516.94
684.68	52741.63
684.82	52690.14
684.96	52530.98
685.09	52273.52
685.23	52769.72
685.37	52425.66
685.50	52643.33
685.64	52704.18
685.78	52814.19
685.91	52559.07
686.05	52463.11
686.19	51817.12
686.32	51849.89
686.46	51416.89
686.60	51459.02
686.73	51143.05
686.87	51313.90
687.01	51299.86
687.14	50672.60
687.28	50834.10
687.42	50918.35
687.55	51000.27
687.69	50918.35
687.82	50478.33
687.96	50408.12
688.10	50326.20
688.23	50426.84
688.37	50412.80
688.50	50328.54
688.64	49848.73
688.78	50192.79
688.91	50012.57
689.05	49879.16
689.18	49530.42
689.32	48839.96
689.46	49418.07
689.59	48912.52
689.73	49059.97
689.86	48582.50
690.00	48893.79
690.13	49008.48
690.27	48266.53
690.41	48327.38
690.54	48327.38
690.68	48339.08
690.81	48275.89
690.95	48126.10
691.08	48128.44
691.22	47770.33
691.35	47625.22
691.49	47700.12
691.62	47281.16
691.76	46653.90
691.89	46710.07
692.03	46160.05
692.16	46590.70
692.30	46342.61
692.43	46040.68
692.57	45975.14
692.70	46216.22
692.84	45858.12
692.97	45661.51
693.11	45603.00
693.24	45287.03
693.38	45064.67
693.51	45661.51
693.65	45235.53
693.78	45235.53
693.92	45081.06
694.05	44804.88
694.19	44825.94
694.32	44119.10
694.45	44102.71
694.59	44013.77
694.72	43992.71
694.86	43405.23
694.99	42990.96
695.13	43531.62
695.26	43328.00
695.39	42724.14
695.53	43339.70
695.66	42824.78
695.80	42656.26
695.93	42948.83
696.07	42354.33
696.20	43019.05
696.33	42658.60
696.47	42419.87
696.60	42237.31
696.73	41893.25
696.87	41951.76
697.00	41383.01
697.14	41172.36
697.27	40322.75
697.40	40348.50
697.54	40638.72
697.67	40390.62
697.80	40577.87
697.94	40346.15
698.07	40058.27
698.21	39901.45
698.34	39835.92
698.47	40107.42
698.61	39775.06
698.74	40041.88
698.87	39435.69
699.01	39461.43
699.14	39283.55
699.27	38710.12
699.40	38897.36
699.54	38169.46
699.67	37989.24
699.80	37921.36
699.94	37523.47
700.07	37446.23
700.20	37329.20
700.34	37617.09
700.47	37144.30
700.60	36893.86
700.73	37432.19
700.87	37418.14
701.00	36900.89
701.13	36940.68
701.26	36753.43
701.40	36910.25
701.53	36615.34
701.66	36392.99
701.79	36070.00
701.93	35620.61
702.06	35615.93
702.19	35676.79
702.32	35512.95
702.46	35398.26
702.59	34824.83
702.72	34902.07
702.85	35112.72
702.99	34792.06
703.12	34721.85
703.25	33923.72
703.38	33862.87
703.51	33951.81
703.65	33954.15
703.78	33989.26
703.91	33785.63
704.04	33930.75
704.17	33979.90
704.31	33830.10
704.44	33254.33
704.57	33165.39
704.70	32795.59
704.83	32311.10
704.96	32643.45
705.10	32217.47
705.23	32170.66
>>>>>End Processed Spectral Data<<<<<
