SpectraSuite Data File
++++++++++++++++++++++++++++++++++++
Date: Fri Oct 04 11:42:17 GMT-05:00 2013
User: price-jones
Dark Spectrum Present: No
Reference Spectrum Present: No
Number of Sampled Component Spectra: 1
Spectrometers: USB2+H05261
Integration Time (usec): 100000 (USB2+H05261)
Spectra Averaged: 1 (USB2+H05261)
Boxcar Smoothing: 0 (USB2+H05261)
Correct for Electrical Dark: No (USB2+H05261)
Strobe/Lamp Enabled: No (USB2+H05261)
Correct for Detector Non-linearity: No (USB2+H05261)
Correct for Stray Light: No (USB2+H05261)
Number of Pixels in Processed Spectrum: 2048
>>>>>Begin Processed Spectral Data<<<<<
365.73	63.19
365.92	63.19
366.12	63.19
366.32	0.00
366.52	0.00
366.72	0.00
366.91	0.00
367.11	0.00
367.31	0.00
367.51	0.00
367.70	0.00
367.90	0.00
368.10	0.00
368.30	0.00
368.49	0.00
368.69	0.00
368.89	0.00
369.09	0.00
369.28	9.36
369.48	0.00
369.68	0.00
369.87	35.11
370.07	0.00
370.27	0.00
370.47	51.49
370.66	177.88
370.86	259.80
371.06	337.04
371.25	334.70
371.45	299.59
371.65	353.42
371.84	257.46
372.04	306.61
372.24	264.48
372.44	332.36
372.63	346.40
372.83	402.57
373.03	283.20
373.22	339.38
373.42	278.52
373.62	365.12
373.81	276.18
374.01	353.42
374.21	290.23
374.40	229.37
374.60	355.76
374.79	344.06
374.99	376.83
375.19	428.32
375.38	381.51
375.58	287.89
375.78	360.44
375.97	362.78
376.17	433.00
376.37	372.15
376.56	463.43
376.76	395.55
376.95	416.62
377.15	372.15
377.35	435.34
377.54	451.72
377.74	444.70
377.93	458.74
378.13	379.17
378.33	444.70
378.52	437.68
378.72	402.57
378.91	418.96
379.11	367.46
379.31	341.72
379.50	341.72
379.70	388.53
379.89	421.30
380.09	468.11
380.28	379.17
380.48	395.55
380.68	397.89
380.87	402.57
381.07	339.38
381.26	409.59
381.46	411.93
381.65	353.42
381.85	285.55
382.04	379.17
382.24	297.25
382.43	276.18
382.63	322.99
382.83	292.57
383.02	325.33
383.22	327.68
383.41	297.25
383.61	346.40
383.80	449.38
384.00	369.80
384.19	416.62
384.39	402.57
384.58	458.74
384.78	475.13
384.97	414.27
385.17	346.40
385.36	320.65
385.56	369.80
385.75	393.21
385.95	395.55
386.14	489.17
386.34	468.11
386.53	390.87
386.72	351.08
386.92	435.34
387.11	440.02
387.31	381.51
387.50	491.51
387.70	353.42
387.89	416.62
388.09	433.00
388.28	404.91
388.48	454.06
388.67	531.30
388.86	507.90
389.06	524.28
389.25	491.51
389.45	491.51
389.64	512.58
389.84	456.40
390.03	470.45
390.22	482.15
390.42	486.83
390.61	575.77
390.81	561.73
391.00	568.75
391.19	538.32
391.39	540.66
391.58	603.86
391.78	606.20
391.97	491.51
392.16	498.53
392.36	470.45
392.55	477.47
392.75	374.49
392.94	353.42
393.13	271.50
393.33	358.10
393.52	355.76
393.71	430.66
393.91	503.22
394.10	519.60
394.29	573.43
394.49	540.66
394.68	620.24
394.88	606.20
395.07	622.58
395.26	709.18
395.46	622.58
395.65	627.26
395.84	517.26
396.04	559.39
396.23	407.25
396.42	372.15
396.62	372.15
396.81	358.10
397.00	451.72
397.19	571.09
397.39	575.77
397.58	636.63
397.77	582.79
397.97	744.29
398.16	674.07
398.35	798.12
398.55	835.57
398.74	805.14
398.93	767.70
399.12	840.25
399.32	816.85
399.51	826.21
399.70	854.30
399.90	837.91
400.09	819.19
400.28	903.45
400.47	807.48
400.67	830.89
400.86	929.19
401.05	908.13
401.24	929.19
401.44	847.27
401.63	929.19
401.82	940.90
402.01	819.19
402.21	901.11
402.40	826.21
402.59	884.72
402.78	861.32
402.97	868.34
403.17	891.74
403.36	847.27
403.55	917.49
403.74	833.23
403.93	1006.43
404.13	945.58
404.32	983.02
404.51	971.32
404.70	999.41
404.89	924.51
405.09	966.64
405.28	976.00
405.47	915.15
405.66	851.96
405.85	781.74
406.05	819.19
406.24	784.08
406.43	880.04
406.62	884.72
406.81	936.21
407.00	954.94
407.20	753.65
407.39	938.55
407.58	891.74
407.77	898.77
407.96	990.05
408.15	938.55
408.34	1053.24
408.54	926.85
408.73	976.00
408.92	978.34
409.11	971.32
409.30	1015.79
409.49	868.34
409.68	877.70
409.87	873.02
410.07	863.66
410.26	833.23
410.45	926.85
410.64	987.71
410.83	1013.45
411.02	1006.43
411.21	1050.90
411.40	1025.15
411.59	1055.58
411.78	985.37
411.98	950.26
412.17	1018.13
412.36	990.05
412.55	1050.90
412.74	1004.09
412.93	1078.99
413.12	992.39
413.31	1153.88
413.50	1039.20
413.69	1088.35
413.88	992.39
414.07	931.53
414.26	1032.18
414.45	1118.78
414.64	1149.20
414.83	1177.29
415.02	1081.33
415.22	1060.26
415.41	1142.18
415.60	1062.60
415.79	1149.20
415.98	1242.82
416.17	1217.08
416.36	1135.16
416.55	1081.33
416.74	1036.86
416.93	1114.10
417.12	1053.24
417.31	1121.12
417.50	1078.99
417.69	1116.44
417.88	1144.52
418.07	1144.52
418.26	1125.80
418.45	1064.94
418.64	1214.74
418.83	1224.10
419.02	1224.10
419.21	1100.05
419.39	1100.05
419.58	1006.43
419.77	1123.46
419.96	1083.67
420.15	1268.57
420.34	1158.57
420.53	1193.67
420.72	1252.19
420.91	1212.40
421.10	1275.59
421.29	1261.55
421.48	1263.89
421.67	1228.78
421.86	1203.04
422.05	1116.44
422.24	1128.14
422.43	1008.77
422.61	1107.07
422.80	1207.72
422.99	1135.16
423.18	1153.88
423.37	1146.86
423.56	1076.65
423.75	1172.61
423.94	1212.40
424.13	1149.20
424.32	1104.73
424.50	1104.73
424.69	1102.39
424.88	1146.86
425.07	1088.35
425.26	1205.38
425.45	1050.90
425.64	1050.90
425.83	1130.48
426.01	1198.35
426.20	1121.12
426.39	1221.76
426.58	1022.81
426.77	1001.75
426.96	997.07
427.15	945.58
427.33	1088.35
427.52	1032.18
427.71	1128.14
427.90	1137.50
428.09	1172.61
428.28	1095.37
428.46	1025.15
428.65	1137.50
428.84	1128.14
429.03	1123.46
429.22	1050.90
429.40	1027.50
429.59	952.60
429.78	901.11
429.97	830.89
430.16	816.85
430.34	833.23
430.53	847.27
430.72	844.93
430.91	936.21
431.10	964.30
431.28	1191.33
431.47	1352.83
431.66	1320.06
431.85	1238.14
432.03	1093.03
432.22	1095.37
432.41	1062.60
432.60	1284.95
432.79	1322.40
432.97	1343.47
433.16	1254.53
433.35	1144.52
433.54	1118.78
433.72	1090.69
433.91	1022.81
434.10	1156.22
434.28	1221.76
434.47	1359.85
434.66	1355.17
434.85	1235.80
435.03	1327.08
435.22	1596.25
435.41	2083.08
435.59	2153.29
435.78	1923.92
435.97	1652.42
436.16	1511.99
436.34	1364.53
436.53	1322.40
436.72	1425.39
436.90	1268.57
437.09	1308.36
437.28	1313.04
437.46	1270.91
437.65	1334.11
437.84	1284.95
438.02	1181.97
438.21	1238.14
438.40	1275.59
438.58	1331.76
438.77	1310.70
438.96	1380.92
439.14	1287.29
439.33	1322.40
439.52	1401.98
439.70	1343.47
439.89	1303.68
440.08	1256.87
440.26	1294.32
440.45	1453.47
440.63	1392.62
440.82	1579.86
441.01	1439.43
441.19	1378.58
441.38	1425.39
441.57	1401.98
441.75	1516.67
441.94	1549.43
442.12	1486.24
442.31	1533.05
442.50	1577.52
442.68	1511.99
442.87	1411.34
443.05	1479.22
443.24	1547.09
443.43	1542.41
443.61	1500.28
443.80	1598.59
443.98	1551.78
444.17	1652.42
444.35	1605.61
444.54	1591.56
444.73	1483.90
444.91	1511.99
445.10	1413.68
445.28	1348.15
445.47	1390.28
445.65	1357.51
445.84	1406.66
446.02	1437.09
446.21	1369.21
446.39	1385.60
446.58	1502.62
446.77	1497.94
446.95	1556.46
447.14	1528.37
447.32	1713.27
447.51	1540.07
447.69	1544.75
447.88	1535.39
448.06	1607.95
448.25	1544.75
448.43	1607.95
448.62	1481.56
448.80	1645.40
448.99	1575.18
449.17	1509.65
449.36	1561.14
449.54	1636.03
449.73	1551.78
449.91	1652.42
450.10	1650.08
450.28	1739.02
450.46	1694.55
450.65	1631.35
450.83	1626.67
451.02	1668.80
451.20	1600.93
451.39	1650.08
451.57	1717.95
451.76	1666.46
451.94	1638.38
452.13	1619.65
452.31	1603.27
452.49	1523.69
452.68	1511.99
452.86	1420.71
453.05	1638.38
453.23	1605.61
453.42	1535.39
453.60	1596.25
453.78	1741.36
453.97	1710.93
454.15	1626.67
454.34	1598.59
454.52	1591.56
454.70	1556.46
454.89	1519.01
455.07	1678.16
455.26	1547.09
455.44	1680.50
455.62	1748.38
455.81	1643.06
455.99	1696.89
456.17	1600.93
456.36	1610.29
456.54	1666.46
456.73	1746.04
456.91	1717.95
457.09	1708.59
457.28	1767.10
457.46	1636.03
457.64	1694.55
457.83	1654.76
458.01	1600.93
458.19	1647.74
458.38	1631.35
458.56	1720.29
458.74	1689.87
458.93	1675.82
459.11	1717.95
459.29	1720.29
459.48	1732.00
459.66	1661.78
459.84	1591.56
460.03	1755.40
460.21	1680.50
460.39	1682.85
460.57	1724.97
460.76	1870.09
460.94	1774.13
461.12	1811.57
461.31	1764.76
461.49	1715.61
461.67	1851.36
461.85	1757.74
462.04	1797.53
462.22	1975.41
462.40	1804.55
462.59	1834.98
462.77	1753.06
462.95	1741.36
463.13	1736.68
463.32	1825.62
463.50	1713.27
463.68	1703.91
463.86	1703.91
464.05	1783.49
464.23	1732.00
464.41	1584.54
464.59	1551.78
464.78	1600.93
464.96	1757.74
465.14	1783.49
465.32	1741.36
465.50	1666.46
465.69	1696.89
465.87	1743.70
466.05	1680.50
466.23	1668.80
466.41	1626.67
466.60	1675.82
466.78	1596.25
466.96	1530.71
467.14	1715.61
467.32	1741.36
467.51	1764.76
467.69	1671.14
467.87	1771.79
468.05	1720.29
468.23	1727.32
468.41	1746.04
468.60	1804.55
468.78	1734.34
468.96	1741.36
469.14	1717.95
469.32	1708.59
469.50	1699.23
469.69	1629.01
469.87	1605.61
470.05	1678.16
470.23	1710.93
470.41	1678.16
470.59	1687.53
470.77	1689.87
470.95	1769.44
471.14	1856.04
471.32	1727.32
471.50	1919.24
471.68	1832.64
471.86	1989.46
472.04	1809.23
472.22	1870.09
472.40	1746.04
472.58	1764.76
472.77	1671.14
472.95	1755.40
473.13	1928.60
473.31	1762.42
473.49	1762.42
473.67	1748.38
473.85	1949.67
474.03	1846.68
474.21	1952.01
474.39	1858.39
474.57	2008.18
474.75	2005.84
474.93	1870.09
475.12	1776.47
475.30	1827.96
475.48	1928.60
475.66	1905.20
475.84	1839.66
476.02	1865.41
476.20	1785.83
476.38	1856.04
476.56	1830.30
476.74	1884.13
476.92	2083.08
477.10	1959.03
477.28	2134.57
477.46	2057.33
477.64	2113.50
477.82	2113.50
478.00	2015.20
478.18	2057.33
478.36	1968.39
478.54	2069.03
478.72	1968.39
478.90	1984.77
479.08	2043.29
479.26	2167.34
479.44	2125.21
479.62	2174.36
479.80	2146.27
479.98	2097.12
480.16	2073.71
480.34	2080.74
480.52	2099.46
480.70	2186.06
480.88	2179.04
481.06	2253.94
481.24	2167.34
481.41	2157.97
481.59	2258.62
481.77	2347.56
481.95	2319.47
482.13	2246.91
482.31	2193.08
482.49	2429.48
482.67	2333.51
482.85	2354.58
483.03	2413.09
483.21	2289.04
483.39	2363.94
483.57	2415.43
483.74	2242.23
483.92	2310.11
484.10	2389.69
484.28	2424.80
484.46	2394.37
484.64	2443.52
484.82	2410.75
485.00	2434.16
485.18	2305.43
485.35	2349.90
485.53	2188.40
485.71	2047.97
485.89	2031.58
486.07	2094.78
486.25	2324.15
486.43	2354.58
486.61	2279.68
486.78	2267.98
486.96	2380.32
487.14	2459.90
487.32	2480.97
487.50	2558.21
487.68	2696.30
487.85	2710.34
488.03	2708.00
488.21	2691.62
488.39	2569.91
488.57	2651.83
488.75	2565.23
488.92	2808.64
489.10	2773.53
489.28	2794.60
489.46	2839.07
489.64	2834.39
489.81	2850.77
489.99	2883.54
490.17	2909.29
490.35	2958.44
490.53	2782.90
490.70	2698.64
490.88	2733.75
491.06	2925.67
491.24	2871.84
491.41	2743.11
491.59	2693.96
491.77	2696.30
491.95	2621.40
492.13	2740.77
492.30	2841.41
492.48	2885.88
492.66	2981.84
492.84	3061.42
493.01	3068.44
493.19	3028.65
493.37	2890.56
493.54	2750.13
493.72	2920.99
493.90	2981.84
494.08	3030.99
494.25	3133.98
494.43	3232.28
494.61	3201.85
494.79	3145.68
494.96	3101.21
495.14	3117.59
495.32	3009.93
495.49	2963.12
495.67	3272.07
495.85	3148.02
496.02	3166.74
496.20	3108.23
496.38	3243.98
496.55	3126.96
496.73	3194.83
496.91	3180.79
497.09	3342.28
497.26	3274.41
497.44	3229.94
497.62	3211.22
497.79	3052.06
497.97	3000.57
498.14	2925.67
498.32	3082.49
498.50	3241.64
498.67	3138.66
498.85	3159.72
499.03	3234.62
499.20	3295.47
499.38	3227.60
499.56	3164.40
499.73	3173.77
499.91	3119.93
500.08	3042.70
500.26	2869.50
500.44	3023.97
500.61	3150.36
500.79	3047.38
500.97	3084.83
501.14	3171.43
501.32	3033.33
501.49	2949.08
501.67	3040.36
501.84	3117.59
502.02	3047.38
502.20	3316.54
502.37	3258.03
502.55	3073.12
502.72	3108.23
502.90	3187.81
503.07	3112.91
503.25	3038.02
503.43	2869.50
503.60	2899.92
503.78	2853.11
503.95	2750.13
504.13	3016.95
504.30	3262.71
504.48	3082.49
504.65	3131.64
504.83	3091.85
505.01	3178.45
505.18	3302.50
505.36	3330.58
505.53	3332.92
505.71	3229.94
505.88	3283.77
506.06	3339.94
506.23	3356.33
506.41	3190.15
506.58	3108.23
506.76	3419.52
506.93	3187.81
507.11	3105.89
507.28	3143.34
507.46	3185.47
507.63	3038.02
507.81	3082.49
507.98	2986.52
508.16	3176.11
508.33	3260.37
508.50	3459.31
508.68	3396.12
508.85	3438.25
509.03	3431.23
509.20	3377.39
509.38	3431.23
509.55	3159.72
509.73	3276.75
509.90	3358.67
510.08	3272.07
510.25	3396.12
510.42	3295.47
510.60	3274.41
510.77	3407.82
510.95	3417.18
511.12	3459.31
511.30	3309.52
511.47	3543.57
511.64	3471.01
511.82	3459.31
511.99	3407.82
512.17	3412.50
512.34	3307.18
512.51	3304.84
512.69	3382.07
512.86	3405.48
513.04	3391.44
513.21	3337.60
513.38	3337.60
513.56	3225.26
513.73	3124.62
513.90	3239.30
514.08	3267.39
514.25	3288.45
514.43	3253.34
514.60	3239.30
514.77	3384.41
514.95	3311.86
515.12	3314.20
515.29	3325.90
515.47	3527.19
515.64	3433.57
515.81	3438.25
515.99	3276.75
516.16	3016.95
516.33	2855.45
516.51	2825.03
516.68	2719.70
516.85	2778.22
517.03	2729.06
517.20	2958.44
517.37	3131.64
517.54	3379.73
517.72	3197.17
517.89	3038.02
518.06	2848.43
518.24	2930.35
518.41	3068.44
518.58	3274.41
518.75	3232.28
518.93	3300.16
519.10	3105.89
519.27	3239.30
519.45	3272.07
519.62	3337.60
519.79	3288.45
519.96	3410.16
520.14	3272.07
520.31	3220.58
520.48	3239.30
520.65	3243.98
520.83	3295.47
521.00	3492.08
521.17	3304.84
521.34	3187.81
521.52	3407.82
521.69	3433.57
521.86	3550.59
522.03	3454.63
522.20	3358.67
522.38	3145.68
522.55	3283.77
522.72	3246.32
522.89	3304.84
523.07	3365.69
523.24	3417.18
523.41	3445.27
523.58	3499.10
523.75	3585.70
523.92	3513.14
524.10	3447.61
524.27	3487.40
524.44	3522.51
524.61	3522.51
524.78	3396.12
524.96	3325.90
525.13	3398.46
525.30	3499.10
525.47	3557.61
525.64	3494.42
525.81	3604.42
525.98	3204.19
526.16	3169.09
526.33	3023.97
526.50	3023.97
526.67	2881.20
526.84	3012.27
527.01	3077.80
527.18	3288.45
527.36	3405.48
527.53	3358.67
527.70	3389.10
527.87	3349.31
528.04	3300.16
528.21	3417.18
528.38	3489.74
528.55	3522.51
528.72	3684.00
528.89	3543.57
529.07	3665.28
529.24	3555.27
529.41	3384.41
529.58	3229.94
529.75	3435.91
529.92	3412.50
530.09	3559.95
530.26	3471.01
530.43	3578.68
530.60	3517.83
530.77	3648.90
530.94	3606.77
531.11	3566.98
531.28	3494.42
531.46	3538.89
531.63	3396.12
531.80	3438.25
531.97	3393.78
532.14	3400.80
532.31	3166.74
532.48	3103.55
532.65	3155.04
532.82	3213.56
532.99	3342.28
533.16	3424.20
533.33	3459.31
533.50	3571.66
533.67	3382.07
533.84	3283.77
534.01	3311.86
534.18	3548.25
534.35	3323.56
534.52	3482.72
534.69	3552.93
534.86	3452.29
535.03	3545.91
535.20	3590.38
535.37	3487.40
535.54	3751.88
535.71	3466.33
535.88	3489.74
536.05	3433.57
536.22	3459.31
536.38	3396.12
536.55	3421.86
536.72	3129.30
536.89	3323.56
537.06	3379.73
537.23	3517.83
537.40	3599.74
537.57	3510.80
537.74	3520.17
537.91	3566.98
538.08	3520.17
538.25	3461.65
538.42	3454.63
538.59	3510.80
538.75	3550.59
538.92	3389.10
539.09	3398.46
539.26	3517.83
539.43	3337.60
539.60	3438.25
539.77	3585.70
539.94	3513.14
540.11	3454.63
540.28	3424.20
540.44	3513.14
540.61	3389.10
540.78	3524.85
540.95	3709.75
541.12	4088.92
541.29	4051.47
541.46	4161.47
541.62	4004.66
541.79	4077.21
541.96	4021.04
542.13	3967.21
542.30	3840.82
542.47	3791.67
542.63	3805.71
542.80	3892.31
542.97	3904.01
543.14	3742.52
543.31	3899.33
543.48	4011.68
543.64	4030.40
543.81	3901.67
543.98	3955.51
544.15	3911.04
544.32	3843.16
544.48	3758.90
544.65	3943.80
544.82	3948.48
544.99	3843.16
545.16	3908.69
545.32	3908.69
545.49	4418.93
545.66	5144.50
545.83	5486.22
546.00	5153.86
546.16	4545.32
546.33	4102.96
546.50	3922.74
546.67	3939.12
546.83	3740.18
547.00	3693.37
547.17	3655.92
547.34	3496.76
547.50	3620.81
547.67	3620.81
547.84	3754.22
548.00	3597.40
548.17	3684.00
548.34	3588.04
548.51	3740.18
548.67	3634.85
548.84	3625.49
549.01	3562.30
549.18	3574.00
549.34	3552.93
549.51	3592.72
549.68	3538.89
549.84	3501.44
550.01	3524.85
550.18	3454.63
550.34	3576.34
550.51	3400.80
550.68	3559.95
550.84	3391.44
551.01	3442.93
551.18	3428.88
551.34	3309.52
551.51	3251.00
551.68	3389.10
551.84	3349.31
552.01	3442.93
552.18	3349.31
552.34	3236.96
552.51	3281.43
552.68	3286.11
552.84	3328.24
553.01	3335.26
553.18	3342.28
553.34	3372.71
553.51	3346.97
553.67	3269.73
553.84	3403.14
554.01	3445.27
554.17	3274.41
554.34	3330.58
554.51	3262.71
554.67	3274.41
554.84	3335.26
555.00	3379.73
555.17	3290.79
555.33	3253.34
555.50	3148.02
555.67	3316.54
555.83	3321.22
556.00	3110.57
556.16	3297.81
556.33	3066.10
556.50	3169.09
556.66	3052.06
556.83	3035.67
556.99	3061.42
557.16	3126.96
557.32	3073.12
557.49	3166.74
557.65	3152.70
557.82	3185.47
557.98	3089.51
558.15	3176.11
558.32	3115.25
558.48	3009.93
558.65	3007.59
558.81	2995.89
558.98	3023.97
559.14	2995.89
559.31	2993.55
559.47	3098.87
559.64	3096.53
559.80	3038.02
559.97	3030.99
560.13	3038.02
560.30	3148.02
560.46	3091.85
560.63	3152.70
560.79	3293.13
560.96	3117.59
561.12	2998.23
561.29	3056.74
561.45	3000.57
561.61	3129.30
561.78	3169.09
561.94	3042.70
562.11	3047.38
562.27	3052.06
562.44	3073.12
562.60	3019.29
562.77	3028.65
562.93	3136.32
563.10	3052.06
563.26	2988.86
563.42	2981.84
563.59	3049.72
563.75	3026.31
563.92	3162.06
564.08	3009.93
564.24	3084.83
564.41	2979.50
564.57	2972.48
564.74	3068.44
564.90	2988.86
565.07	3082.49
565.23	2988.86
565.39	2963.12
565.56	2860.13
565.72	2878.86
565.88	2708.00
566.05	2864.82
566.21	3052.06
566.38	2946.73
566.54	3005.25
566.70	2937.37
566.87	3040.36
567.03	3063.76
567.19	3087.17
567.36	2979.50
567.52	2993.55
567.68	2888.22
567.85	2878.86
568.01	2782.90
568.17	2775.88
568.34	2789.92
568.50	2803.96
568.66	2574.59
568.83	2801.62
568.99	2715.02
569.15	2789.92
569.32	2785.24
569.48	2768.85
569.64	2740.77
569.81	2766.51
569.97	2733.75
570.13	2829.71
570.30	2654.17
570.46	2754.81
570.62	2679.91
570.78	2525.44
570.95	2717.36
571.11	2787.58
571.27	2722.04
571.43	2743.11
571.60	2813.32
571.76	2878.86
571.92	2850.77
572.09	2801.62
572.25	2820.35
572.41	2803.96
572.57	2724.38
572.74	2803.96
572.90	2682.25
573.06	2818.00
573.22	2808.64
573.38	2689.28
573.55	2738.43
573.71	2693.96
573.87	2726.72
574.03	2747.79
574.20	2740.77
574.36	2696.30
574.52	2686.94
574.68	2621.40
574.84	2614.38
575.01	2541.82
575.17	2621.40
575.33	2668.21
575.49	2729.06
575.65	2647.15
575.82	2689.28
575.98	2787.58
576.14	2696.30
576.30	2712.68
576.46	2869.50
576.62	3096.53
576.79	3028.65
576.95	2928.01
577.11	2766.51
577.27	2778.22
577.43	2843.75
577.59	2602.68
577.75	2722.04
577.92	2686.94
578.08	2572.25
578.24	2558.21
578.40	2649.49
578.56	2801.62
578.72	3040.36
578.88	3021.63
579.04	2895.24
579.21	2712.68
579.37	2792.26
579.53	2656.51
579.69	2820.35
579.85	2768.85
580.01	2843.75
580.17	2726.72
580.33	2778.22
580.49	2689.28
580.65	2724.38
580.82	2696.30
580.98	2813.32
581.14	2785.24
581.30	2892.90
581.46	2698.64
581.62	2738.43
581.78	2722.04
581.94	2953.76
582.10	2810.98
582.26	2864.82
582.42	2782.90
582.58	2867.16
582.74	2897.58
582.90	2796.94
583.06	2841.41
583.22	2860.13
583.38	2953.76
583.54	2796.94
583.70	2846.09
583.86	2913.97
584.02	2771.19
584.18	2925.67
584.34	2754.81
584.50	2715.02
584.66	2869.50
584.82	2738.43
584.98	2747.79
585.14	2649.49
585.30	2635.44
585.46	2724.38
585.62	2677.57
585.78	2766.51
585.94	2605.02
586.10	2600.34
586.26	2759.49
586.42	2724.38
586.58	2757.15
586.74	2752.47
586.90	2731.41
587.06	2860.13
587.22	2792.26
587.38	2609.70
587.54	2703.32
587.70	2562.89
587.86	2450.54
588.02	2338.20
588.18	2366.28
588.34	2214.15
588.49	2076.06
588.65	2050.31
588.81	1909.88
588.97	2017.54
589.13	1984.77
589.29	1998.82
589.45	1994.14
589.61	1893.49
589.77	2052.65
589.93	2111.16
590.08	2251.60
590.24	2216.49
590.40	2305.43
590.56	2321.81
590.72	2328.83
590.88	2157.97
591.04	2216.49
591.20	2195.42
591.35	2286.70
591.51	2125.21
591.67	2246.91
591.83	2204.78
591.99	2204.78
592.15	2399.05
592.31	2340.54
592.46	2289.04
592.62	2436.50
592.78	2312.45
592.94	2422.45
593.10	2537.14
593.26	2394.37
593.41	2511.39
593.57	2408.41
593.73	2244.57
593.89	2256.28
594.05	2090.10
594.20	2036.27
594.36	2132.23
594.52	2008.18
594.68	2094.78
594.84	2162.66
594.99	2211.81
595.15	2356.92
595.31	2300.75
595.47	2260.96
595.62	2298.41
595.78	2230.53
595.94	2387.35
596.10	2413.09
596.25	2356.92
596.41	2092.44
596.57	2300.75
596.73	2251.60
596.88	2368.62
597.04	2300.75
597.20	2326.49
597.36	2239.89
597.51	2214.15
597.67	2305.43
597.83	2260.96
597.99	2256.28
598.14	2356.92
598.30	2256.28
598.46	2373.30
598.61	2373.30
598.77	2352.24
598.93	2333.51
599.09	2410.75
599.24	2448.20
599.40	2399.05
599.56	2363.94
599.71	2366.28
599.87	2349.90
600.03	2377.98
600.18	2333.51
600.34	2466.92
600.50	2361.60
600.65	2370.96
600.81	2317.13
600.97	2469.27
601.12	2312.45
601.28	2420.11
601.44	2429.48
601.59	2209.47
601.75	2331.17
601.91	2300.75
602.06	2385.01
602.22	2298.41
602.37	2354.58
602.53	2265.64
602.69	2380.32
602.84	2333.51
603.00	2253.94
603.16	2382.67
603.31	2424.80
603.47	2417.77
603.62	2251.60
603.78	2539.48
603.94	2307.77
604.09	2361.60
604.25	2377.98
604.40	2324.15
604.56	2335.85
604.71	2363.94
604.87	2326.49
605.03	2321.81
605.18	2504.37
605.34	2462.24
605.49	2321.81
605.65	2260.96
605.80	2228.19
605.96	2326.49
606.12	2270.32
606.27	2335.85
606.43	2377.98
606.58	2445.86
606.74	2373.30
606.89	2476.29
607.05	2394.37
607.20	2459.90
607.36	2326.49
607.51	2232.87
607.67	2305.43
607.82	2296.07
607.98	2345.22
608.13	2385.01
608.29	2331.17
608.44	2333.51
608.60	2370.96
608.75	2429.48
608.91	2396.71
609.06	2427.14
609.22	2441.18
609.37	2438.84
609.53	2499.69
609.68	2555.86
609.84	2511.39
609.99	2663.53
610.15	2710.34
610.30	2864.82
610.46	3108.23
610.61	3389.10
610.76	3672.30
610.92	3873.59
611.07	4273.82
611.23	4428.29
611.38	4149.77
611.54	3840.82
611.69	3599.74
611.84	3386.76
612.00	3030.99
612.15	3019.29
612.31	2944.39
612.46	2726.72
612.62	2843.75
612.77	2768.85
612.92	2771.19
613.08	2715.02
613.23	2698.64
613.39	2469.27
613.54	2502.03
613.69	2466.92
613.85	2506.71
614.00	2621.40
614.15	2455.22
614.31	2499.69
614.46	2530.12
614.62	2565.23
614.77	2546.50
614.92	2436.50
615.08	2401.39
615.23	2363.94
615.38	2300.75
615.54	2312.45
615.69	2270.32
615.84	2181.38
616.00	2193.08
616.15	2162.66
616.30	2258.62
616.46	2106.48
616.61	2195.42
616.76	2195.42
616.92	2024.56
617.07	2221.17
617.22	2101.80
617.37	2111.16
617.53	2157.97
617.68	2094.78
617.83	2160.31
617.99	2073.71
618.14	2127.55
618.29	2167.34
618.45	2143.93
618.60	2087.76
618.75	2062.01
618.90	1987.11
619.06	2064.35
619.21	2080.74
619.36	2146.27
619.51	2005.84
619.67	2071.37
619.82	2073.71
619.97	2062.01
620.12	2064.35
620.28	2062.01
620.43	2050.31
620.58	2122.87
620.73	2115.84
620.89	2132.23
621.04	2104.14
621.19	2069.03
621.34	2050.31
621.49	2059.67
621.65	2017.54
621.80	1970.73
621.95	1980.09
622.10	2064.35
622.25	2064.35
622.41	1973.07
622.56	1989.46
622.71	2059.67
622.86	2026.90
623.01	1984.77
623.16	1961.37
623.32	1961.37
623.47	1968.39
623.62	1982.43
623.77	1984.77
623.92	1954.35
624.07	1961.37
624.23	1879.45
624.38	1865.41
624.53	1998.82
624.68	1895.83
624.83	1952.01
624.98	2045.63
625.13	1851.36
625.29	1877.11
625.44	1884.13
625.59	1874.77
625.74	1994.14
625.89	1919.24
626.04	1961.37
626.19	1947.33
626.34	1856.04
626.49	1858.39
626.65	1968.39
626.80	1909.88
626.95	1877.11
627.10	1898.17
627.25	1760.08
627.40	1839.66
627.55	1675.82
627.70	1647.74
627.85	1755.40
628.00	1732.00
628.15	1734.34
628.30	1827.96
628.45	1832.64
628.60	1856.04
628.76	1806.89
628.91	1842.00
629.06	1762.42
629.21	1755.40
629.36	1919.24
629.51	1732.00
629.66	1680.50
629.81	1863.07
629.96	1750.72
630.11	1863.07
630.26	1872.43
630.41	1879.45
630.56	2019.88
630.71	2008.18
630.86	1914.56
631.01	1827.96
631.16	1832.64
631.31	1818.60
631.46	1767.10
631.61	1851.36
631.76	1762.42
631.91	1633.69
632.06	1771.79
632.21	1729.66
632.36	1715.61
632.51	1696.89
632.66	1675.82
632.81	1715.61
632.96	1727.32
633.10	1760.08
633.25	1750.72
633.40	1701.57
633.55	1689.87
633.70	1741.36
633.85	1586.88
634.00	1685.19
634.15	1607.95
634.30	1631.35
634.45	1659.44
634.60	1666.46
634.75	1657.10
634.90	1685.19
635.05	1783.49
635.19	1734.34
635.34	1661.78
635.49	1645.40
635.64	1638.38
635.79	1593.90
635.94	1530.71
636.09	1563.48
636.24	1575.18
636.39	1640.72
636.53	1746.04
636.68	1598.59
636.83	1689.87
636.98	1706.25
637.13	1732.00
637.28	1739.02
637.43	1795.19
637.57	1668.80
637.72	1703.91
637.87	1675.82
638.02	1586.88
638.17	1570.50
638.32	1710.93
638.46	1682.85
638.61	1654.76
638.76	1643.06
638.91	1619.65
639.06	1626.67
639.20	1631.35
639.35	1699.23
639.50	1729.66
639.65	1612.63
639.80	1605.61
639.94	1659.44
640.09	1610.29
640.24	1621.99
640.39	1549.43
640.54	1600.93
640.68	1582.20
640.83	1516.67
640.98	1685.19
641.13	1577.52
641.27	1659.44
641.42	1577.52
641.57	1469.86
641.72	1610.29
641.86	1579.86
642.01	1610.29
642.16	1582.20
642.31	1579.86
642.45	1661.78
642.60	1568.16
642.75	1378.58
642.90	1577.52
643.04	1549.43
643.19	1666.46
643.34	1607.95
643.48	1490.92
643.63	1535.39
643.78	1610.29
643.93	1671.14
644.07	1430.07
644.22	1598.59
644.37	1451.13
644.51	1495.60
644.66	1411.34
644.81	1474.54
644.95	1434.75
645.10	1495.60
645.25	1432.41
645.39	1451.13
645.54	1390.28
645.69	1483.90
645.83	1366.87
645.98	1500.28
646.13	1406.66
646.27	1430.07
646.42	1352.83
646.57	1338.79
646.71	1364.53
646.86	1385.60
647.00	1348.15
647.15	1249.85
647.30	1306.02
647.44	1331.76
647.59	1261.55
647.74	1301.34
647.88	1348.15
648.03	1196.01
648.17	1439.43
648.32	1315.38
648.47	1397.30
648.61	1345.81
648.76	1364.53
648.90	1275.59
649.05	1294.32
649.20	1341.13
649.34	1228.78
649.49	1249.85
649.63	1320.06
649.78	1334.11
649.92	1441.77
650.07	1446.45
650.21	1397.30
650.36	1476.88
650.51	1465.18
650.65	1521.35
650.80	1376.24
650.94	1329.42
651.09	1359.85
651.23	1249.85
651.38	1217.08
651.52	1146.86
651.67	1203.04
651.81	1306.02
651.96	1336.45
652.10	1327.08
652.25	1366.87
652.39	1451.13
652.54	1315.38
652.68	1441.77
652.83	1401.98
652.97	1404.32
653.12	1427.73
653.26	1378.58
653.41	1369.21
653.55	1301.34
653.70	1366.87
653.84	1427.73
653.99	1383.26
654.13	1355.17
654.27	1287.29
654.42	1217.08
654.56	1268.57
654.71	1266.23
654.85	1317.72
655.00	1139.84
655.14	1273.25
655.29	1348.15
655.43	1191.33
655.57	1165.59
655.72	1135.16
655.86	1226.44
656.01	1006.43
656.15	1001.75
656.30	1041.54
656.44	1121.12
656.58	1053.24
656.73	1188.99
656.87	1163.25
657.01	1165.59
657.16	1289.64
657.30	1212.40
657.45	1308.36
657.59	1261.55
657.73	1247.51
657.88	1341.13
658.02	1327.08
658.16	1249.85
658.31	1287.29
658.45	1303.68
658.60	1181.97
658.74	1270.91
658.88	1270.91
659.03	1261.55
659.17	1259.21
659.31	1366.87
659.46	1301.34
659.60	1252.19
659.74	1352.83
659.89	1245.16
660.03	1259.21
660.17	1362.19
660.32	1280.27
660.46	1303.68
660.60	1221.76
660.74	1338.79
660.89	1376.24
661.03	1240.48
661.17	1376.24
661.32	1226.44
661.46	1385.60
661.60	1324.74
661.74	1282.61
661.89	1254.53
662.03	1380.92
662.17	1308.36
662.31	1362.19
662.46	1324.74
662.60	1268.57
662.74	1217.08
662.88	1336.45
663.03	1270.91
663.17	1259.21
663.31	1158.57
663.45	1226.44
663.60	1327.08
663.74	1306.02
663.88	1205.38
664.02	1327.08
664.17	1224.10
664.31	1341.13
664.45	1296.66
664.59	1242.82
664.73	1280.27
664.88	1203.04
665.02	1231.12
665.16	1327.08
665.30	1275.59
665.44	1277.93
665.59	1203.04
665.73	1289.64
665.87	1240.48
666.01	1170.27
666.15	1263.89
666.29	1149.20
666.44	1233.46
666.58	1317.72
666.72	1167.93
666.86	1231.12
667.00	1165.59
667.14	1217.08
667.28	1160.91
667.43	1245.16
667.57	1221.76
667.71	1231.12
667.85	1219.42
667.99	1205.38
668.13	1203.04
668.27	1247.51
668.41	1315.38
668.56	1198.35
668.70	1210.06
668.84	1177.29
668.98	1090.69
669.12	1329.42
669.26	1132.82
669.40	1252.19
669.54	1165.59
669.68	1221.76
669.82	1203.04
669.96	1146.86
670.10	1242.82
670.25	1132.82
670.39	1186.65
670.53	1177.29
670.67	1125.80
670.81	1132.82
670.95	1107.07
671.09	1118.78
671.23	1158.57
671.37	1193.67
671.51	1083.67
671.65	1156.22
671.79	1057.92
671.93	1076.65
672.07	1170.27
672.21	1114.10
672.35	973.66
672.49	1053.24
672.63	1156.22
672.77	1139.84
672.91	1153.88
673.05	1097.71
673.19	1158.57
673.33	1139.84
673.47	1053.24
673.61	1090.69
673.75	1123.46
673.89	1053.24
674.03	1022.81
674.17	1207.72
674.31	924.51
674.45	1050.90
674.59	1027.50
674.73	1093.03
674.87	1165.59
675.01	1055.58
675.15	1029.84
675.29	1078.99
675.43	976.00
675.56	1086.01
675.70	1107.07
675.84	1025.15
675.98	1043.88
676.12	964.30
676.26	1116.44
676.40	1025.15
676.54	1034.52
676.68	1025.15
676.82	1034.52
676.96	1069.62
677.10	1015.79
677.23	1018.13
677.37	997.07
677.51	1001.75
677.65	1015.79
677.79	1027.50
677.93	1076.65
678.07	994.73
678.21	910.47
678.34	987.71
678.48	961.96
678.62	936.21
678.76	980.68
678.90	943.24
679.04	919.83
679.18	938.55
679.31	952.60
679.45	933.87
679.59	999.41
679.73	933.87
679.87	964.30
680.00	973.66
680.14	912.81
680.28	952.60
680.42	931.53
680.56	947.92
680.70	1013.45
680.83	926.85
680.97	908.13
681.11	924.51
681.25	954.94
681.39	891.74
681.52	870.68
681.66	931.53
681.80	779.40
681.94	877.70
682.07	854.30
682.21	823.87
682.35	950.26
682.49	887.06
682.62	919.83
682.76	863.66
682.90	863.66
683.04	866.00
683.17	912.81
683.31	884.72
683.45	957.28
683.59	936.21
683.72	854.30
683.86	819.19
684.00	802.80
684.13	887.06
684.27	896.43
684.41	868.34
684.55	805.14
684.68	777.06
684.82	781.74
684.96	837.91
685.09	830.89
685.23	800.46
685.37	798.12
685.50	849.61
685.64	851.96
685.78	812.17
685.91	840.25
686.05	791.10
686.19	791.10
686.32	774.72
686.46	674.07
686.60	585.13
686.73	634.29
686.87	454.06
687.01	430.66
687.14	486.83
687.28	507.90
687.42	531.30
687.55	606.20
687.69	622.58
687.82	601.52
687.96	660.03
688.10	720.88
688.23	704.50
688.37	704.50
688.50	645.99
688.64	601.52
688.78	531.30
688.91	580.45
689.05	702.16
689.18	585.13
689.32	580.45
689.46	620.24
689.59	561.73
689.73	636.63
689.86	627.26
690.00	580.45
690.13	653.01
690.27	624.92
690.41	645.99
690.54	636.63
690.68	599.18
690.81	578.11
690.95	631.94
691.08	671.73
691.22	653.01
691.35	559.39
691.49	653.01
691.62	641.31
691.76	559.39
691.89	631.94
692.03	613.22
692.16	514.92
692.30	592.16
692.43	589.82
692.57	538.32
692.70	561.73
692.84	559.39
692.97	603.86
693.11	552.37
693.24	559.39
693.38	585.13
693.51	545.34
693.65	603.86
693.78	500.87
693.92	538.32
694.05	505.56
694.19	585.13
694.32	550.03
694.45	512.58
694.59	521.94
694.72	430.66
694.86	550.03
694.99	554.71
695.13	507.90
695.26	568.75
695.39	503.22
695.53	615.56
695.66	517.26
695.80	533.64
695.93	533.64
696.07	582.79
696.20	594.50
696.33	496.19
696.47	538.32
696.60	573.43
696.73	512.58
696.87	622.58
697.00	634.29
697.14	538.32
697.27	566.41
697.40	655.35
697.54	547.69
697.67	561.73
697.80	568.75
697.94	493.85
698.07	559.39
698.21	519.60
698.34	559.39
698.47	514.92
698.61	517.26
698.74	512.58
698.87	493.85
699.01	493.85
699.14	442.36
699.27	519.60
699.40	531.30
699.54	533.64
699.67	512.58
699.80	475.13
699.94	482.15
700.07	479.81
700.20	454.06
700.34	454.06
700.47	395.55
700.60	418.96
700.73	543.00
700.87	477.47
701.00	442.36
701.13	433.00
701.26	493.85
701.40	498.53
701.53	521.94
701.66	437.68
701.79	374.49
701.93	423.64
702.06	468.11
702.19	381.51
702.32	444.70
702.46	449.38
702.59	433.00
702.72	440.02
702.85	479.81
702.99	484.49
703.12	470.45
703.25	414.27
703.38	477.47
703.51	512.58
703.65	437.68
703.78	491.51
703.91	454.06
704.04	477.47
704.17	404.91
704.31	416.62
704.44	402.57
704.57	416.62
704.70	470.45
704.83	447.04
704.96	428.32
705.10	313.63
705.23	383.85
>>>>>End Processed Spectral Data<<<<<
