SpectraSuite Data File
++++++++++++++++++++++++++++++++++++
Date: Fri Oct 04 11:41:43 GMT-05:00 2013
User: price-jones
Dark Spectrum Present: No
Reference Spectrum Present: No
Number of Sampled Component Spectra: 1
Spectrometers: USB2+H05261
Integration Time (usec): 100000 (USB2+H05261)
Spectra Averaged: 1 (USB2+H05261)
Boxcar Smoothing: 0 (USB2+H05261)
Correct for Electrical Dark: No (USB2+H05261)
Strobe/Lamp Enabled: No (USB2+H05261)
Correct for Detector Non-linearity: No (USB2+H05261)
Correct for Stray Light: No (USB2+H05261)
Number of Pixels in Processed Spectrum: 2048
>>>>>Begin Processed Spectral Data<<<<<
365.73	0.00
365.92	0.00
366.12	0.00
366.32	0.00
366.52	0.00
366.72	0.00
366.91	0.00
367.11	0.00
367.31	0.00
367.51	0.00
367.70	0.00
367.90	0.00
368.10	0.00
368.30	0.00
368.49	0.00
368.69	0.00
368.89	0.00
369.09	0.00
369.28	0.00
369.48	0.00
369.68	0.00
369.87	30.43
370.07	0.00
370.27	63.19
370.47	23.41
370.66	67.88
370.86	100.64
371.06	159.16
371.25	131.07
371.45	32.77
371.65	112.35
371.84	11.70
372.04	49.15
372.24	124.05
372.44	131.07
372.63	112.35
372.83	220.01
373.03	37.45
373.22	124.05
373.42	67.88
373.62	119.37
373.81	91.28
374.01	175.54
374.21	163.84
374.40	70.22
374.60	156.82
374.79	124.05
374.99	154.48
375.19	110.01
375.38	74.90
375.58	168.52
375.78	149.79
375.97	131.07
376.17	264.48
376.37	159.16
376.56	149.79
376.76	131.07
376.95	74.90
377.15	100.64
377.35	187.24
377.54	163.84
377.74	126.39
377.93	91.28
378.13	124.05
378.33	168.52
378.52	126.39
378.72	161.50
378.91	182.56
379.11	84.26
379.31	152.13
379.50	86.60
379.70	173.20
379.89	124.05
380.09	149.79
380.28	79.58
380.48	133.41
380.68	79.58
380.87	56.17
381.07	138.09
381.26	117.03
381.46	117.03
381.65	173.20
381.85	124.05
382.04	138.09
382.24	117.03
382.43	124.05
382.63	187.24
382.83	126.39
383.02	110.01
383.22	184.90
383.41	121.71
383.61	149.79
383.80	110.01
384.00	105.32
384.19	128.73
384.39	133.41
384.58	79.58
384.78	126.39
384.97	156.82
385.17	86.60
385.36	93.62
385.56	184.90
385.75	98.30
385.95	93.62
386.14	215.33
386.34	198.95
386.53	67.88
386.72	81.92
386.92	74.90
387.11	205.97
387.31	166.18
387.50	35.11
387.70	102.98
387.89	77.24
388.09	124.05
388.28	114.69
388.48	175.54
388.67	196.60
388.86	100.64
389.06	112.35
389.25	159.16
389.45	145.11
389.64	124.05
389.84	222.35
390.03	229.37
390.22	121.71
390.42	142.77
390.61	112.35
390.81	86.60
391.00	102.98
391.19	133.41
391.39	128.73
391.58	138.09
391.78	142.77
391.97	98.30
392.16	184.90
392.36	121.71
392.55	180.22
392.75	126.39
392.94	60.85
393.13	128.73
393.33	63.19
393.52	203.63
393.71	145.11
393.91	147.45
394.10	105.32
394.29	210.65
394.49	121.71
394.68	65.54
394.88	100.64
395.07	145.11
395.26	135.75
395.46	117.03
395.65	191.92
395.84	126.39
396.04	140.43
396.23	114.69
396.42	79.58
396.62	117.03
396.81	159.16
397.00	184.90
397.19	117.03
397.39	138.09
397.58	177.88
397.77	91.28
397.97	114.69
398.16	149.79
398.35	194.26
398.55	91.28
398.74	126.39
398.93	131.07
399.12	117.03
399.32	119.37
399.51	168.52
399.70	161.50
399.90	110.01
400.09	210.65
400.28	110.01
400.47	135.75
400.67	175.54
400.86	147.45
401.05	156.82
401.24	191.92
401.44	243.42
401.63	205.97
401.82	217.67
402.01	196.60
402.21	238.73
402.40	217.67
402.59	236.39
402.78	243.42
402.97	245.76
403.17	203.63
403.36	287.89
403.55	400.23
403.74	739.61
403.93	2232.87
404.13	5776.44
404.32	9930.89
404.51	10630.71
404.70	6759.47
404.89	2359.26
405.09	725.57
405.28	428.32
405.47	250.44
405.66	259.80
405.85	238.73
406.05	231.71
406.24	203.63
406.43	262.14
406.62	252.78
406.81	292.57
407.00	388.53
407.20	683.44
407.39	1245.16
407.58	1502.62
407.77	1132.82
407.96	615.56
408.15	241.08
408.34	210.65
408.54	222.35
408.73	243.42
408.92	184.90
409.11	248.10
409.30	131.07
409.49	220.01
409.68	166.18
409.87	229.37
410.07	262.14
410.26	205.97
410.45	175.54
410.64	255.12
410.83	217.67
411.02	187.24
411.21	180.22
411.40	327.68
411.59	184.90
411.78	196.60
411.98	290.23
412.17	238.73
412.36	170.86
412.55	222.35
412.74	252.78
412.93	271.50
413.12	252.78
413.31	252.78
413.50	276.18
413.69	227.03
413.88	262.14
414.07	276.18
414.26	320.65
414.45	304.27
414.64	266.82
414.83	259.80
415.02	205.97
415.22	285.55
415.41	339.38
415.60	245.76
415.79	339.38
415.98	355.76
416.17	248.10
416.36	339.38
416.55	285.55
416.74	315.97
416.93	334.70
417.12	278.52
417.31	224.69
417.50	276.18
417.69	250.44
417.88	332.36
418.07	250.44
418.26	341.72
418.45	348.74
418.64	264.48
418.83	346.40
419.02	287.89
419.21	299.59
419.39	257.46
419.58	327.68
419.77	273.84
419.96	351.08
420.15	283.20
420.34	290.23
420.53	264.48
420.72	341.72
420.91	318.31
421.10	334.70
421.29	297.25
421.48	402.57
421.67	344.06
421.86	306.61
422.05	332.36
422.24	372.15
422.43	344.06
422.61	318.31
422.80	372.15
422.99	297.25
423.18	374.49
423.37	440.02
423.56	379.17
423.75	379.17
423.94	393.21
424.13	339.38
424.32	339.38
424.50	351.08
424.69	362.78
424.88	435.34
425.07	341.72
425.26	308.95
425.45	456.40
425.64	346.40
425.83	383.85
426.01	395.55
426.20	421.30
426.39	393.21
426.58	463.43
426.77	425.98
426.96	425.98
427.15	407.25
427.33	355.76
427.52	463.43
427.71	372.15
427.90	390.87
428.09	416.62
428.28	430.66
428.46	418.96
428.65	458.74
428.84	442.36
429.03	456.40
429.22	348.74
429.40	402.57
429.59	428.32
429.78	505.56
429.97	491.51
430.16	414.27
430.34	444.70
430.53	447.04
430.72	510.24
430.91	498.53
431.10	491.51
431.28	571.09
431.47	505.56
431.66	526.62
431.85	533.64
432.03	557.05
432.22	641.31
432.41	482.15
432.60	554.71
432.79	559.39
432.97	526.62
433.16	580.45
433.35	667.05
433.54	884.72
433.72	847.27
433.91	887.06
434.10	849.61
434.28	1125.80
434.47	1390.28
434.66	1444.11
434.85	1741.36
435.03	3971.89
435.22	14099.39
435.41	36428.10
435.59	50145.98
435.78	38127.33
435.97	17429.97
436.16	6579.25
436.34	2157.97
436.53	1212.40
436.72	910.47
436.90	793.44
437.09	793.44
437.28	765.36
437.46	692.80
437.65	716.20
437.84	667.05
438.02	711.52
438.21	671.73
438.40	571.09
438.58	528.96
438.77	662.37
438.96	573.43
439.14	573.43
439.33	573.43
439.52	573.43
439.70	535.98
439.89	617.90
440.08	599.18
440.26	629.60
440.45	514.92
440.63	587.47
440.82	524.28
441.01	594.50
441.19	575.77
441.38	589.82
441.57	578.11
441.75	524.28
441.94	669.39
442.12	634.29
442.31	606.20
442.50	645.99
442.68	526.62
442.87	617.90
443.05	594.50
443.24	601.52
443.43	592.16
443.61	671.73
443.80	610.88
443.98	599.18
444.17	566.41
444.35	622.58
444.54	615.56
444.73	599.18
444.91	674.07
445.10	627.26
445.28	521.94
445.47	627.26
445.65	645.99
445.84	589.82
446.02	564.07
446.21	528.96
446.39	498.53
446.58	580.45
446.77	589.82
446.95	643.65
447.14	564.07
447.32	514.92
447.51	500.87
447.69	503.22
447.88	571.09
448.06	638.97
448.25	554.71
448.43	662.37
448.62	615.56
448.80	596.84
448.99	655.35
449.17	617.90
449.36	547.69
449.54	589.82
449.73	660.03
449.91	573.43
450.10	538.32
450.28	643.65
450.46	589.82
450.65	648.33
450.83	636.63
451.02	606.20
451.20	564.07
451.39	613.22
451.57	557.05
451.76	531.30
451.94	519.60
452.13	617.90
452.31	592.16
452.49	575.77
452.68	667.05
452.86	589.82
453.05	660.03
453.23	594.50
453.42	531.30
453.60	575.77
453.78	550.03
453.97	550.03
454.15	568.75
454.34	535.98
454.52	477.47
454.70	636.63
454.89	587.47
455.07	543.00
455.26	629.60
455.44	535.98
455.62	545.34
455.81	578.11
455.99	636.63
456.17	571.09
456.36	540.66
456.54	510.24
456.73	543.00
456.91	592.16
457.09	587.47
457.28	622.58
457.46	582.79
457.64	561.73
457.83	552.37
458.01	552.37
458.19	589.82
458.38	507.90
458.56	585.13
458.74	538.32
458.93	568.75
459.11	559.39
459.29	571.09
459.48	613.22
459.66	610.88
459.84	561.73
460.03	631.94
460.21	571.09
460.39	524.28
460.57	636.63
460.76	571.09
460.94	564.07
461.12	573.43
461.31	629.60
461.49	622.58
461.67	613.22
461.85	566.41
462.04	624.92
462.22	685.78
462.40	552.37
462.59	627.26
462.77	554.71
462.95	561.73
463.13	573.43
463.32	603.86
463.50	603.86
463.68	535.98
463.86	500.87
464.05	559.39
464.23	580.45
464.41	674.07
464.59	592.16
464.78	620.24
464.96	540.66
465.14	524.28
465.32	566.41
465.50	533.64
465.69	454.06
465.87	571.09
466.05	496.19
466.23	496.19
466.41	538.32
466.60	561.73
466.78	580.45
466.96	624.92
467.14	629.60
467.32	617.90
467.51	730.25
467.69	479.81
467.87	613.22
468.05	535.98
468.23	554.71
468.41	538.32
468.60	552.37
468.78	444.70
468.96	578.11
469.14	533.64
469.32	531.30
469.50	470.45
469.69	540.66
469.87	545.34
470.05	442.36
470.23	512.58
470.41	421.30
470.59	531.30
470.77	472.79
470.95	496.19
471.14	547.69
471.32	500.87
471.50	561.73
471.68	564.07
471.86	479.81
472.04	468.11
472.22	566.41
472.40	582.79
472.58	507.90
472.77	465.77
472.95	585.13
473.13	638.97
473.31	531.30
473.49	533.64
473.67	482.15
473.85	472.79
474.03	580.45
474.21	510.24
474.39	613.22
474.57	528.96
474.75	528.96
474.93	573.43
475.12	540.66
475.30	491.51
475.48	477.47
475.66	547.69
475.84	498.53
476.02	547.69
476.20	489.17
476.38	533.64
476.56	540.66
476.74	557.05
476.92	599.18
477.10	566.41
477.28	587.47
477.46	641.31
477.64	631.94
477.82	653.01
478.00	578.11
478.18	636.63
478.36	610.88
478.54	650.67
478.72	580.45
478.90	645.99
479.08	692.80
479.26	706.84
479.44	706.84
479.62	816.85
479.80	767.70
479.98	798.12
480.16	777.06
480.34	880.04
480.52	800.46
480.70	884.72
480.88	910.47
481.06	1004.09
481.24	1032.18
481.41	1093.03
481.59	1184.31
481.77	1235.80
481.95	1294.32
482.13	1343.47
482.31	1366.87
482.49	1556.46
482.67	1542.41
482.85	1657.10
483.03	1895.83
483.21	1886.47
483.39	2078.40
483.57	2200.10
483.74	2314.79
483.92	2462.24
484.10	2544.16
484.28	2696.30
484.46	2972.48
484.64	3045.04
484.82	3162.06
485.00	3379.73
485.18	3639.53
485.35	3822.09
485.53	3936.78
485.71	4028.06
485.89	4236.37
486.07	4315.95
486.25	4444.68
486.43	4732.56
486.61	4447.02
486.78	4683.41
486.96	4601.49
487.14	4566.39
487.32	4531.28
487.50	4528.94
487.68	4329.99
487.85	4259.78
488.03	4402.55
488.21	4337.01
488.39	4170.83
488.57	4109.98
488.75	3981.25
488.92	4112.32
489.10	3754.22
489.28	3721.45
489.46	3545.91
489.64	3632.51
489.81	3531.87
489.99	3473.36
490.17	3358.67
490.35	3307.18
490.53	3349.31
490.70	3328.24
490.88	3330.58
491.06	3517.83
491.24	3658.26
491.41	3889.97
491.59	3592.72
491.77	3449.95
491.95	3204.19
492.13	3112.91
492.30	3061.42
492.48	2988.86
492.66	2949.08
492.84	3045.04
493.01	2899.92
493.19	2864.82
493.37	2906.95
493.54	2820.35
493.72	2738.43
493.90	2736.09
494.08	2595.65
494.25	2668.21
494.43	2518.42
494.61	2401.39
494.79	2443.52
494.96	2473.95
495.14	2399.05
495.32	2392.03
495.49	2466.92
495.67	2328.83
495.85	2270.32
496.02	2228.19
496.20	2167.34
496.38	2111.16
496.55	2157.97
496.73	2104.14
496.91	2043.29
497.09	2038.61
497.26	2015.20
497.44	1980.09
497.62	1977.75
497.79	1820.94
497.97	1832.64
498.14	1893.49
498.32	1834.98
498.50	1783.49
498.67	1619.65
498.85	1645.40
499.03	1586.88
499.20	1502.62
499.38	1507.30
499.56	1554.12
499.73	1530.71
499.91	1563.48
500.08	1390.28
500.26	1411.34
500.44	1284.95
500.61	1132.82
500.79	1165.59
500.97	1277.93
501.14	1095.37
501.32	1123.46
501.49	1078.99
501.67	1081.33
501.84	1006.43
502.02	1055.58
502.20	1013.45
502.37	924.51
502.55	973.66
502.72	936.21
502.90	877.70
503.07	936.21
503.25	856.64
503.43	856.64
503.60	786.42
503.78	849.61
503.95	767.70
504.13	779.40
504.30	746.63
504.48	786.42
504.65	807.48
504.83	753.65
505.01	688.12
505.18	716.20
505.36	751.31
505.53	627.26
505.71	655.35
505.88	601.52
506.06	669.39
506.23	636.63
506.41	638.97
506.58	629.60
506.76	587.47
506.93	601.52
507.11	648.33
507.28	603.86
507.46	603.86
507.63	629.60
507.81	571.09
507.98	547.69
508.16	573.43
508.33	557.05
508.50	596.84
508.68	674.07
508.85	566.41
509.03	535.98
509.20	695.14
509.38	615.56
509.55	688.12
509.73	702.16
509.90	585.13
510.08	601.52
510.25	589.82
510.42	503.22
510.60	528.96
510.77	566.41
510.95	561.73
511.12	477.47
511.30	526.62
511.47	533.64
511.64	500.87
511.82	505.56
511.99	486.83
512.17	568.75
512.34	507.90
512.51	519.60
512.69	594.50
512.86	617.90
513.04	479.81
513.21	482.15
513.38	559.39
513.56	486.83
513.73	496.19
513.90	482.15
514.08	552.37
514.25	477.47
514.43	489.17
514.60	425.98
514.77	393.21
514.95	386.19
515.12	428.32
515.29	440.02
515.47	423.64
515.64	491.51
515.81	379.17
515.99	440.02
516.16	479.81
516.33	519.60
516.51	400.23
516.68	458.74
516.85	517.26
517.03	425.98
517.20	470.45
517.37	425.98
517.54	498.53
517.72	435.34
517.89	334.70
518.06	337.04
518.24	461.09
518.41	472.79
518.58	402.57
518.75	423.64
518.93	421.30
519.10	442.36
519.27	395.55
519.45	423.64
519.62	470.45
519.79	418.96
519.96	418.96
520.14	461.09
520.31	540.66
520.48	461.09
520.65	482.15
520.83	433.00
521.00	472.79
521.17	444.70
521.34	358.10
521.52	493.85
521.69	493.85
521.86	400.23
522.03	428.32
522.20	505.56
522.38	337.04
522.55	444.70
522.72	444.70
522.89	475.13
523.07	468.11
523.24	400.23
523.41	418.96
523.58	433.00
523.75	447.04
523.92	440.02
524.10	437.68
524.27	486.83
524.44	414.27
524.61	416.62
524.78	367.46
524.96	454.06
525.13	524.28
525.30	440.02
525.47	505.56
525.64	402.57
525.81	449.38
525.98	456.40
526.16	442.36
526.33	440.02
526.50	519.60
526.67	444.70
526.84	454.06
527.01	521.94
527.18	554.71
527.36	521.94
527.53	638.97
527.70	622.58
527.87	545.34
528.04	510.24
528.21	435.34
528.38	571.09
528.55	660.03
528.72	634.29
528.89	573.43
529.07	615.56
529.24	629.60
529.41	617.90
529.58	641.31
529.75	610.88
529.92	524.28
530.09	636.63
530.26	669.39
530.43	641.31
530.60	662.37
530.77	706.84
530.94	723.23
531.11	727.91
531.28	795.78
531.46	748.97
531.63	938.55
531.80	905.79
531.97	894.08
532.14	844.93
532.31	1224.10
532.48	1371.55
532.65	1579.86
532.82	1870.09
532.99	2193.08
533.16	2518.42
533.33	2829.71
533.50	2579.27
533.67	2221.17
533.84	1872.43
534.01	1680.50
534.18	1554.12
534.35	1495.60
534.52	1523.69
534.69	1570.50
534.86	1647.74
535.03	1699.23
535.20	1834.98
535.37	1851.36
535.54	1973.07
535.71	2071.37
535.88	2122.87
536.05	2050.31
536.22	2509.05
536.38	2572.25
536.55	2787.58
536.72	3208.87
536.89	3585.70
537.06	4039.76
537.23	4535.96
537.40	4891.72
537.57	5270.89
537.74	5467.49
537.91	5959.00
538.08	5900.49
538.25	6186.04
538.42	6246.89
538.59	6274.98
538.75	6478.60
538.92	6857.77
539.09	7487.37
539.26	8180.17
539.43	9408.95
539.60	10649.44
539.77	11908.65
539.94	13528.30
540.11	15208.80
540.28	16428.22
540.44	18118.09
540.61	19948.39
540.78	22754.69
540.95	27349.16
541.12	33104.54
541.29	37401.76
541.46	39660.38
541.62	39632.29
541.79	38398.83
541.96	35225.06
542.13	32849.42
542.30	30356.75
542.47	28449.21
542.63	26822.54
542.80	25989.31
542.97	25352.68
543.14	25528.22
543.31	25528.22
543.48	25940.16
543.64	26099.31
543.81	26122.72
543.98	26143.78
544.15	26944.25
544.32	26960.63
544.48	27131.49
544.65	26148.46
544.82	25759.94
544.99	26195.28
545.16	26560.40
545.32	27735.35
545.49	39910.82
545.66	59803.03
545.83	65535.00
546.00	65535.00
546.16	62466.56
546.33	45523.42
546.50	34586.10
546.67	27501.29
546.83	24393.06
547.00	23536.43
547.17	22125.08
547.34	20994.61
547.50	20524.16
547.67	19756.46
547.84	18527.68
548.00	18057.23
548.17	17348.05
548.34	16411.84
548.51	16067.78
548.67	15391.36
548.84	14626.01
549.01	14033.85
549.18	13050.83
549.34	12533.57
549.51	12187.17
549.68	11669.91
549.84	11229.89
550.01	10501.98
550.18	10111.11
550.34	9928.55
550.51	9191.28
550.68	8854.25
550.84	8131.02
551.01	7868.88
551.18	7379.71
551.34	6923.30
551.51	6696.27
551.68	6626.06
551.84	6403.71
552.01	5998.79
552.18	6111.14
552.34	5542.39
552.51	5273.23
552.68	5093.01
552.84	4968.96
553.01	4681.07
553.18	4524.26
553.34	4432.97
553.51	4344.03
553.67	4194.24
553.84	4037.42
554.01	3641.87
554.17	3501.44
554.34	3391.44
554.51	3080.14
554.67	2808.64
554.84	2787.58
555.00	2583.95
555.17	2492.67
555.33	2406.07
555.50	2284.36
555.67	2223.51
555.83	2038.61
556.00	1994.14
556.16	1994.14
556.33	1879.45
556.50	1764.76
556.66	1671.14
556.83	1617.31
556.99	1565.82
557.16	1619.65
557.32	1488.58
557.49	1493.26
557.65	1448.79
557.82	1507.30
557.98	1469.86
558.15	1362.19
558.32	1371.55
558.48	1336.45
558.65	1242.82
558.81	1181.97
558.98	1160.91
559.14	1172.61
559.31	1137.50
559.47	1179.63
559.64	1121.12
559.80	1107.07
559.97	1088.35
560.13	1008.77
560.30	1027.50
560.46	992.39
560.63	1011.11
560.79	1015.79
560.96	1053.24
561.12	971.32
561.29	1022.81
561.45	987.71
561.61	1015.79
561.78	1032.18
561.94	961.96
562.11	976.00
562.27	1029.84
562.44	966.64
562.60	999.41
562.77	947.92
562.93	919.83
563.10	863.66
563.26	917.49
563.42	968.98
563.59	915.15
563.75	826.21
563.92	882.38
564.08	854.30
564.24	945.58
564.41	917.49
564.57	755.99
564.74	802.80
564.90	814.51
565.07	851.96
565.23	826.21
565.39	844.93
565.56	828.55
565.72	737.27
565.88	809.83
566.05	819.19
566.21	800.46
566.38	798.12
566.54	702.16
566.70	840.25
566.87	791.10
567.03	765.36
567.19	807.48
567.36	823.87
567.52	723.23
567.68	774.72
567.85	737.27
568.01	690.46
568.17	760.67
568.34	819.19
568.50	858.98
568.66	772.38
568.83	854.30
568.99	814.51
569.15	788.76
569.32	727.91
569.48	758.33
569.64	638.97
569.81	697.48
569.97	608.54
570.13	585.13
570.30	585.13
570.46	631.94
570.62	477.47
570.78	601.52
570.95	610.88
571.11	564.07
571.27	622.58
571.43	505.56
571.60	648.33
571.76	587.47
571.92	575.77
572.09	561.73
572.25	571.09
572.41	582.79
572.57	573.43
572.74	615.56
572.90	615.56
573.06	629.60
573.22	702.16
573.38	699.82
573.55	674.07
573.71	643.65
573.87	540.66
574.03	645.99
574.20	608.54
574.36	660.03
574.52	683.44
574.68	767.70
574.84	835.57
575.01	791.10
575.17	823.87
575.33	1006.43
575.49	947.92
575.65	1022.81
575.82	1114.10
575.98	1233.46
576.14	1313.04
576.30	2380.32
576.46	7452.27
576.62	15538.82
576.79	21799.75
576.95	15433.49
577.11	9170.22
577.27	6181.35
577.43	3999.98
577.59	2656.51
577.75	2071.37
577.92	1926.26
578.08	1863.07
578.24	1872.43
578.40	2670.55
578.56	7091.82
578.72	13865.33
578.88	20730.12
579.04	14347.48
579.21	8744.24
579.37	6235.19
579.53	4849.59
579.69	4355.74
579.85	5289.61
580.01	6981.82
580.17	7007.56
580.33	5921.56
580.49	4905.76
580.65	4339.35
580.82	3875.93
580.98	3775.28
581.14	3843.16
581.30	4133.39
581.46	4245.73
581.62	4559.36
581.78	5011.09
581.94	5317.70
582.10	5713.25
582.26	5905.17
582.42	6202.42
582.58	6635.42
582.74	6513.71
582.90	6597.97
583.06	6417.75
583.22	6630.74
583.38	6796.92
583.54	6710.32
583.70	6614.35
583.86	6452.86
584.02	6445.84
584.18	6399.02
584.34	5966.03
584.50	6129.86
584.66	5912.19
584.82	5879.43
584.98	5832.62
585.14	5731.97
585.30	5589.20
585.46	5528.35
585.62	5430.04
585.78	5397.28
585.94	5397.28
586.10	5472.17
586.26	5699.20
586.42	6700.95
586.58	7838.45
586.74	9390.23
586.90	11955.46
587.06	13310.63
587.22	13584.47
587.38	12163.76
587.54	10331.12
587.70	8400.18
587.86	7068.42
588.02	6157.95
588.18	5376.21
588.34	4725.54
588.49	4362.76
588.65	4156.79
588.81	4084.23
588.97	3829.12
589.13	3719.11
589.29	3751.88
589.45	3728.47
589.61	3653.58
589.77	3705.07
589.93	3506.12
590.08	3819.75
590.24	3868.91
590.40	4053.81
590.56	4124.02
590.72	4257.43
590.88	4329.99
591.04	4461.06
591.20	4500.85
591.35	4826.18
591.51	5001.72
591.67	5238.12
591.83	5640.69
591.99	5991.77
592.15	6670.53
592.31	7087.14
592.46	7618.44
592.62	8456.36
592.78	9188.94
592.94	9668.75
593.10	9542.36
593.26	9104.68
593.41	8283.16
593.57	7571.63
593.73	6530.09
593.89	5898.15
594.05	5193.65
594.20	4507.87
594.36	4292.54
594.52	3936.78
594.68	3639.53
594.84	3583.36
594.99	3471.01
595.15	3349.31
595.31	3468.67
595.47	3344.63
595.62	3136.32
595.78	3258.03
595.94	3269.73
596.10	3452.29
596.25	3304.84
596.41	3253.34
596.57	3145.68
596.73	3187.81
596.88	3204.19
597.04	3267.39
597.20	3124.62
597.36	3236.96
597.51	3473.36
597.67	3634.85
597.83	3714.43
597.99	3915.72
598.14	4016.36
598.30	4386.16
598.46	4643.62
598.61	4781.71
598.77	4952.57
598.93	5432.38
599.09	5493.24
599.24	5633.67
599.40	5586.86
599.56	5474.51
599.71	5282.59
599.87	4997.04
600.03	4765.33
600.18	4313.61
600.34	4030.40
600.50	3861.88
600.65	3396.12
600.81	3192.49
600.97	3279.09
601.12	2864.82
601.28	2888.22
601.44	2780.56
601.59	2443.52
601.75	2483.31
601.91	2434.16
602.06	2424.80
602.22	2342.88
602.37	2174.36
602.53	2118.18
602.69	2115.84
602.84	2026.90
603.00	2160.31
603.16	2218.83
603.31	2183.72
603.47	2193.08
603.62	2251.60
603.78	2377.98
603.94	2427.14
604.09	2450.54
604.25	2478.63
604.40	2450.54
604.56	2581.61
604.71	2506.71
604.87	2530.12
605.03	2590.97
605.18	2768.85
605.34	2672.89
605.49	2729.06
605.65	2825.03
605.80	2803.96
605.96	3021.63
606.12	3124.62
606.27	3152.70
606.43	3349.31
606.58	3669.96
606.74	3688.68
606.89	3922.74
607.05	4023.38
607.20	4334.67
607.36	4503.19
607.51	4873.00
607.67	5053.22
607.82	5493.24
607.98	5825.59
608.13	6129.86
608.29	6703.29
608.44	7297.79
608.60	8046.76
608.75	8599.13
608.91	9474.49
609.06	10335.81
609.22	11805.66
609.37	12840.18
609.53	14354.51
609.68	16491.41
609.84	18551.09
609.99	21745.92
610.15	25661.63
610.30	31239.13
610.46	39674.42
610.61	49404.03
610.76	57827.62
610.92	63606.40
611.07	65535.00
611.23	65535.00
611.38	65535.00
611.54	63910.67
611.69	59847.50
611.84	54717.04
612.00	48423.34
612.15	40994.48
612.31	35826.58
612.46	32275.99
612.62	29450.96
612.77	27459.16
612.92	26103.99
613.08	24732.44
613.23	23697.92
613.39	22876.40
613.54	22270.20
613.69	21544.63
613.85	21111.63
614.00	20868.22
614.15	20741.83
614.31	20390.75
614.46	20262.02
614.62	19604.33
614.77	18321.71
614.92	17502.53
615.08	16142.67
615.23	14822.61
615.38	13748.31
615.54	12559.31
615.69	11283.72
615.84	10356.87
616.00	9678.12
616.15	8788.71
616.30	8276.13
616.46	7845.48
616.61	7410.14
616.76	7140.97
616.92	6511.37
617.07	6436.47
617.22	5760.06
617.37	5563.45
617.53	5416.00
617.68	5167.90
617.83	4828.53
617.99	4800.44
618.14	4908.10
618.29	4657.67
618.45	4219.99
618.60	4166.15
618.75	4182.54
618.90	4184.88
619.06	4353.40
619.21	4205.94
619.36	4053.81
619.51	4142.75
619.67	4091.26
619.82	4175.52
619.97	4161.47
620.12	4287.86
620.28	4447.02
620.43	4629.58
620.58	4657.67
620.73	4503.19
620.89	4655.33
621.04	4507.87
621.19	4697.46
621.34	4582.77
621.49	4341.69
621.65	4416.59
621.80	4430.63
621.95	4252.75
622.10	4341.69
622.25	4234.03
622.41	4418.93
622.56	4458.72
622.71	4746.61
622.86	4786.40
623.01	5013.43
623.16	4868.31
623.32	4856.61
623.47	4943.21
623.62	4816.82
623.77	4936.19
623.92	4999.38
624.07	4905.76
624.23	4910.44
624.38	4929.17
624.53	4943.21
624.68	5053.22
624.83	4961.94
624.98	5039.17
625.13	5022.79
625.29	5043.85
625.44	5123.43
625.59	5151.52
625.74	5238.12
625.89	5275.57
626.04	4985.34
626.19	5071.94
626.34	5062.58
626.49	5050.88
626.65	5116.41
626.80	4952.57
626.95	4929.17
627.10	4823.84
627.25	4952.57
627.40	4704.48
627.55	4606.17
627.70	4592.13
627.85	4683.41
628.00	4454.04
628.15	4437.66
628.30	4514.89
628.45	4383.82
628.60	4451.70
628.76	4573.41
628.91	4526.60
629.06	4486.81
629.21	4629.58
629.36	4755.97
629.51	4809.80
629.66	5191.31
629.81	5418.34
629.96	5806.87
630.11	6396.68
630.26	7431.20
630.41	8037.40
630.56	9165.54
630.71	9598.54
630.86	9937.91
631.01	9900.47
631.16	9198.31
631.31	8505.51
631.46	7126.93
631.61	6036.24
631.76	5125.77
631.91	4257.43
632.06	3641.87
632.21	3035.67
632.36	2771.19
632.51	2431.82
632.66	2237.55
632.81	2125.21
632.96	1973.07
633.10	1891.15
633.25	1795.19
633.40	1790.51
633.55	1486.24
633.70	1579.86
633.85	1493.26
634.00	1355.17
634.15	1385.60
634.30	1282.61
634.45	1291.98
634.60	1273.25
634.75	1235.80
634.90	1254.53
635.05	1228.78
635.19	1235.80
635.34	1191.33
635.49	1165.59
635.64	1121.12
635.79	1139.84
635.94	1156.22
636.09	1107.07
636.24	1081.33
636.39	1118.78
636.53	1163.25
636.68	964.30
636.83	1076.65
636.98	1093.03
637.13	1018.13
637.28	978.34
637.43	1050.90
637.57	912.81
637.72	985.37
637.87	947.92
638.02	1048.56
638.17	898.77
638.32	1008.77
638.46	922.17
638.61	896.43
638.76	901.11
638.91	875.36
639.06	823.87
639.20	887.06
639.35	842.59
639.50	828.55
639.65	840.25
639.80	863.66
639.94	863.66
640.09	877.70
640.24	856.64
640.39	716.20
640.54	809.83
640.68	798.12
640.83	880.04
640.98	802.80
641.13	809.83
641.27	758.33
641.42	812.17
641.57	844.93
641.72	793.44
641.86	802.80
642.01	706.84
642.16	882.38
642.31	763.01
642.45	863.66
642.60	842.59
642.75	816.85
642.90	842.59
643.04	744.29
643.19	870.68
643.34	905.79
643.48	774.72
643.63	763.01
643.78	1011.11
643.93	884.72
644.07	870.68
644.22	758.33
644.37	812.17
644.51	816.85
644.66	854.30
644.81	842.59
644.95	877.70
645.10	805.14
645.25	835.57
645.39	877.70
645.54	763.01
645.69	748.97
645.83	720.88
645.98	854.30
646.13	763.01
646.27	784.08
646.42	741.95
646.57	711.52
646.71	765.36
646.86	744.29
647.00	793.44
647.15	772.38
647.30	760.67
647.44	737.27
647.59	777.06
647.74	774.72
647.88	816.85
648.03	748.97
648.17	866.00
648.32	833.23
648.47	774.72
648.61	781.74
648.76	847.27
648.90	781.74
649.05	978.34
649.20	966.64
649.34	1046.22
649.49	1163.25
649.63	1336.45
649.78	1547.09
649.92	1776.47
650.07	2179.04
650.21	2487.99
650.36	2803.96
650.51	2839.07
650.65	2609.70
650.80	2335.85
650.94	2008.18
651.09	1919.24
651.23	1687.53
651.38	1549.43
651.52	1359.85
651.67	1313.04
651.81	1086.01
651.96	1032.18
652.10	1018.13
652.25	1011.11
652.39	1060.26
652.54	1104.73
652.68	1203.04
652.83	1233.46
652.97	1383.26
653.12	1401.98
653.26	1235.80
653.41	1263.89
653.55	1219.42
653.70	1088.35
653.84	1004.09
653.99	924.51
654.13	999.41
654.27	812.17
654.42	828.55
654.56	863.66
654.71	858.98
654.85	767.70
655.00	774.72
655.14	730.25
655.29	718.54
655.43	765.36
655.57	809.83
655.72	732.59
655.86	718.54
656.01	683.44
656.15	723.23
656.30	781.74
656.44	627.26
656.58	685.78
656.73	739.61
656.87	685.78
657.01	704.50
657.16	889.40
657.30	842.59
657.45	905.79
657.59	905.79
657.73	968.98
657.88	861.32
658.02	964.30
658.16	823.87
658.31	798.12
658.45	784.08
658.60	755.99
658.74	683.44
658.88	641.31
659.03	676.41
659.17	634.29
659.31	566.41
659.46	627.26
659.60	589.82
659.74	596.84
659.89	557.05
660.03	524.28
660.17	589.82
660.32	498.53
660.46	533.64
660.60	547.69
660.74	554.71
660.89	596.84
661.03	645.99
661.17	645.99
661.32	692.80
661.46	753.65
661.60	798.12
661.74	1076.65
661.89	1291.98
662.03	1465.18
662.17	1551.78
662.31	1638.38
662.46	1682.85
662.60	1535.39
662.74	1308.36
662.88	1249.85
663.03	1158.57
663.17	966.64
663.31	896.43
663.45	877.70
663.60	816.85
663.74	837.91
663.88	737.27
664.02	629.60
664.17	580.45
664.31	636.63
664.45	688.12
664.59	582.79
664.73	592.16
664.88	650.67
665.02	507.90
665.16	547.69
665.30	540.66
665.44	580.45
665.59	550.03
665.73	603.86
665.87	496.19
666.01	519.60
666.15	505.56
666.29	547.69
666.44	561.73
666.58	528.96
666.72	566.41
666.86	512.58
667.00	622.58
667.14	535.98
667.28	596.84
667.43	491.51
667.57	517.26
667.71	540.66
667.85	589.82
667.99	603.86
668.13	550.03
668.27	550.03
668.41	608.54
668.56	554.71
668.70	599.18
668.84	503.22
668.98	519.60
669.12	451.72
669.26	519.60
669.40	514.92
669.54	461.09
669.68	538.32
669.82	454.06
669.96	472.79
670.10	454.06
670.25	519.60
670.39	442.36
670.53	407.25
670.67	528.96
670.81	397.89
670.95	535.98
671.09	489.17
671.23	503.22
671.37	454.06
671.51	461.09
671.65	472.79
671.79	531.30
671.93	423.64
672.07	545.34
672.21	512.58
672.35	428.32
672.49	458.74
672.63	414.27
672.77	458.74
672.91	430.66
673.05	404.91
673.19	418.96
673.33	379.17
673.47	435.34
673.61	386.19
673.75	383.85
673.89	430.66
674.03	383.85
674.17	458.74
674.31	351.08
674.45	362.78
674.59	367.46
674.73	423.64
674.87	379.17
675.01	416.62
675.15	325.33
675.29	402.57
675.43	430.66
675.56	435.34
675.70	395.55
675.84	365.12
675.98	449.38
676.12	360.44
676.26	397.89
676.40	397.89
676.54	393.21
676.68	402.57
676.82	423.64
676.96	318.31
677.10	292.57
677.23	315.97
677.37	395.55
677.51	320.65
677.65	423.64
677.79	332.36
677.93	425.98
678.07	330.02
678.21	367.46
678.34	374.49
678.48	315.97
678.62	416.62
678.76	315.97
678.90	404.91
679.04	339.38
679.18	374.49
679.31	423.64
679.45	440.02
679.59	395.55
679.73	409.59
679.87	449.38
680.00	409.59
680.14	451.72
680.28	383.85
680.42	425.98
680.56	493.85
680.70	435.34
680.83	388.53
680.97	344.06
681.11	475.13
681.25	414.27
681.39	442.36
681.52	468.11
681.66	444.70
681.80	376.83
681.94	484.49
682.07	404.91
682.21	372.15
682.35	416.62
682.49	411.93
682.62	365.12
682.76	388.53
682.90	407.25
683.04	447.04
683.17	372.15
683.31	346.40
683.45	369.80
683.59	348.74
683.72	454.06
683.86	332.36
684.00	318.31
684.13	383.85
684.27	400.23
684.41	397.89
684.55	304.27
684.68	369.80
684.82	381.51
684.96	360.44
685.09	313.63
685.23	402.57
685.37	337.04
685.50	386.19
685.64	458.74
685.78	489.17
685.91	423.64
686.05	444.70
686.19	423.64
686.32	486.83
686.46	493.85
686.60	533.64
686.73	638.97
686.87	648.33
687.01	660.03
687.14	819.19
687.28	863.66
687.42	966.64
687.55	894.08
687.69	1011.11
687.82	889.40
687.96	912.81
688.10	1046.22
688.23	849.61
688.37	802.80
688.50	781.74
688.64	758.33
688.78	657.69
688.91	601.52
689.05	540.66
689.18	479.81
689.32	498.53
689.46	372.15
689.59	374.49
689.73	325.33
689.86	322.99
690.00	315.97
690.13	330.02
690.27	301.93
690.41	386.19
690.54	500.87
690.68	451.72
690.81	402.57
690.95	386.19
691.08	351.08
691.22	285.55
691.35	231.71
691.49	222.35
691.62	313.63
691.76	308.95
691.89	262.14
692.03	182.56
692.16	304.27
692.30	252.78
692.43	278.52
692.57	250.44
692.70	306.61
692.84	334.70
692.97	376.83
693.11	367.46
693.24	454.06
693.38	627.26
693.51	650.67
693.65	779.40
693.78	802.80
693.92	697.48
694.05	751.31
694.19	566.41
694.32	514.92
694.45	423.64
694.59	411.93
694.72	320.65
694.86	285.55
694.99	264.48
695.13	273.84
695.26	217.67
695.39	264.48
695.53	301.93
695.66	234.05
695.80	306.61
695.93	236.39
696.07	220.01
696.20	229.37
696.33	227.03
696.47	344.06
696.60	341.72
696.73	236.39
696.87	245.76
697.00	166.18
697.14	229.37
697.27	224.69
697.40	231.71
697.54	257.46
697.67	182.56
697.80	147.45
697.94	229.37
698.07	182.56
698.21	100.64
698.34	170.86
698.47	128.73
698.61	145.11
698.74	180.22
698.87	149.79
699.01	170.86
699.14	126.39
699.27	196.60
699.40	299.59
699.54	243.42
699.67	234.05
699.80	196.60
699.94	177.88
700.07	126.39
700.20	152.13
700.34	189.58
700.47	149.79
700.60	236.39
700.73	119.37
700.87	208.31
701.00	222.35
701.13	208.31
701.26	266.82
701.40	194.26
701.53	276.18
701.66	170.86
701.79	290.23
701.93	187.24
702.06	318.31
702.19	231.71
702.32	299.59
702.46	238.73
702.59	180.22
702.72	163.84
702.85	222.35
702.99	271.50
703.12	252.78
703.25	201.29
703.38	290.23
703.51	360.44
703.65	283.20
703.78	264.48
703.91	341.72
704.04	376.83
704.17	320.65
704.31	292.57
704.44	344.06
704.57	353.42
704.70	383.85
704.83	313.63
704.96	367.46
705.10	430.66
705.23	486.83
>>>>>End Processed Spectral Data<<<<<
