SpectraSuite Data File
++++++++++++++++++++++++++++++++++++
Date: Mon Oct 07 14:59:57 GMT-05:00 2013
User: price-jones
Dark Spectrum Present: No
Reference Spectrum Present: No
Number of Sampled Component Spectra: 1
Spectrometers: USB2+H05261
Integration Time (usec): 100000 (USB2+H05261)
Spectra Averaged: 1 (USB2+H05261)
Boxcar Smoothing: 0 (USB2+H05261)
Correct for Electrical Dark: No (USB2+H05261)
Strobe/Lamp Enabled: No (USB2+H05261)
Correct for Detector Non-linearity: No (USB2+H05261)
Correct for Stray Light: No (USB2+H05261)
Number of Pixels in Processed Spectrum: 2048
>>>>>Begin Processed Spectral Data<<<<<
365.73	0.00
365.92	0.00
366.12	0.00
366.32	0.00
366.52	0.00
366.72	0.00
366.91	0.00
367.11	0.00
367.31	0.00
367.51	0.00
367.70	0.00
367.90	0.00
368.10	0.00
368.30	0.00
368.49	0.00
368.69	0.00
368.89	0.00
369.09	0.00
369.28	0.00
369.48	0.00
369.68	0.00
369.87	0.00
370.07	0.00
370.27	0.00
370.47	0.00
370.66	0.00
370.86	0.00
371.06	0.00
371.25	0.00
371.45	0.00
371.65	0.00
371.84	0.00
372.04	0.00
372.24	0.00
372.44	0.00
372.63	0.00
372.83	0.00
373.03	0.00
373.22	0.00
373.42	0.00
373.62	0.00
373.81	0.00
374.01	0.00
374.21	0.00
374.40	0.00
374.60	0.00
374.79	0.00
374.99	0.00
375.19	0.00
375.38	0.00
375.58	0.00
375.78	0.00
375.97	0.00
376.17	0.00
376.37	0.00
376.56	0.00
376.76	0.00
376.95	0.00
377.15	0.00
377.35	0.00
377.54	0.00
377.74	0.00
377.93	0.00
378.13	0.00
378.33	0.00
378.52	0.00
378.72	0.00
378.91	0.00
379.11	0.00
379.31	0.00
379.50	0.00
379.70	0.00
379.89	0.00
380.09	0.00
380.28	0.00
380.48	0.00
380.68	0.00
380.87	0.00
381.07	0.00
381.26	0.00
381.46	0.00
381.65	0.00
381.85	0.00
382.04	0.00
382.24	0.00
382.43	0.00
382.63	0.00
382.83	0.00
383.02	0.00
383.22	0.00
383.41	0.00
383.61	0.00
383.80	0.00
384.00	0.00
384.19	0.00
384.39	0.00
384.58	0.00
384.78	0.00
384.97	0.00
385.17	0.00
385.36	0.00
385.56	0.00
385.75	0.00
385.95	0.00
386.14	0.00
386.34	0.00
386.53	0.00
386.72	0.00
386.92	0.00
387.11	0.00
387.31	0.00
387.50	0.00
387.70	0.00
387.89	0.00
388.09	0.00
388.28	0.00
388.48	0.00
388.67	0.00
388.86	0.00
389.06	0.00
389.25	0.00
389.45	0.00
389.64	0.00
389.84	0.00
390.03	0.00
390.22	0.00
390.42	0.00
390.61	0.00
390.81	0.00
391.00	0.00
391.19	0.00
391.39	0.00
391.58	0.00
391.78	0.00
391.97	0.00
392.16	0.00
392.36	0.00
392.55	0.00
392.75	0.00
392.94	0.00
393.13	0.00
393.33	0.00
393.52	0.00
393.71	0.00
393.91	0.00
394.10	0.00
394.29	0.00
394.49	0.00
394.68	0.00
394.88	0.00
395.07	0.00
395.26	0.00
395.46	0.00
395.65	0.00
395.84	0.00
396.04	0.00
396.23	0.00
396.42	0.00
396.62	0.00
396.81	0.00
397.00	0.00
397.19	0.00
397.39	0.00
397.58	0.00
397.77	0.00
397.97	0.00
398.16	0.00
398.35	0.00
398.55	0.00
398.74	0.00
398.93	0.00
399.12	0.00
399.32	0.00
399.51	0.00
399.70	0.00
399.90	0.00
400.09	0.00
400.28	0.00
400.47	0.00
400.67	0.00
400.86	0.00
401.05	0.00
401.24	0.00
401.44	0.00
401.63	0.00
401.82	0.00
402.01	0.00
402.21	0.00
402.40	0.00
402.59	0.00
402.78	0.00
402.97	0.00
403.17	0.00
403.36	0.00
403.55	0.00
403.74	0.00
403.93	0.00
404.13	0.00
404.32	0.00
404.51	0.00
404.70	0.00
404.89	0.00
405.09	0.00
405.28	0.00
405.47	0.00
405.66	0.00
405.85	0.00
406.05	0.00
406.24	0.00
406.43	0.00
406.62	0.00
406.81	0.00
407.00	0.00
407.20	0.00
407.39	0.00
407.58	0.00
407.77	0.00
407.96	0.00
408.15	0.00
408.34	0.00
408.54	0.00
408.73	0.00
408.92	0.00
409.11	0.00
409.30	0.00
409.49	0.00
409.68	0.00
409.87	0.00
410.07	0.00
410.26	0.00
410.45	0.00
410.64	0.00
410.83	0.00
411.02	0.00
411.21	0.00
411.40	0.00
411.59	0.00
411.78	0.00
411.98	0.00
412.17	0.00
412.36	0.00
412.55	0.00
412.74	0.00
412.93	0.00
413.12	0.00
413.31	0.00
413.50	0.00
413.69	0.00
413.88	0.00
414.07	0.00
414.26	0.00
414.45	0.00
414.64	0.00
414.83	0.00
415.02	0.00
415.22	0.00
415.41	0.00
415.60	0.00
415.79	0.00
415.98	0.00
416.17	0.00
416.36	0.00
416.55	0.00
416.74	0.00
416.93	0.00
417.12	0.00
417.31	0.00
417.50	0.00
417.69	0.00
417.88	0.00
418.07	0.00
418.26	0.00
418.45	0.00
418.64	0.00
418.83	0.00
419.02	0.00
419.21	0.00
419.39	0.00
419.58	0.00
419.77	0.00
419.96	0.00
420.15	0.00
420.34	0.00
420.53	0.00
420.72	0.00
420.91	0.00
421.10	0.00
421.29	0.00
421.48	0.00
421.67	0.00
421.86	0.00
422.05	0.00
422.24	0.00
422.43	0.00
422.61	0.00
422.80	0.00
422.99	0.00
423.18	0.00
423.37	0.00
423.56	0.00
423.75	0.00
423.94	0.00
424.13	0.00
424.32	0.00
424.50	0.00
424.69	0.00
424.88	0.00
425.07	0.00
425.26	0.00
425.45	0.00
425.64	0.00
425.83	0.00
426.01	0.00
426.20	0.00
426.39	0.00
426.58	0.00
426.77	0.00
426.96	0.00
427.15	0.00
427.33	0.00
427.52	0.00
427.71	0.00
427.90	0.00
428.09	0.00
428.28	0.00
428.46	0.00
428.65	0.00
428.84	0.00
429.03	0.00
429.22	0.00
429.40	0.00
429.59	0.00
429.78	0.00
429.97	0.00
430.16	0.00
430.34	0.00
430.53	0.00
430.72	0.00
430.91	0.00
431.10	0.00
431.28	0.00
431.47	0.00
431.66	0.00
431.85	0.00
432.03	0.00
432.22	0.00
432.41	0.00
432.60	0.00
432.79	0.00
432.97	0.00
433.16	0.00
433.35	0.00
433.54	0.00
433.72	0.00
433.91	0.00
434.10	0.00
434.28	0.00
434.47	0.00
434.66	0.00
434.85	0.00
435.03	0.00
435.22	4.68
435.41	0.00
435.59	0.00
435.78	0.00
435.97	0.00
436.16	0.00
436.34	0.00
436.53	0.00
436.72	0.00
436.90	0.00
437.09	0.00
437.28	0.00
437.46	0.00
437.65	0.00
437.84	0.00
438.02	0.00
438.21	0.00
438.40	0.00
438.58	0.00
438.77	0.00
438.96	0.00
439.14	0.00
439.33	0.00
439.52	0.00
439.70	0.00
439.89	0.00
440.08	0.00
440.26	0.00
440.45	21.06
440.63	0.00
440.82	0.00
441.01	0.00
441.19	0.00
441.38	0.00
441.57	0.00
441.75	0.00
441.94	0.00
442.12	0.00
442.31	0.00
442.50	0.00
442.68	0.00
442.87	0.00
443.05	0.00
443.24	0.00
443.43	0.00
443.61	0.00
443.80	0.00
443.98	0.00
444.17	0.00
444.35	0.00
444.54	0.00
444.73	0.00
444.91	0.00
445.10	0.00
445.28	0.00
445.47	0.00
445.65	0.00
445.84	0.00
446.02	0.00
446.21	0.00
446.39	0.00
446.58	0.00
446.77	0.00
446.95	0.00
447.14	0.00
447.32	0.00
447.51	0.00
447.69	0.00
447.88	0.00
448.06	30.43
448.25	9.36
448.43	0.00
448.62	0.00
448.80	0.00
448.99	0.00
449.17	0.00
449.36	0.00
449.54	0.00
449.73	0.00
449.91	0.00
450.10	0.00
450.28	0.00
450.46	0.00
450.65	0.00
450.83	0.00
451.02	0.00
451.20	0.00
451.39	0.00
451.57	0.00
451.76	0.00
451.94	0.00
452.13	0.00
452.31	0.00
452.49	0.00
452.68	0.00
452.86	0.00
453.05	0.00
453.23	0.00
453.42	0.00
453.60	0.00
453.78	0.00
453.97	0.00
454.15	0.00
454.34	0.00
454.52	0.00
454.70	21.06
454.89	0.00
455.07	11.70
455.26	32.77
455.44	39.79
455.62	0.00
455.81	4.68
455.99	0.00
456.17	21.06
456.36	16.38
456.54	0.00
456.73	0.00
456.91	23.41
457.09	0.00
457.28	44.47
457.46	0.00
457.64	21.06
457.83	0.00
458.01	0.00
458.19	0.00
458.38	0.00
458.56	65.54
458.74	0.00
458.93	0.00
459.11	60.85
459.29	30.43
459.48	0.00
459.66	0.00
459.84	0.00
460.03	91.28
460.21	16.38
460.39	0.00
460.57	7.02
460.76	18.72
460.94	0.00
461.12	0.00
461.31	49.15
461.49	21.06
461.67	4.68
461.85	0.00
462.04	0.00
462.22	580.45
462.40	65.54
462.59	0.00
462.77	0.00
462.95	0.00
463.13	0.00
463.32	0.00
463.50	11.70
463.68	63.19
463.86	0.00
464.05	0.00
464.23	23.41
464.41	0.00
464.59	4.68
464.78	0.00
464.96	0.00
465.14	0.00
465.32	0.00
465.50	18.72
465.69	14.04
465.87	0.00
466.05	0.00
466.23	0.00
466.41	0.00
466.60	9.36
466.78	0.00
466.96	0.00
467.14	0.00
467.32	7.02
467.51	37.45
467.69	0.00
467.87	0.00
468.05	0.00
468.23	63.19
468.41	0.00
468.60	2.34
468.78	21.06
468.96	0.00
469.14	0.00
469.32	0.00
469.50	21.06
469.69	0.00
469.87	42.13
470.05	0.00
470.23	0.00
470.41	0.00
470.59	0.00
470.77	0.00
470.95	0.00
471.14	0.00
471.32	0.00
471.50	9.36
471.68	0.00
471.86	46.81
472.04	0.00
472.22	0.00
472.40	18.72
472.58	0.00
472.77	0.00
472.95	14.04
473.13	0.00
473.31	39.79
473.49	0.00
473.67	72.56
473.85	0.00
474.03	4.68
474.21	84.26
474.39	67.88
474.57	117.03
474.75	67.88
474.93	11.70
475.12	0.00
475.30	32.77
475.48	18.72
475.66	56.17
475.84	7.02
476.02	44.47
476.20	21.06
476.38	0.00
476.56	65.54
476.74	0.00
476.92	16.38
477.10	51.49
477.28	44.47
477.46	42.13
477.64	79.58
477.82	0.00
478.00	0.00
478.18	9.36
478.36	23.41
478.54	88.94
478.72	16.38
478.90	0.00
479.08	95.96
479.26	28.09
479.44	72.56
479.62	0.00
479.80	42.13
479.98	0.00
480.16	46.81
480.34	88.94
480.52	2.34
480.70	77.24
480.88	23.41
481.06	35.11
481.24	39.79
481.41	0.00
481.59	77.24
481.77	81.92
481.95	0.00
482.13	67.88
482.31	88.94
482.49	32.77
482.67	35.11
482.85	0.00
483.03	93.62
483.21	58.51
483.39	0.00
483.57	110.01
483.74	182.56
483.92	86.60
484.10	79.58
484.28	100.64
484.46	177.88
484.64	93.62
484.82	74.90
485.00	58.51
485.18	46.81
485.35	117.03
485.53	0.00
485.71	145.11
485.89	65.54
486.07	0.00
486.25	124.05
486.43	56.17
486.61	77.24
486.78	63.19
486.96	51.49
487.14	51.49
487.32	14.04
487.50	0.00
487.68	74.90
487.85	58.51
488.03	112.35
488.21	58.51
488.39	147.45
488.57	67.88
488.75	107.66
488.92	402.57
489.10	32.77
489.28	163.84
489.46	142.77
489.64	100.64
489.81	128.73
489.99	105.32
490.17	112.35
490.35	156.82
490.53	105.32
490.70	114.69
490.88	194.26
491.06	133.41
491.24	198.95
491.41	133.41
491.59	119.37
491.77	42.13
491.95	142.77
492.13	156.82
492.30	170.86
492.48	180.22
492.66	131.07
492.84	35.11
493.01	248.10
493.19	177.88
493.37	304.27
493.54	128.73
493.72	210.65
493.90	131.07
494.08	198.95
494.25	184.90
494.43	203.63
494.61	114.69
494.79	159.16
494.96	173.20
495.14	126.39
495.32	100.64
495.49	154.48
495.67	110.01
495.85	154.48
496.02	196.60
496.20	154.48
496.38	149.79
496.55	117.03
496.73	168.52
496.91	210.65
497.09	173.20
497.26	208.31
497.44	222.35
497.62	124.05
497.79	210.65
497.97	145.11
498.14	161.50
498.32	245.76
498.50	210.65
498.67	224.69
498.85	156.82
499.03	198.95
499.20	173.20
499.38	201.29
499.56	203.63
499.73	264.48
499.91	227.03
500.08	205.97
500.26	224.69
500.44	121.71
500.61	238.73
500.79	138.09
500.97	166.18
501.14	133.41
501.32	201.29
501.49	262.14
501.67	191.92
501.84	173.20
502.02	152.13
502.20	259.80
502.37	196.60
502.55	198.95
502.72	241.08
502.90	196.60
503.07	315.97
503.25	210.65
503.43	203.63
503.60	236.39
503.78	212.99
503.95	243.42
504.13	135.75
504.30	184.90
504.48	248.10
504.65	241.08
504.83	215.33
505.01	212.99
505.18	276.18
505.36	250.44
505.53	184.90
505.71	238.73
505.88	262.14
506.06	241.08
506.23	243.42
506.41	175.54
506.58	191.92
506.76	203.63
506.93	243.42
507.11	154.48
507.28	152.13
507.46	166.18
507.63	166.18
507.81	264.48
507.98	203.63
508.16	250.44
508.33	250.44
508.50	194.26
508.68	224.69
508.85	224.69
509.03	210.65
509.20	203.63
509.38	227.03
509.55	243.42
509.73	180.22
509.90	259.80
510.08	222.35
510.25	250.44
510.42	224.69
510.60	152.13
510.77	353.42
510.95	297.25
511.12	241.08
511.30	374.49
511.47	283.20
511.64	308.95
511.82	252.78
511.99	290.23
512.17	203.63
512.34	283.20
512.51	299.59
512.69	177.88
512.86	287.89
513.04	205.97
513.21	294.91
513.38	266.82
513.56	238.73
513.73	170.86
513.90	224.69
514.08	180.22
514.25	248.10
514.43	250.44
514.60	264.48
514.77	217.67
514.95	301.93
515.12	231.71
515.29	287.89
515.47	250.44
515.64	287.89
515.81	180.22
515.99	287.89
516.16	175.54
516.33	224.69
516.51	189.58
516.68	170.86
516.85	201.29
517.03	220.01
517.20	217.67
517.37	341.72
517.54	313.63
517.72	248.10
517.89	170.86
518.06	201.29
518.24	259.80
518.41	252.78
518.58	315.97
518.75	231.71
518.93	273.84
519.10	208.31
519.27	241.08
519.45	353.42
519.62	271.50
519.79	304.27
519.96	252.78
520.14	308.95
520.31	287.89
520.48	252.78
520.65	308.95
520.83	285.55
521.00	250.44
521.17	313.63
521.34	262.14
521.52	290.23
521.69	264.48
521.86	337.04
522.03	346.40
522.20	327.68
522.38	301.93
522.55	374.49
522.72	285.55
522.89	231.71
523.07	355.76
523.24	304.27
523.41	327.68
523.58	294.91
523.75	334.70
523.92	250.44
524.10	332.36
524.27	271.50
524.44	320.65
524.61	269.16
524.78	306.61
524.96	304.27
525.13	273.84
525.30	381.51
525.47	334.70
525.64	292.57
525.81	348.74
525.98	283.20
526.16	315.97
526.33	222.35
526.50	138.09
526.67	283.20
526.84	259.80
527.01	229.37
527.18	238.73
527.36	362.78
527.53	266.82
527.70	339.38
527.87	241.08
528.04	367.46
528.21	304.27
528.38	353.42
528.55	320.65
528.72	440.02
528.89	458.74
529.07	369.80
529.24	290.23
529.41	400.23
529.58	315.97
529.75	250.44
529.92	346.40
530.09	386.19
530.26	348.74
530.43	360.44
530.60	381.51
530.77	393.21
530.94	353.42
531.11	353.42
531.28	311.29
531.46	306.61
531.63	362.78
531.80	264.48
531.97	337.04
532.14	404.91
532.31	308.95
532.48	243.42
532.65	311.29
532.82	224.69
532.99	306.61
533.16	322.99
533.33	379.17
533.50	344.06
533.67	236.39
533.84	308.95
534.01	339.38
534.18	273.84
534.35	351.08
534.52	355.76
534.69	362.78
534.86	381.51
535.03	320.65
535.20	416.62
535.37	376.83
535.54	365.12
535.71	294.91
535.88	360.44
536.05	447.04
536.22	301.93
536.38	330.02
536.55	320.65
536.72	390.87
536.89	344.06
537.06	346.40
537.23	353.42
537.40	325.33
537.57	313.63
537.74	250.44
537.91	388.53
538.08	332.36
538.25	306.61
538.42	294.91
538.59	470.45
538.75	353.42
538.92	315.97
539.09	367.46
539.26	287.89
539.43	318.31
539.60	294.91
539.77	330.02
539.94	332.36
540.11	330.02
540.28	344.06
540.44	402.57
540.61	381.51
540.78	313.63
540.95	320.65
541.12	376.83
541.29	264.48
541.46	360.44
541.62	337.04
541.79	348.74
541.96	334.70
542.13	355.76
542.30	341.72
542.47	374.49
542.63	388.53
542.80	381.51
542.97	271.50
543.14	311.29
543.31	376.83
543.48	290.23
543.64	369.80
543.81	372.15
543.98	423.64
544.15	294.91
544.32	344.06
544.48	421.30
544.65	327.68
544.82	372.15
544.99	346.40
545.16	430.66
545.32	388.53
545.49	348.74
545.66	280.86
545.83	407.25
546.00	315.97
546.16	358.10
546.33	325.33
546.50	315.97
546.67	402.57
546.83	369.80
547.00	423.64
547.17	381.51
547.34	351.08
547.50	334.70
547.67	346.40
547.84	266.82
548.00	271.50
548.17	381.51
548.34	292.57
548.51	313.63
548.67	428.32
548.84	346.40
549.01	519.60
549.18	346.40
549.34	301.93
549.51	369.80
549.68	351.08
549.84	348.74
550.01	234.05
550.18	465.77
550.34	400.23
550.51	393.21
550.68	425.98
550.84	266.82
551.01	322.99
551.18	318.31
551.34	379.17
551.51	348.74
551.68	346.40
551.84	449.38
552.01	369.80
552.18	360.44
552.34	341.72
552.51	339.38
552.68	355.76
552.84	393.21
553.01	353.42
553.18	447.04
553.34	379.17
553.51	409.59
553.67	440.02
553.84	423.64
554.01	369.80
554.17	346.40
554.34	322.99
554.51	433.00
554.67	367.46
554.84	407.25
555.00	374.49
555.17	376.83
555.33	376.83
555.50	322.99
555.67	325.33
555.83	355.76
556.00	379.17
556.16	564.07
556.33	372.15
556.50	327.68
556.66	362.78
556.83	294.91
556.99	344.06
557.16	264.48
557.32	280.86
557.49	325.33
557.65	266.82
557.82	421.30
557.98	400.23
558.15	348.74
558.32	407.25
558.48	243.42
558.65	252.78
558.81	355.76
558.98	353.42
559.14	433.00
559.31	280.86
559.47	344.06
559.64	231.71
559.80	388.53
559.97	327.68
560.13	285.55
560.30	313.63
560.46	318.31
560.63	388.53
560.79	327.68
560.96	346.40
561.12	278.52
561.29	411.93
561.45	271.50
561.61	322.99
561.78	358.10
561.94	388.53
562.11	318.31
562.27	294.91
562.44	283.20
562.60	278.52
562.77	346.40
562.93	442.36
563.10	407.25
563.26	313.63
563.42	306.61
563.59	308.95
563.75	360.44
563.92	262.14
564.08	346.40
564.24	416.62
564.41	395.55
564.57	301.93
564.74	308.95
564.90	325.33
565.07	344.06
565.23	365.12
565.39	297.25
565.56	252.78
565.72	320.65
565.88	308.95
566.05	243.42
566.21	351.08
566.38	337.04
566.54	330.02
566.70	311.29
566.87	285.55
567.03	322.99
567.19	379.17
567.36	402.57
567.52	248.10
567.68	334.70
567.85	351.08
568.01	252.78
568.17	292.57
568.34	344.06
568.50	395.55
568.66	283.20
568.83	451.72
568.99	334.70
569.15	297.25
569.32	381.51
569.48	271.50
569.64	304.27
569.81	306.61
569.97	245.76
570.13	285.55
570.30	266.82
570.46	339.38
570.62	264.48
570.78	257.46
570.95	264.48
571.11	428.32
571.27	271.50
571.43	259.80
571.60	304.27
571.76	299.59
571.92	346.40
572.09	325.33
572.25	386.19
572.41	292.57
572.57	320.65
572.74	444.70
572.90	315.97
573.06	351.08
573.22	341.72
573.38	306.61
573.55	414.27
573.71	372.15
573.87	355.76
574.03	248.10
574.20	325.33
574.36	273.84
574.52	308.95
574.68	313.63
574.84	374.49
575.01	304.27
575.17	360.44
575.33	287.89
575.49	271.50
575.65	332.36
575.82	337.04
575.98	339.38
576.14	334.70
576.30	308.95
576.46	315.97
576.62	346.40
576.79	337.04
576.95	421.30
577.11	376.83
577.27	334.70
577.43	292.57
577.59	322.99
577.75	283.20
577.92	308.95
578.08	294.91
578.24	264.48
578.40	379.17
578.56	327.68
578.72	409.59
578.88	341.72
579.04	306.61
579.21	365.12
579.37	318.31
579.53	332.36
579.69	315.97
579.85	283.20
580.01	292.57
580.17	360.44
580.33	292.57
580.49	292.57
580.65	339.38
580.82	315.97
580.98	255.12
581.14	252.78
581.30	330.02
581.46	365.12
581.62	271.50
581.78	390.87
581.94	262.14
582.10	280.86
582.26	306.61
582.42	327.68
582.58	367.46
582.74	318.31
582.90	334.70
583.06	386.19
583.22	299.59
583.38	311.29
583.54	245.76
583.70	369.80
583.86	411.93
584.02	414.27
584.18	388.53
584.34	358.10
584.50	304.27
584.66	297.25
584.82	320.65
584.98	262.14
585.14	266.82
585.30	252.78
585.46	346.40
585.62	299.59
585.78	308.95
585.94	348.74
586.10	264.48
586.26	283.20
586.42	407.25
586.58	355.76
586.74	355.76
586.90	262.14
587.06	355.76
587.22	278.52
587.38	208.31
587.54	330.02
587.70	325.33
587.86	299.59
588.02	248.10
588.18	337.04
588.34	315.97
588.49	147.45
588.65	259.80
588.81	259.80
588.97	166.18
589.13	210.65
589.29	184.90
589.45	290.23
589.61	311.29
589.77	334.70
589.93	269.16
590.08	210.65
590.24	308.95
590.40	367.46
590.56	334.70
590.72	306.61
590.88	294.91
591.04	257.46
591.20	255.12
591.35	311.29
591.51	358.10
591.67	248.10
591.83	271.50
591.99	252.78
592.15	294.91
592.31	252.78
592.46	330.02
592.62	301.93
592.78	297.25
592.94	248.10
593.10	194.26
593.26	252.78
593.41	376.83
593.57	346.40
593.73	304.27
593.89	280.86
594.05	250.44
594.20	322.99
594.36	332.36
594.52	257.46
594.68	215.33
594.84	327.68
594.99	440.02
595.15	409.59
595.31	320.65
595.47	304.27
595.62	315.97
595.78	362.78
595.94	248.10
596.10	374.49
596.25	252.78
596.41	390.87
596.57	210.65
596.73	255.12
596.88	196.60
597.04	264.48
597.20	315.97
597.36	287.89
597.51	203.63
597.67	229.37
597.83	257.46
597.99	264.48
598.14	259.80
598.30	344.06
598.46	276.18
598.61	327.68
598.77	280.86
598.93	278.52
599.09	259.80
599.24	285.55
599.40	327.68
599.56	231.71
599.71	318.31
599.87	273.84
600.03	337.04
600.18	278.52
600.34	217.67
600.50	184.90
600.65	229.37
600.81	278.52
600.97	294.91
601.12	283.20
601.28	346.40
601.44	306.61
601.59	184.90
601.75	344.06
601.91	266.82
602.06	224.69
602.22	344.06
602.37	315.97
602.53	294.91
602.69	271.50
602.84	224.69
603.00	299.59
603.16	355.76
603.31	301.93
603.47	271.50
603.62	170.86
603.78	346.40
603.94	301.93
604.09	283.20
604.25	276.18
604.40	262.14
604.56	276.18
604.71	346.40
604.87	264.48
605.03	278.52
605.18	294.91
605.34	278.52
605.49	262.14
605.65	278.52
605.80	177.88
605.96	315.97
606.12	266.82
606.27	299.59
606.43	257.46
606.58	294.91
606.74	369.80
606.89	315.97
607.05	306.61
607.20	330.02
607.36	238.73
607.51	175.54
607.67	220.01
607.82	220.01
607.98	280.86
608.13	208.31
608.29	175.54
608.44	271.50
608.60	196.60
608.75	290.23
608.91	212.99
609.06	276.18
609.22	220.01
609.37	168.52
609.53	285.55
609.68	187.24
609.84	229.37
609.99	266.82
610.15	208.31
610.30	215.33
610.46	320.65
610.61	236.39
610.76	220.01
610.92	285.55
611.07	234.05
611.23	311.29
611.38	236.39
611.54	180.22
611.69	278.52
611.84	175.54
612.00	194.26
612.15	205.97
612.31	227.03
612.46	255.12
612.62	166.18
612.77	231.71
612.92	217.67
613.08	339.38
613.23	278.52
613.39	264.48
613.54	220.01
613.69	194.26
613.85	196.60
614.00	212.99
614.15	212.99
614.31	231.71
614.46	220.01
614.62	236.39
614.77	255.12
614.92	255.12
615.08	250.44
615.23	257.46
615.38	234.05
615.54	220.01
615.69	205.97
615.84	203.63
616.00	184.90
616.15	245.76
616.30	177.88
616.46	236.39
616.61	180.22
616.76	287.89
616.92	177.88
617.07	191.92
617.22	198.95
617.37	205.97
617.53	189.58
617.68	220.01
617.83	133.41
617.99	264.48
618.14	168.52
618.29	257.46
618.45	187.24
618.60	217.67
618.75	212.99
618.90	227.03
619.06	203.63
619.21	315.97
619.36	245.76
619.51	196.60
619.67	248.10
619.82	229.37
619.97	220.01
620.12	257.46
620.28	315.97
620.43	250.44
620.58	259.80
620.73	297.25
620.89	266.82
621.04	236.39
621.19	255.12
621.34	252.78
621.49	147.45
621.65	210.65
621.80	159.16
621.95	180.22
622.10	243.42
622.25	248.10
622.41	187.24
622.56	227.03
622.71	177.88
622.86	252.78
623.01	161.50
623.16	252.78
623.32	243.42
623.47	194.26
623.62	180.22
623.77	194.26
623.92	177.88
624.07	184.90
624.23	201.29
624.38	173.20
624.53	220.01
624.68	210.65
624.83	252.78
624.98	191.92
625.13	161.50
625.29	70.22
625.44	227.03
625.59	241.08
625.74	236.39
625.89	238.73
626.04	138.09
626.19	168.52
626.34	227.03
626.49	140.43
626.65	121.71
626.80	189.58
626.95	170.86
627.10	135.75
627.25	112.35
627.40	138.09
627.55	194.26
627.70	138.09
627.85	23.41
628.00	88.94
628.15	140.43
628.30	140.43
628.45	142.77
628.60	124.05
628.76	154.48
628.91	152.13
629.06	180.22
629.21	173.20
629.36	243.42
629.51	105.32
629.66	154.48
629.81	121.71
629.96	201.29
630.11	201.29
630.26	205.97
630.41	229.37
630.56	196.60
630.71	161.50
630.86	77.24
631.01	42.13
631.16	196.60
631.31	112.35
631.46	217.67
631.61	91.28
631.76	119.37
631.91	156.82
632.06	152.13
632.21	159.16
632.36	194.26
632.51	128.73
632.66	149.79
632.81	163.84
632.96	152.13
633.10	184.90
633.25	212.99
633.40	271.50
633.55	107.66
633.70	168.52
633.85	131.07
634.00	168.52
634.15	138.09
634.30	189.58
634.45	177.88
634.60	124.05
634.75	191.92
634.90	128.73
635.05	159.16
635.19	145.11
635.34	182.56
635.49	229.37
635.64	224.69
635.79	126.39
635.94	222.35
636.09	166.18
636.24	173.20
636.39	229.37
636.53	266.82
636.68	166.18
636.83	208.31
636.98	196.60
637.13	124.05
637.28	227.03
637.43	224.69
637.57	196.60
637.72	201.29
637.87	208.31
638.02	161.50
638.17	170.86
638.32	182.56
638.46	149.79
638.61	264.48
638.76	243.42
638.91	159.16
639.06	152.13
639.20	224.69
639.35	187.24
639.50	142.77
639.65	334.70
639.80	198.95
639.94	156.82
640.09	205.97
640.24	227.03
640.39	189.58
640.54	203.63
640.68	117.03
640.83	170.86
640.98	121.71
641.13	177.88
641.27	170.86
641.42	175.54
641.57	203.63
641.72	166.18
641.86	163.84
642.01	220.01
642.16	187.24
642.31	131.07
642.45	234.05
642.60	168.52
642.75	30.43
642.90	117.03
643.04	124.05
643.19	161.50
643.34	81.92
643.48	208.31
643.63	140.43
643.78	203.63
643.93	187.24
644.07	98.30
644.22	119.37
644.37	93.62
644.51	121.71
644.66	72.56
644.81	91.28
644.95	236.39
645.10	182.56
645.25	98.30
645.39	212.99
645.54	124.05
645.69	227.03
645.83	119.37
645.98	140.43
646.13	84.26
646.27	191.92
646.42	131.07
646.57	128.73
646.71	119.37
646.86	128.73
647.00	124.05
647.15	177.88
647.30	110.01
647.44	79.58
647.59	44.47
647.74	84.26
647.88	189.58
648.03	135.75
648.17	102.98
648.32	159.16
648.47	110.01
648.61	100.64
648.76	65.54
648.90	63.19
649.05	112.35
649.20	133.41
649.34	126.39
649.49	60.85
649.63	112.35
649.78	102.98
649.92	49.15
650.07	135.75
650.21	105.32
650.36	119.37
650.51	152.13
650.65	191.92
650.80	70.22
650.94	112.35
651.09	152.13
651.23	56.17
651.38	102.98
651.52	105.32
651.67	107.66
651.81	166.18
651.96	177.88
652.10	131.07
652.25	93.62
652.39	119.37
652.54	93.62
652.68	133.41
652.83	100.64
652.97	119.37
653.12	147.45
653.26	121.71
653.41	126.39
653.55	196.60
653.70	84.26
653.84	77.24
653.99	86.60
654.13	30.43
654.27	86.60
654.42	77.24
654.56	145.11
654.71	168.52
654.85	98.30
655.00	72.56
655.14	131.07
655.29	39.79
655.43	149.79
655.57	91.28
655.72	84.26
655.86	56.17
656.01	25.75
656.15	86.60
656.30	177.88
656.44	95.96
656.58	72.56
656.73	93.62
656.87	79.58
657.01	65.54
657.16	114.69
657.30	166.18
657.45	145.11
657.59	93.62
657.73	16.38
657.88	77.24
658.02	124.05
658.16	4.68
658.31	86.60
658.45	44.47
658.60	37.45
658.74	140.43
658.88	86.60
659.03	58.51
659.17	44.47
659.31	56.17
659.46	77.24
659.60	126.39
659.74	74.90
659.89	86.60
660.03	161.50
660.17	177.88
660.32	74.90
660.46	121.71
660.60	107.66
660.74	124.05
660.89	126.39
661.03	44.47
661.17	93.62
661.32	98.30
661.46	84.26
661.60	131.07
661.74	23.41
661.89	119.37
662.03	93.62
662.17	46.81
662.31	0.00
662.46	84.26
662.60	102.98
662.74	63.19
662.88	168.52
663.03	32.77
663.17	91.28
663.31	0.00
663.45	60.85
663.60	91.28
663.74	49.15
663.88	131.07
664.02	39.79
664.17	63.19
664.31	0.00
664.45	53.83
664.59	220.01
664.73	77.24
664.88	121.71
665.02	72.56
665.16	49.15
665.30	173.20
665.44	32.77
665.59	156.82
665.73	7.02
665.87	77.24
666.01	112.35
666.15	93.62
666.29	84.26
666.44	67.88
666.58	100.64
666.72	37.45
666.86	74.90
667.00	133.41
667.14	60.85
667.28	70.22
667.43	126.39
667.57	39.79
667.71	65.54
667.85	42.13
667.99	105.32
668.13	70.22
668.27	100.64
668.41	84.26
668.56	84.26
668.70	117.03
668.84	37.45
668.98	53.83
669.12	93.62
669.26	14.04
669.40	175.54
669.54	42.13
669.68	86.60
669.82	28.09
669.96	72.56
670.10	37.45
670.25	58.51
670.39	161.50
670.53	11.70
670.67	60.85
670.81	9.36
670.95	39.79
671.09	23.41
671.23	25.75
671.37	93.62
671.51	102.98
671.65	105.32
671.79	23.41
671.93	79.58
672.07	102.98
672.21	70.22
672.35	0.00
672.49	32.77
672.63	23.41
672.77	46.81
672.91	84.26
673.05	58.51
673.19	14.04
673.33	98.30
673.47	39.79
673.61	49.15
673.75	0.00
673.89	81.92
674.03	11.70
674.17	49.15
674.31	86.60
674.45	81.92
674.59	0.00
674.73	51.49
674.87	39.79
675.01	39.79
675.15	35.11
675.29	77.24
675.43	23.41
675.56	98.30
675.70	81.92
675.84	11.70
675.98	11.70
676.12	25.75
676.26	25.75
676.40	0.00
676.54	0.00
676.68	0.00
676.82	16.38
676.96	0.00
677.10	23.41
677.23	0.00
677.37	0.00
677.51	58.51
677.65	124.05
677.79	0.00
677.93	28.09
678.07	35.11
678.21	18.72
678.34	0.00
678.48	0.00
678.62	25.75
678.76	7.02
678.90	0.00
679.04	32.77
679.18	21.06
679.31	0.00
679.45	0.00
679.59	112.35
679.73	30.43
679.87	0.00
680.00	0.00
680.14	63.19
680.28	0.00
680.42	44.47
680.56	4.68
680.70	0.00
680.83	0.00
680.97	28.09
681.11	32.77
681.25	0.00
681.39	0.00
681.52	0.00
681.66	0.00
681.80	32.77
681.94	37.45
682.07	0.00
682.21	0.00
682.35	0.00
682.49	0.00
682.62	0.00
682.76	14.04
682.90	58.51
683.04	49.15
683.17	0.00
683.31	7.02
683.45	0.00
683.59	84.26
683.72	28.09
683.86	0.00
684.00	0.00
684.13	11.70
684.27	0.00
684.41	11.70
684.55	0.00
684.68	0.00
684.82	0.00
684.96	0.00
685.09	0.00
685.23	0.00
685.37	4.68
685.50	30.43
685.64	0.00
685.78	0.00
685.91	0.00
686.05	0.00
686.19	7.02
686.32	0.00
686.46	0.00
686.60	0.00
686.73	0.00
686.87	0.00
687.01	0.00
687.14	0.00
687.28	0.00
687.42	0.00
687.55	0.00
687.69	0.00
687.82	0.00
687.96	0.00
688.10	44.47
688.23	0.00
688.37	0.00
688.50	0.00
688.64	0.00
688.78	0.00
688.91	0.00
689.05	4.68
689.18	0.00
689.32	0.00
689.46	0.00
689.59	9.36
689.73	0.00
689.86	0.00
690.00	0.00
690.13	0.00
690.27	0.00
690.41	0.00
690.54	0.00
690.68	0.00
690.81	0.00
690.95	0.00
691.08	0.00
691.22	0.00
691.35	0.00
691.49	0.00
691.62	0.00
691.76	0.00
691.89	0.00
692.03	0.00
692.16	0.00
692.30	0.00
692.43	0.00
692.57	0.00
692.70	0.00
692.84	0.00
692.97	0.00
693.11	0.00
693.24	0.00
693.38	0.00
693.51	0.00
693.65	0.00
693.78	0.00
693.92	0.00
694.05	0.00
694.19	0.00
694.32	0.00
694.45	0.00
694.59	0.00
694.72	0.00
694.86	0.00
694.99	0.00
695.13	0.00
695.26	0.00
695.39	0.00
695.53	7.02
695.66	0.00
695.80	0.00
695.93	0.00
696.07	0.00
696.20	0.00
696.33	0.00
696.47	0.00
696.60	0.00
696.73	0.00
696.87	0.00
697.00	51.49
697.14	0.00
697.27	0.00
697.40	2.34
697.54	0.00
697.67	0.00
697.80	0.00
697.94	0.00
698.07	0.00
698.21	0.00
698.34	0.00
698.47	0.00
698.61	0.00
698.74	0.00
698.87	0.00
699.01	0.00
699.14	0.00
699.27	0.00
699.40	0.00
699.54	0.00
699.67	0.00
699.80	0.00
699.94	0.00
700.07	0.00
700.20	0.00
700.34	0.00
700.47	0.00
700.60	0.00
700.73	0.00
700.87	0.00
701.00	0.00
701.13	0.00
701.26	0.00
701.40	0.00
701.53	0.00
701.66	0.00
701.79	0.00
701.93	0.00
702.06	0.00
702.19	0.00
702.32	0.00
702.46	0.00
702.59	0.00
702.72	0.00
702.85	0.00
702.99	0.00
703.12	0.00
703.25	0.00
703.38	0.00
703.51	0.00
703.65	0.00
703.78	0.00
703.91	0.00
704.04	0.00
704.17	0.00
704.31	0.00
704.44	0.00
704.57	0.00
704.70	0.00
704.83	0.00
704.96	0.00
705.10	0.00
705.23	0.00
>>>>>End Processed Spectral Data<<<<<
