SpectraSuite Data File
++++++++++++++++++++++++++++++++++++
Date: Fri Oct 04 11:47:16 GMT-05:00 2013
User: price-jones
Dark Spectrum Present: No
Reference Spectrum Present: No
Number of Sampled Component Spectra: 1
Spectrometers: USB2+H05261
Integration Time (usec): 100000 (USB2+H05261)
Spectra Averaged: 1 (USB2+H05261)
Boxcar Smoothing: 0 (USB2+H05261)
Correct for Electrical Dark: No (USB2+H05261)
Strobe/Lamp Enabled: No (USB2+H05261)
Correct for Detector Non-linearity: No (USB2+H05261)
Correct for Stray Light: No (USB2+H05261)
Number of Pixels in Processed Spectrum: 2048
>>>>>Begin Processed Spectral Data<<<<<
365.73	46.81
365.92	46.81
366.12	46.81
366.32	0.00
366.52	0.00
366.72	0.00
366.91	0.00
367.11	0.00
367.31	0.00
367.51	0.00
367.70	0.00
367.90	0.00
368.10	0.00
368.30	0.00
368.49	0.00
368.69	0.00
368.89	0.00
369.09	0.00
369.28	0.00
369.48	0.00
369.68	0.00
369.87	0.00
370.07	0.00
370.27	0.00
370.47	16.38
370.66	0.00
370.86	88.94
371.06	32.77
371.25	42.13
371.45	84.26
371.65	95.96
371.84	25.75
372.04	37.45
372.24	42.13
372.44	107.66
372.63	42.13
372.83	84.26
373.03	112.35
373.22	72.56
373.42	88.94
373.62	117.03
373.81	60.85
374.01	196.60
374.21	119.37
374.40	81.92
374.60	112.35
374.79	42.13
374.99	0.00
375.19	112.35
375.38	124.05
375.58	65.54
375.78	79.58
375.97	133.41
376.17	191.92
376.37	145.11
376.56	135.75
376.76	102.98
376.95	147.45
377.15	72.56
377.35	86.60
377.54	58.51
377.74	121.71
377.93	18.72
378.13	154.48
378.33	128.73
378.52	88.94
378.72	58.51
378.91	121.71
379.11	140.43
379.31	56.17
379.50	16.38
379.70	131.07
379.89	138.09
380.09	0.00
380.28	46.81
380.48	70.22
380.68	70.22
380.87	63.19
381.07	98.30
381.26	58.51
381.46	95.96
381.65	79.58
381.85	98.30
382.04	117.03
382.24	77.24
382.43	70.22
382.63	88.94
382.83	142.77
383.02	131.07
383.22	152.13
383.41	79.58
383.61	126.39
383.80	88.94
384.00	93.62
384.19	93.62
384.39	74.90
384.58	107.66
384.78	126.39
384.97	60.85
385.17	70.22
385.36	88.94
385.56	81.92
385.75	58.51
385.95	56.17
386.14	98.30
386.34	107.66
386.53	58.51
386.72	65.54
386.92	107.66
387.11	81.92
387.31	203.63
387.50	110.01
387.70	84.26
387.89	86.60
388.09	72.56
388.28	88.94
388.48	46.81
388.67	84.26
388.86	65.54
389.06	81.92
389.25	114.69
389.45	74.90
389.64	56.17
389.84	124.05
390.03	126.39
390.22	88.94
390.42	88.94
390.61	107.66
390.81	86.60
391.00	107.66
391.19	173.20
391.39	110.01
391.58	112.35
391.78	91.28
391.97	72.56
392.16	84.26
392.36	98.30
392.55	86.60
392.75	138.09
392.94	112.35
393.13	98.30
393.33	119.37
393.52	84.26
393.71	114.69
393.91	65.54
394.10	67.88
394.29	105.32
394.49	65.54
394.68	227.03
394.88	63.19
395.07	119.37
395.26	88.94
395.46	147.45
395.65	77.24
395.84	86.60
396.04	105.32
396.23	77.24
396.42	86.60
396.62	145.11
396.81	51.49
397.00	74.90
397.19	128.73
397.39	95.96
397.58	56.17
397.77	72.56
397.97	74.90
398.16	140.43
398.35	170.86
398.55	70.22
398.74	74.90
398.93	145.11
399.12	74.90
399.32	16.38
399.51	149.79
399.70	124.05
399.90	98.30
400.09	88.94
400.28	149.79
400.47	105.32
400.67	79.58
400.86	91.28
401.05	95.96
401.24	138.09
401.44	63.19
401.63	107.66
401.82	198.95
402.01	42.13
402.21	138.09
402.40	159.16
402.59	58.51
402.78	168.52
402.97	16.38
403.17	112.35
403.36	74.90
403.55	168.52
403.74	84.26
403.93	98.30
404.13	189.58
404.32	105.32
404.51	152.13
404.70	119.37
404.89	81.92
405.09	152.13
405.28	81.92
405.47	112.35
405.66	152.13
405.85	128.73
406.05	65.54
406.24	84.26
406.43	170.86
406.62	95.96
406.81	161.50
407.00	67.88
407.20	95.96
407.39	142.77
407.58	60.85
407.77	128.73
407.96	114.69
408.15	74.90
408.34	56.17
408.54	93.62
408.73	95.96
408.92	149.79
409.11	210.65
409.30	187.24
409.49	56.17
409.68	60.85
409.87	107.66
410.07	112.35
410.26	175.54
410.45	128.73
410.64	60.85
410.83	133.41
411.02	177.88
411.21	117.03
411.40	107.66
411.59	93.62
411.78	112.35
411.98	145.11
412.17	128.73
412.36	112.35
412.55	163.84
412.74	203.63
412.93	135.75
413.12	161.50
413.31	98.30
413.50	131.07
413.69	107.66
413.88	114.69
414.07	65.54
414.26	18.72
414.45	79.58
414.64	100.64
414.83	124.05
415.02	121.71
415.22	121.71
415.41	147.45
415.60	58.51
415.79	138.09
415.98	77.24
416.17	180.22
416.36	107.66
416.55	70.22
416.74	187.24
416.93	72.56
417.12	84.26
417.31	110.01
417.50	81.92
417.69	238.73
417.88	133.41
418.07	121.71
418.26	70.22
418.45	119.37
418.64	236.39
418.83	215.33
419.02	220.01
419.21	147.45
419.39	170.86
419.58	231.71
419.77	110.01
419.96	88.94
420.15	166.18
420.34	110.01
420.53	98.30
420.72	100.64
420.91	65.54
421.10	84.26
421.29	117.03
421.48	175.54
421.67	180.22
421.86	98.30
422.05	102.98
422.24	121.71
422.43	173.20
422.61	95.96
422.80	133.41
422.99	102.98
423.18	51.49
423.37	121.71
423.56	102.98
423.75	170.86
423.94	110.01
424.13	95.96
424.32	124.05
424.50	142.77
424.69	114.69
424.88	170.86
425.07	112.35
425.26	163.84
425.45	147.45
425.64	173.20
425.83	217.67
426.01	140.43
426.20	110.01
426.39	84.26
426.58	81.92
426.77	86.60
426.96	227.03
427.15	74.90
427.33	102.98
427.52	138.09
427.71	49.15
427.90	133.41
428.09	124.05
428.28	93.62
428.46	159.16
428.65	98.30
428.84	142.77
429.03	163.84
429.22	84.26
429.40	166.18
429.59	112.35
429.78	159.16
429.97	154.48
430.16	149.79
430.34	173.20
430.53	53.83
430.72	79.58
430.91	133.41
431.10	152.13
431.28	77.24
431.47	91.28
431.66	126.39
431.85	121.71
432.03	119.37
432.22	196.60
432.41	114.69
432.60	138.09
432.79	191.92
432.97	245.76
433.16	266.82
433.35	198.95
433.54	131.07
433.72	154.48
433.91	196.60
434.10	210.65
434.28	248.10
434.47	154.48
434.66	93.62
434.85	128.73
435.03	14.04
435.22	156.82
435.41	117.03
435.59	128.73
435.78	140.43
435.97	140.43
436.16	114.69
436.34	98.30
436.53	182.56
436.72	187.24
436.90	121.71
437.09	170.86
437.28	124.05
437.46	156.82
437.65	163.84
437.84	168.52
438.02	194.26
438.21	243.42
438.40	140.43
438.58	81.92
438.77	105.32
438.96	140.43
439.14	152.13
439.33	91.28
439.52	131.07
439.70	135.75
439.89	161.50
440.08	159.16
440.26	187.24
440.45	135.75
440.63	187.24
440.82	191.92
441.01	72.56
441.19	177.88
441.38	131.07
441.57	138.09
441.75	114.69
441.94	126.39
442.12	74.90
442.31	124.05
442.50	110.01
442.68	196.60
442.87	131.07
443.05	56.17
443.24	107.66
443.43	124.05
443.61	163.84
443.80	166.18
443.98	95.96
444.17	142.77
444.35	168.52
444.54	107.66
444.73	63.19
444.91	142.77
445.10	173.20
445.28	152.13
445.47	124.05
445.65	107.66
445.84	131.07
446.02	124.05
446.21	166.18
446.39	187.24
446.58	107.66
446.77	98.30
446.95	149.79
447.14	159.16
447.32	257.46
447.51	53.83
447.69	149.79
447.88	163.84
448.06	177.88
448.25	53.83
448.43	81.92
448.62	124.05
448.80	58.51
448.99	210.65
449.17	93.62
449.36	79.58
449.54	163.84
449.73	77.24
449.91	121.71
450.10	124.05
450.28	114.69
450.46	229.37
450.65	138.09
450.83	107.66
451.02	49.15
451.20	133.41
451.39	100.64
451.57	154.48
451.76	112.35
451.94	91.28
452.13	177.88
452.31	105.32
452.49	159.16
452.68	119.37
452.86	128.73
453.05	135.75
453.23	135.75
453.42	133.41
453.60	79.58
453.78	128.73
453.97	72.56
454.15	133.41
454.34	84.26
454.52	128.73
454.70	126.39
454.89	152.13
455.07	107.66
455.26	166.18
455.44	168.52
455.62	107.66
455.81	138.09
455.99	128.73
456.17	184.90
456.36	88.94
456.54	128.73
456.73	180.22
456.91	135.75
457.09	154.48
457.28	173.20
457.46	135.75
457.64	119.37
457.83	154.48
458.01	156.82
458.19	161.50
458.38	159.16
458.56	189.58
458.74	46.81
458.93	133.41
459.11	42.13
459.29	121.71
459.48	194.26
459.66	170.86
459.84	128.73
460.03	280.86
460.21	212.99
460.39	173.20
460.57	159.16
460.76	168.52
460.94	140.43
461.12	126.39
461.31	105.32
461.49	220.01
461.67	124.05
461.85	203.63
462.04	170.86
462.22	688.12
462.40	189.58
462.59	147.45
462.77	105.32
462.95	173.20
463.13	84.26
463.32	131.07
463.50	110.01
463.68	163.84
463.86	203.63
464.05	138.09
464.23	177.88
464.41	133.41
464.59	98.30
464.78	149.79
464.96	100.64
465.14	117.03
465.32	133.41
465.50	184.90
465.69	145.11
465.87	121.71
466.05	126.39
466.23	126.39
466.41	147.45
466.60	208.31
466.78	154.48
466.96	170.86
467.14	126.39
467.32	170.86
467.51	215.33
467.69	112.35
467.87	154.48
468.05	133.41
468.23	198.95
468.41	154.48
468.60	91.28
468.78	203.63
468.96	147.45
469.14	212.99
469.32	119.37
469.50	135.75
469.69	147.45
469.87	159.16
470.05	177.88
470.23	217.67
470.41	184.90
470.59	154.48
470.77	105.32
470.95	156.82
471.14	156.82
471.32	163.84
471.50	210.65
471.68	187.24
471.86	145.11
472.04	152.13
472.22	110.01
472.40	95.96
472.58	124.05
472.77	51.49
472.95	95.96
473.13	168.52
473.31	152.13
473.49	182.56
473.67	208.31
473.85	128.73
474.03	128.73
474.21	81.92
474.39	177.88
474.57	156.82
474.75	201.29
474.93	124.05
475.12	124.05
475.30	119.37
475.48	140.43
475.66	161.50
475.84	112.35
476.02	112.35
476.20	184.90
476.38	121.71
476.56	217.67
476.74	152.13
476.92	138.09
477.10	196.60
477.28	149.79
477.46	81.92
477.64	126.39
477.82	152.13
478.00	220.01
478.18	163.84
478.36	166.18
478.54	147.45
478.72	114.69
478.90	159.16
479.08	128.73
479.26	152.13
479.44	163.84
479.62	91.28
479.80	201.29
479.98	154.48
480.16	114.69
480.34	196.60
480.52	163.84
480.70	126.39
480.88	152.13
481.06	117.03
481.24	173.20
481.41	156.82
481.59	81.92
481.77	180.22
481.95	110.01
482.13	198.95
482.31	93.62
482.49	241.08
482.67	135.75
482.85	154.48
483.03	175.54
483.21	198.95
483.39	131.07
483.57	203.63
483.74	231.71
483.92	182.56
484.10	166.18
484.28	227.03
484.46	173.20
484.64	159.16
484.82	149.79
485.00	166.18
485.18	135.75
485.35	152.13
485.53	156.82
485.71	81.92
485.89	147.45
486.07	138.09
486.25	201.29
486.43	234.05
486.61	173.20
486.78	205.97
486.96	224.69
487.14	126.39
487.32	142.77
487.50	152.13
487.68	140.43
487.85	105.32
488.03	187.24
488.21	168.52
488.39	149.79
488.57	248.10
488.75	159.16
488.92	447.04
489.10	175.54
489.28	168.52
489.46	107.66
489.64	278.52
489.81	79.58
489.99	252.78
490.17	86.60
490.35	241.08
490.53	189.58
490.70	117.03
490.88	142.77
491.06	187.24
491.24	147.45
491.41	220.01
491.59	140.43
491.77	152.13
491.95	161.50
492.13	140.43
492.30	135.75
492.48	107.66
492.66	203.63
492.84	145.11
493.01	163.84
493.19	229.37
493.37	166.18
493.54	203.63
493.72	95.96
493.90	215.33
494.08	222.35
494.25	133.41
494.43	229.37
494.61	131.07
494.79	131.07
494.96	159.16
495.14	236.39
495.32	210.65
495.49	112.35
495.67	133.41
495.85	182.56
496.02	138.09
496.20	198.95
496.38	222.35
496.55	273.84
496.73	182.56
496.91	124.05
497.09	187.24
497.26	194.26
497.44	147.45
497.62	222.35
497.79	173.20
497.97	198.95
498.14	203.63
498.32	184.90
498.50	212.99
498.67	156.82
498.85	259.80
499.03	166.18
499.20	81.92
499.38	124.05
499.56	128.73
499.73	131.07
499.91	205.97
500.08	163.84
500.26	187.24
500.44	184.90
500.61	231.71
500.79	161.50
500.97	201.29
501.14	250.44
501.32	131.07
501.49	205.97
501.67	208.31
501.84	191.92
502.02	117.03
502.20	217.67
502.37	182.56
502.55	149.79
502.72	264.48
502.90	175.54
503.07	163.84
503.25	191.92
503.43	217.67
503.60	191.92
503.78	173.20
503.95	201.29
504.13	102.98
504.30	168.52
504.48	264.48
504.65	205.97
504.83	140.43
505.01	145.11
505.18	142.77
505.36	161.50
505.53	205.97
505.71	119.37
505.88	259.80
506.06	208.31
506.23	191.92
506.41	189.58
506.58	177.88
506.76	224.69
506.93	128.73
507.11	182.56
507.28	252.78
507.46	217.67
507.63	273.84
507.81	182.56
507.98	241.08
508.16	194.26
508.33	222.35
508.50	285.55
508.68	299.59
508.85	124.05
509.03	147.45
509.20	191.92
509.38	227.03
509.55	142.77
509.73	234.05
509.90	243.42
510.08	152.13
510.25	243.42
510.42	187.24
510.60	201.29
510.77	238.73
510.95	166.18
511.12	276.18
511.30	250.44
511.47	330.02
511.64	301.93
511.82	248.10
511.99	252.78
512.17	198.95
512.34	138.09
512.51	142.77
512.69	149.79
512.86	217.67
513.04	180.22
513.21	159.16
513.38	159.16
513.56	215.33
513.73	152.13
513.90	161.50
514.08	224.69
514.25	163.84
514.43	180.22
514.60	189.58
514.77	124.05
514.95	322.99
515.12	224.69
515.29	266.82
515.47	175.54
515.64	194.26
515.81	222.35
515.99	248.10
516.16	194.26
516.33	198.95
516.51	205.97
516.68	208.31
516.85	196.60
517.03	124.05
517.20	187.24
517.37	212.99
517.54	170.86
517.72	182.56
517.89	196.60
518.06	175.54
518.24	177.88
518.41	222.35
518.58	220.01
518.75	294.91
518.93	133.41
519.10	159.16
519.27	276.18
519.45	170.86
519.62	238.73
519.79	147.45
519.96	234.05
520.14	161.50
520.31	208.31
520.48	175.54
520.65	217.67
520.83	231.71
521.00	255.12
521.17	313.63
521.34	187.24
521.52	187.24
521.69	110.01
521.86	238.73
522.03	241.08
522.20	269.16
522.38	140.43
522.55	196.60
522.72	147.45
522.89	194.26
523.07	285.55
523.24	194.26
523.41	147.45
523.58	222.35
523.75	191.92
523.92	212.99
524.10	177.88
524.27	184.90
524.44	203.63
524.61	276.18
524.78	184.90
524.96	194.26
525.13	201.29
525.30	208.31
525.47	205.97
525.64	248.10
525.81	163.84
525.98	262.14
526.16	222.35
526.33	135.75
526.50	177.88
526.67	220.01
526.84	154.48
527.01	180.22
527.18	126.39
527.36	217.67
527.53	215.33
527.70	217.67
527.87	212.99
528.04	210.65
528.21	236.39
528.38	287.89
528.55	142.77
528.72	266.82
528.89	255.12
529.07	138.09
529.24	189.58
529.41	271.50
529.58	238.73
529.75	236.39
529.92	234.05
530.09	187.24
530.26	203.63
530.43	236.39
530.60	196.60
530.77	248.10
530.94	182.56
531.11	212.99
531.28	231.71
531.46	196.60
531.63	234.05
531.80	196.60
531.97	224.69
532.14	224.69
532.31	269.16
532.48	191.92
532.65	327.68
532.82	341.72
532.99	330.02
533.16	262.14
533.33	304.27
533.50	224.69
533.67	290.23
533.84	353.42
534.01	379.17
534.18	365.12
534.35	301.93
534.52	280.86
534.69	252.78
534.86	215.33
535.03	238.73
535.20	290.23
535.37	168.52
535.54	250.44
535.71	147.45
535.88	330.02
536.05	182.56
536.22	227.03
536.38	215.33
536.55	236.39
536.72	266.82
536.89	250.44
537.06	227.03
537.23	203.63
537.40	250.44
537.57	163.84
537.74	243.42
537.91	227.03
538.08	243.42
538.25	259.80
538.42	243.42
538.59	215.33
538.75	140.43
538.92	208.31
539.09	208.31
539.26	191.92
539.43	390.87
539.60	1081.33
539.77	1661.78
539.94	1696.89
540.11	1118.78
540.28	727.91
540.44	442.36
540.61	308.95
540.78	184.90
540.95	241.08
541.12	248.10
541.29	124.05
541.46	236.39
541.62	205.97
541.79	215.33
541.96	229.37
542.13	212.99
542.30	203.63
542.47	222.35
542.63	262.14
542.80	243.42
542.97	236.39
543.14	159.16
543.31	163.84
543.48	231.71
543.64	273.84
543.81	163.84
543.98	196.60
544.15	231.71
544.32	161.50
544.48	147.45
544.65	241.08
544.82	201.29
544.99	203.63
545.16	229.37
545.32	187.24
545.49	245.76
545.66	266.82
545.83	191.92
546.00	252.78
546.16	170.86
546.33	191.92
546.50	203.63
546.67	182.56
546.83	231.71
547.00	252.78
547.17	191.92
547.34	177.88
547.50	222.35
547.67	156.82
547.84	236.39
548.00	212.99
548.17	201.29
548.34	145.11
548.51	234.05
548.67	252.78
548.84	234.05
549.01	145.11
549.18	236.39
549.34	248.10
549.51	236.39
549.68	297.25
549.84	224.69
550.01	156.82
550.18	327.68
550.34	322.99
550.51	229.37
550.68	224.69
550.84	203.63
551.01	203.63
551.18	236.39
551.34	215.33
551.51	159.16
551.68	229.37
551.84	156.82
552.01	119.37
552.18	257.46
552.34	175.54
552.51	245.76
552.68	245.76
552.84	198.95
553.01	231.71
553.18	236.39
553.34	184.90
553.51	203.63
553.67	257.46
553.84	257.46
554.01	124.05
554.17	262.14
554.34	248.10
554.51	196.60
554.67	278.52
554.84	175.54
555.00	191.92
555.17	287.89
555.33	208.31
555.50	234.05
555.67	229.37
555.83	175.54
556.00	245.76
556.16	421.30
556.33	255.12
556.50	234.05
556.66	175.54
556.83	215.33
556.99	229.37
557.16	180.22
557.32	234.05
557.49	313.63
557.65	248.10
557.82	224.69
557.98	182.56
558.15	149.79
558.32	255.12
558.48	168.52
558.65	208.31
558.81	210.65
558.98	231.71
559.14	177.88
559.31	201.29
559.47	184.90
559.64	262.14
559.80	177.88
559.97	217.67
560.13	198.95
560.30	198.95
560.46	212.99
560.63	203.63
560.79	140.43
560.96	142.77
561.12	177.88
561.29	215.33
561.45	252.78
561.61	187.24
561.78	301.93
561.94	248.10
562.11	220.01
562.27	231.71
562.44	198.95
562.60	194.26
562.77	210.65
562.93	234.05
563.10	187.24
563.26	168.52
563.42	189.58
563.59	224.69
563.75	180.22
563.92	222.35
564.08	201.29
564.24	205.97
564.41	276.18
564.57	189.58
564.74	273.84
564.90	177.88
565.07	220.01
565.23	184.90
565.39	241.08
565.56	287.89
565.72	229.37
565.88	245.76
566.05	215.33
566.21	259.80
566.38	243.42
566.54	283.20
566.70	177.88
566.87	191.92
567.03	161.50
567.19	280.86
567.36	217.67
567.52	128.73
567.68	182.56
567.85	255.12
568.01	191.92
568.17	163.84
568.34	194.26
568.50	205.97
568.66	196.60
568.83	285.55
568.99	124.05
569.15	187.24
569.32	203.63
569.48	194.26
569.64	234.05
569.81	208.31
569.97	180.22
570.13	257.46
570.30	208.31
570.46	191.92
570.62	191.92
570.78	210.65
570.95	191.92
571.11	201.29
571.27	255.12
571.43	177.88
571.60	250.44
571.76	168.52
571.92	187.24
572.09	210.65
572.25	252.78
572.41	175.54
572.57	191.92
572.74	269.16
572.90	182.56
573.06	238.73
573.22	205.97
573.38	187.24
573.55	227.03
573.71	255.12
573.87	222.35
574.03	128.73
574.20	177.88
574.36	299.59
574.52	306.61
574.68	351.08
574.84	330.02
575.01	217.67
575.17	257.46
575.33	184.90
575.49	271.50
575.65	318.31
575.82	311.29
575.98	479.81
576.14	690.46
576.30	802.80
576.46	653.01
576.62	437.68
576.79	353.42
576.95	414.27
577.11	159.16
577.27	255.12
577.43	339.38
577.59	163.84
577.75	243.42
577.92	177.88
578.08	217.67
578.24	189.58
578.40	257.46
578.56	259.80
578.72	222.35
578.88	255.12
579.04	266.82
579.21	231.71
579.37	290.23
579.53	313.63
579.69	325.33
579.85	259.80
580.01	294.91
580.17	334.70
580.33	322.99
580.49	337.04
580.65	297.25
580.82	259.80
580.98	280.86
581.14	283.20
581.30	390.87
581.46	404.91
581.62	510.24
581.78	489.17
581.94	603.86
582.10	465.77
582.26	407.25
582.42	379.17
582.58	402.57
582.74	407.25
582.90	365.12
583.06	390.87
583.22	390.87
583.38	414.27
583.54	493.85
583.70	601.52
583.86	683.44
584.02	774.72
584.18	1046.22
584.34	1259.21
584.50	3002.91
584.66	23637.07
584.82	57106.73
584.98	65535.00
585.14	65535.00
585.30	52926.53
585.46	32121.51
585.62	19632.41
585.78	8830.84
585.94	3468.67
586.10	1598.59
586.26	1116.44
586.42	788.76
586.58	662.37
586.74	683.44
586.90	589.82
587.06	554.71
587.22	540.66
587.38	435.34
587.54	1160.91
587.70	3487.40
587.86	6237.53
588.02	7426.52
588.18	5118.75
588.34	3087.17
588.49	1989.46
588.65	1226.44
588.81	664.71
588.97	456.40
589.13	374.49
589.29	360.44
589.45	360.44
589.61	353.42
589.77	379.17
589.93	437.68
590.08	517.26
590.24	482.15
590.40	442.36
590.56	339.38
590.72	287.89
590.88	299.59
591.04	327.68
591.20	294.91
591.35	332.36
591.51	241.08
591.67	229.37
591.83	311.29
591.99	264.48
592.15	290.23
592.31	229.37
592.46	271.50
592.62	322.99
592.78	201.29
592.94	278.52
593.10	241.08
593.26	292.57
593.41	381.51
593.57	304.27
593.73	538.32
593.89	2780.56
594.05	7669.94
594.20	12191.85
594.36	11716.72
594.52	7730.79
594.68	4695.11
594.84	3103.55
594.99	1673.48
595.15	739.61
595.31	465.77
595.47	365.12
595.62	292.57
595.78	212.99
595.94	276.18
596.10	351.08
596.25	311.29
596.41	376.83
596.57	285.55
596.73	325.33
596.88	477.47
597.04	1455.81
597.20	2478.63
597.36	3070.78
597.51	2314.79
597.67	1430.07
597.83	1053.24
597.99	685.78
598.14	367.46
598.30	318.31
598.46	313.63
598.61	325.33
598.77	304.27
598.93	313.63
599.09	297.25
599.24	210.65
599.40	266.82
599.56	208.31
599.71	259.80
599.87	166.18
600.03	189.58
600.18	191.92
600.34	250.44
600.50	203.63
600.65	175.54
600.81	255.12
600.97	255.12
601.12	222.35
601.28	292.57
601.44	236.39
601.59	315.97
601.75	194.26
601.91	229.37
602.06	250.44
602.22	299.59
602.37	704.50
602.53	1792.85
602.69	2897.58
602.84	3267.39
603.00	2286.70
603.16	1542.41
603.31	1062.60
603.47	650.67
603.62	451.72
603.78	285.55
603.94	299.59
604.09	234.05
604.25	273.84
604.40	283.20
604.56	259.80
604.71	299.59
604.87	252.78
605.03	248.10
605.18	320.65
605.34	245.76
605.49	269.16
605.65	231.71
605.80	241.08
605.96	269.16
606.12	318.31
606.27	294.91
606.43	318.31
606.58	351.08
606.74	873.02
606.89	3588.04
607.05	7349.28
607.20	10239.84
607.36	8753.60
607.51	5598.56
607.67	3723.79
607.82	2462.24
607.98	1392.62
608.13	636.63
608.29	475.13
608.44	423.64
608.60	414.27
608.75	440.02
608.91	1186.65
609.06	5467.49
609.22	12678.68
609.37	18200.01
609.53	15985.86
609.68	10368.57
609.84	6607.33
609.99	4540.64
610.15	2289.04
610.30	1083.67
610.46	545.34
610.61	475.13
610.76	339.38
610.92	252.78
611.07	283.20
611.23	393.21
611.38	290.23
611.54	292.57
611.69	318.31
611.84	278.52
612.00	299.59
612.15	337.04
612.31	470.45
612.46	678.76
612.62	727.91
612.77	767.70
612.92	662.37
613.08	465.77
613.23	561.73
613.39	493.85
613.54	851.96
613.69	4901.08
613.85	15555.20
614.00	26132.08
614.15	29848.85
614.31	20690.34
614.46	12924.44
614.62	8645.94
614.77	5153.86
614.92	2310.11
615.08	1036.86
615.23	592.16
615.38	442.36
615.54	484.49
615.69	938.55
615.84	2822.69
616.00	5621.97
616.15	7323.54
616.30	6094.76
616.46	4086.58
616.61	2651.83
616.76	1891.15
616.92	964.30
617.07	531.30
617.22	374.49
617.37	376.83
617.53	327.68
617.68	280.86
617.83	311.29
617.99	318.31
618.14	320.65
618.29	348.74
618.45	269.16
618.60	238.73
618.75	203.63
618.90	191.92
619.06	252.78
619.21	238.73
619.36	257.46
619.51	170.86
619.67	131.07
619.82	227.03
619.97	210.65
620.12	271.50
620.28	208.31
620.43	196.60
620.58	234.05
620.73	276.18
620.89	238.73
621.04	425.98
621.19	1540.07
621.34	3002.91
621.49	4306.59
621.65	3929.76
621.80	2738.43
621.95	1732.00
622.10	1184.31
622.25	755.99
622.41	397.89
622.56	306.61
622.71	203.63
622.86	231.71
623.01	234.05
623.16	269.16
623.32	229.37
623.47	212.99
623.62	227.03
623.77	208.31
623.92	224.69
624.07	184.90
624.23	248.10
624.38	259.80
624.53	191.92
624.68	280.86
624.83	332.36
624.98	152.13
625.13	222.35
625.29	224.69
625.44	229.37
625.59	292.57
625.74	294.91
625.89	554.71
626.04	2380.32
626.19	7456.95
626.34	12959.55
626.49	15222.84
626.65	11040.31
626.80	7288.43
626.95	4781.71
627.10	2867.16
627.25	1413.68
627.40	669.39
627.55	454.06
627.70	376.83
627.85	337.04
628.00	248.10
628.15	224.69
628.30	248.10
628.45	269.16
628.60	229.37
628.76	198.95
628.91	212.99
629.06	236.39
629.21	215.33
629.36	259.80
629.51	220.01
629.66	259.80
629.81	435.34
629.96	1392.62
630.11	2560.55
630.26	3639.53
630.41	3382.07
630.56	2349.90
630.71	1521.35
630.86	1146.86
631.01	688.12
631.16	390.87
631.31	365.12
631.46	285.55
631.61	252.78
631.76	250.44
631.91	229.37
632.06	285.55
632.21	315.97
632.36	311.29
632.51	259.80
632.66	374.49
632.81	1158.57
632.96	4065.51
633.10	7801.01
633.25	10401.34
633.40	8381.46
633.55	5692.18
633.70	3742.52
633.85	2520.76
634.00	1446.45
634.15	671.73
634.30	407.25
634.45	348.74
634.60	257.46
634.75	259.80
634.90	208.31
635.05	236.39
635.19	184.90
635.34	168.52
635.49	301.93
635.64	243.42
635.79	292.57
635.94	243.42
636.09	259.80
636.24	290.23
636.39	248.10
636.53	301.93
636.68	292.57
636.83	241.08
636.98	383.85
637.13	337.04
637.28	325.33
637.43	465.77
637.57	638.97
637.72	3379.73
637.87	9687.48
638.02	16641.21
638.17	19850.08
638.32	14178.97
638.46	9376.19
638.61	6333.49
638.76	3798.69
638.91	1816.26
639.06	940.90
639.20	664.71
639.35	655.35
639.50	947.92
639.65	5046.20
639.80	15440.51
639.94	26309.96
640.09	30672.72
640.24	22038.48
640.39	14471.53
640.54	9324.69
640.68	5753.04
640.83	2782.90
640.98	1308.36
641.13	758.33
641.27	505.56
641.42	397.89
641.57	369.80
641.72	283.20
641.86	231.71
642.01	229.37
642.16	285.55
642.31	264.48
642.45	231.71
642.60	224.69
642.75	212.99
642.90	287.89
643.04	205.97
643.19	243.42
643.34	215.33
643.48	177.88
643.63	173.20
643.78	245.76
643.93	259.80
644.07	257.46
644.22	154.48
644.37	222.35
644.51	241.08
644.66	187.24
644.81	187.24
644.95	196.60
645.10	159.16
645.25	215.33
645.39	271.50
645.54	170.86
645.69	201.29
645.83	189.58
645.98	229.37
646.13	212.99
646.27	201.29
646.42	194.26
646.57	189.58
646.71	161.50
646.86	166.18
647.00	224.69
647.15	224.69
647.30	133.41
647.44	264.48
647.59	163.84
647.74	161.50
647.88	245.76
648.03	205.97
648.17	255.12
648.32	198.95
648.47	180.22
648.61	205.97
648.76	177.88
648.90	168.52
649.05	231.71
649.20	163.84
649.34	191.92
649.49	250.44
649.63	238.73
649.78	327.68
649.92	339.38
650.07	1930.94
650.21	6209.44
650.36	11878.22
650.51	15267.31
650.65	12664.64
650.80	8758.28
650.94	5926.24
651.09	3510.80
651.23	1940.30
651.38	987.71
651.52	547.69
651.67	318.31
651.81	283.20
651.96	220.01
652.10	257.46
652.25	320.65
652.39	306.61
652.54	292.57
652.68	538.32
652.83	1940.30
652.97	3899.33
653.12	5401.96
653.26	4800.44
653.41	3398.46
653.55	2354.58
653.70	1479.22
653.84	781.74
653.99	568.75
654.13	266.82
654.27	287.89
654.42	163.84
654.56	168.52
654.71	100.64
654.85	149.79
655.00	177.88
655.14	128.73
655.29	177.88
655.43	180.22
655.57	147.45
655.72	191.92
655.86	107.66
656.01	133.41
656.15	180.22
656.30	241.08
656.44	135.75
656.58	107.66
656.73	119.37
656.87	215.33
657.01	128.73
657.16	257.46
657.30	163.84
657.45	194.26
657.59	163.84
657.73	175.54
657.88	152.13
658.02	170.86
658.16	184.90
658.31	187.24
658.45	257.46
658.60	142.77
658.74	168.52
658.88	145.11
659.03	229.37
659.17	311.29
659.31	896.43
659.46	2944.39
659.60	5565.79
659.74	7548.23
659.89	6733.72
660.03	4755.97
660.17	3164.40
660.32	1916.90
660.46	1170.27
660.60	512.58
660.74	421.30
660.89	325.33
661.03	276.18
661.17	152.13
661.32	191.92
661.46	126.39
661.60	135.75
661.74	154.48
661.89	124.05
662.03	250.44
662.17	208.31
662.31	215.33
662.46	227.03
662.60	180.22
662.74	135.75
662.88	196.60
663.03	152.13
663.17	131.07
663.31	91.28
663.45	201.29
663.60	156.82
663.74	229.37
663.88	170.86
664.02	152.13
664.17	215.33
664.31	187.24
664.45	102.98
664.59	198.95
664.73	231.71
664.88	271.50
665.02	184.90
665.16	145.11
665.30	290.23
665.44	128.73
665.59	191.92
665.73	121.71
665.87	208.31
666.01	159.16
666.15	252.78
666.29	189.58
666.44	299.59
666.58	299.59
666.72	227.03
666.86	273.84
667.00	245.76
667.14	468.11
667.28	1863.07
667.43	5434.72
667.57	9856.00
667.71	13252.11
667.85	11262.66
667.99	8100.59
668.13	5184.29
668.27	2960.78
668.41	1757.74
668.56	961.96
668.70	526.62
668.84	397.89
668.98	255.12
669.12	234.05
669.26	234.05
669.40	334.70
669.54	212.99
669.68	135.75
669.82	161.50
669.96	149.79
670.10	184.90
670.25	177.88
670.39	241.08
670.53	203.63
670.67	217.67
670.81	194.26
670.95	262.14
671.09	561.73
671.23	1975.41
671.37	4557.02
671.51	7143.32
671.65	8285.50
671.79	6366.26
671.93	4369.78
672.07	2640.12
672.21	1542.41
672.35	849.61
672.49	526.62
672.63	341.72
672.77	243.42
672.91	215.33
673.05	168.52
673.19	147.45
673.33	131.07
673.47	222.35
673.61	110.01
673.75	222.35
673.89	133.41
674.03	224.69
674.17	170.86
674.31	140.43
674.45	117.03
674.59	145.11
674.73	161.50
674.87	196.60
675.01	220.01
675.15	187.24
675.29	280.86
675.43	222.35
675.56	294.91
675.70	217.67
675.84	98.30
675.98	154.48
676.12	131.07
676.26	112.35
676.40	117.03
676.54	117.03
676.68	212.99
676.82	138.09
676.96	112.35
677.10	189.58
677.23	196.60
677.37	140.43
677.51	147.45
677.65	196.60
677.79	133.41
677.93	79.58
678.07	161.50
678.21	154.48
678.34	91.28
678.48	98.30
678.62	133.41
678.76	142.77
678.90	140.43
679.04	135.75
679.18	131.07
679.31	145.11
679.45	140.43
679.59	93.62
679.73	189.58
679.87	124.05
680.00	133.41
680.14	98.30
680.28	119.37
680.42	154.48
680.56	128.73
680.70	126.39
680.83	102.98
680.97	128.73
681.11	102.98
681.25	93.62
681.39	77.24
681.52	135.75
681.66	86.60
681.80	168.52
681.94	124.05
682.07	107.66
682.21	126.39
682.35	126.39
682.49	135.75
682.62	107.66
682.76	119.37
682.90	166.18
683.04	112.35
683.17	145.11
683.31	131.07
683.45	191.92
683.59	107.66
683.72	149.79
683.86	131.07
684.00	175.54
684.13	184.90
684.27	210.65
684.41	128.73
684.55	149.79
684.68	131.07
684.82	117.03
684.96	105.32
685.09	149.79
685.23	72.56
685.37	156.82
685.50	117.03
685.64	156.82
685.78	88.94
685.91	102.98
686.05	191.92
686.19	128.73
686.32	100.64
686.46	131.07
686.60	56.17
686.73	238.73
686.87	276.18
687.01	234.05
687.14	173.20
687.28	105.32
687.42	128.73
687.55	138.09
687.69	208.31
687.82	100.64
687.96	126.39
688.10	161.50
688.23	126.39
688.37	124.05
688.50	112.35
688.64	166.18
688.78	126.39
688.91	107.66
689.05	124.05
689.18	152.13
689.32	70.22
689.46	79.58
689.59	135.75
689.73	161.50
689.86	163.84
690.00	105.32
690.13	187.24
690.27	100.64
690.41	70.22
690.54	110.01
690.68	152.13
690.81	100.64
690.95	135.75
691.08	105.32
691.22	145.11
691.35	145.11
691.49	161.50
691.62	79.58
691.76	147.45
691.89	142.77
692.03	194.26
692.16	161.50
692.30	229.37
692.43	791.10
692.57	2431.82
692.70	4278.50
692.84	5741.33
692.97	5266.21
693.11	3929.76
693.24	2869.50
693.38	1937.96
693.51	1193.67
693.65	849.61
693.78	510.24
693.92	325.33
694.05	341.72
694.19	196.60
694.32	138.09
694.45	196.60
694.59	177.88
694.72	140.43
694.86	140.43
694.99	241.08
695.13	149.79
695.26	161.50
695.39	140.43
695.53	198.95
695.66	142.77
695.80	189.58
695.93	154.48
696.07	182.56
696.20	299.59
696.33	348.74
696.47	507.90
696.60	540.66
696.73	386.19
696.87	259.80
697.00	278.52
697.14	222.35
697.27	128.73
697.40	182.56
697.54	156.82
697.67	159.16
697.80	161.50
697.94	124.05
698.07	126.39
698.21	149.79
698.34	175.54
698.47	133.41
698.61	72.56
698.74	79.58
698.87	145.11
699.01	201.29
699.14	107.66
699.27	175.54
699.40	210.65
699.54	88.94
699.67	147.45
699.80	72.56
699.94	86.60
700.07	163.84
700.20	112.35
700.34	119.37
700.47	72.56
700.60	86.60
700.73	142.77
700.87	166.18
701.00	86.60
701.13	133.41
701.26	173.20
701.40	205.97
701.53	163.84
701.66	131.07
701.79	161.50
701.93	126.39
702.06	320.65
702.19	430.66
702.32	491.51
702.46	524.28
702.59	517.26
702.72	919.83
702.85	2946.73
702.99	6497.33
703.12	9769.40
703.25	11414.79
703.38	9708.54
703.51	7662.91
703.65	6139.23
703.78	4074.87
703.91	2682.25
704.04	1668.80
704.17	1123.46
704.31	589.82
704.44	383.85
704.57	292.57
704.70	287.89
704.83	140.43
704.96	212.99
705.10	201.29
705.23	250.44
>>>>>End Processed Spectral Data<<<<<
