SpectraSuite Data File
++++++++++++++++++++++++++++++++++++
Date: Fri Oct 04 11:47:02 GMT-05:00 2013
User: price-jones
Dark Spectrum Present: No
Reference Spectrum Present: No
Number of Sampled Component Spectra: 1
Spectrometers: USB2+H05261
Integration Time (usec): 100000 (USB2+H05261)
Spectra Averaged: 1 (USB2+H05261)
Boxcar Smoothing: 0 (USB2+H05261)
Correct for Electrical Dark: No (USB2+H05261)
Strobe/Lamp Enabled: No (USB2+H05261)
Correct for Detector Non-linearity: No (USB2+H05261)
Correct for Stray Light: No (USB2+H05261)
Number of Pixels in Processed Spectrum: 2048
>>>>>Begin Processed Spectral Data<<<<<
365.73	0.00
365.92	0.00
366.12	0.00
366.32	0.00
366.52	0.00
366.72	0.00
366.91	0.00
367.11	0.00
367.31	0.00
367.51	0.00
367.70	0.00
367.90	0.00
368.10	0.00
368.30	0.00
368.49	0.00
368.69	0.00
368.89	0.00
369.09	0.00
369.28	0.00
369.48	0.00
369.68	0.00
369.87	0.00
370.07	0.00
370.27	4.68
370.47	0.00
370.66	53.83
370.86	21.06
371.06	37.45
371.25	11.70
371.45	42.13
371.65	37.45
371.84	7.02
372.04	56.17
372.24	21.06
372.44	110.01
372.63	140.43
372.83	133.41
373.03	67.88
373.22	79.58
373.42	133.41
373.62	135.75
373.81	44.47
374.01	180.22
374.21	152.13
374.40	74.90
374.60	227.03
374.79	35.11
374.99	63.19
375.19	74.90
375.38	149.79
375.58	42.13
375.78	112.35
375.97	128.73
376.17	177.88
376.37	166.18
376.56	35.11
376.76	49.15
376.95	105.32
377.15	60.85
377.35	81.92
377.54	100.64
377.74	154.48
377.93	81.92
378.13	168.52
378.33	107.66
378.52	93.62
378.72	133.41
378.91	81.92
379.11	121.71
379.31	70.22
379.50	93.62
379.70	100.64
379.89	91.28
380.09	91.28
380.28	88.94
380.48	81.92
380.68	124.05
380.87	105.32
381.07	37.45
381.26	121.71
381.46	145.11
381.65	131.07
381.85	60.85
382.04	67.88
382.24	93.62
382.43	112.35
382.63	121.71
382.83	23.41
383.02	98.30
383.22	107.66
383.41	95.96
383.61	88.94
383.80	74.90
384.00	142.77
384.19	23.41
384.39	215.33
384.58	114.69
384.78	135.75
384.97	81.92
385.17	102.98
385.36	44.47
385.56	102.98
385.75	53.83
385.95	21.06
386.14	98.30
386.34	107.66
386.53	140.43
386.72	63.19
386.92	100.64
387.11	112.35
387.31	128.73
387.50	86.60
387.70	0.00
387.89	42.13
388.09	53.83
388.28	86.60
388.48	63.19
388.67	121.71
388.86	51.49
389.06	56.17
389.25	128.73
389.45	86.60
389.64	126.39
389.84	112.35
390.03	198.95
390.22	77.24
390.42	128.73
390.61	147.45
390.81	112.35
391.00	74.90
391.19	77.24
391.39	84.26
391.58	107.66
391.78	77.24
391.97	95.96
392.16	163.84
392.36	133.41
392.55	215.33
392.75	135.75
392.94	0.00
393.13	112.35
393.33	163.84
393.52	0.00
393.71	91.28
393.91	74.90
394.10	56.17
394.29	142.77
394.49	86.60
394.68	124.05
394.88	142.77
395.07	145.11
395.26	152.13
395.46	44.47
395.65	128.73
395.84	58.51
396.04	170.86
396.23	79.58
396.42	37.45
396.62	100.64
396.81	119.37
397.00	173.20
397.19	149.79
397.39	124.05
397.58	177.88
397.77	95.96
397.97	124.05
398.16	105.32
398.35	60.85
398.55	117.03
398.74	138.09
398.93	114.69
399.12	166.18
399.32	124.05
399.51	95.96
399.70	201.29
399.90	49.15
400.09	63.19
400.28	91.28
400.47	86.60
400.67	110.01
400.86	72.56
401.05	145.11
401.24	117.03
401.44	88.94
401.63	84.26
401.82	124.05
402.01	140.43
402.21	110.01
402.40	39.79
402.59	138.09
402.78	100.64
402.97	95.96
403.17	126.39
403.36	49.15
403.55	133.41
403.74	98.30
403.93	156.82
404.13	131.07
404.32	191.92
404.51	88.94
404.70	126.39
404.89	93.62
405.09	119.37
405.28	138.09
405.47	105.32
405.66	135.75
405.85	110.01
406.05	44.47
406.24	70.22
406.43	4.68
406.62	84.26
406.81	154.48
407.00	77.24
407.20	107.66
407.39	110.01
407.58	81.92
407.77	77.24
407.96	98.30
408.15	168.52
408.34	142.77
408.54	156.82
408.73	88.94
408.92	126.39
409.11	70.22
409.30	77.24
409.49	119.37
409.68	95.96
409.87	145.11
410.07	72.56
410.26	124.05
410.45	161.50
410.64	81.92
410.83	91.28
411.02	121.71
411.21	145.11
411.40	100.64
411.59	65.54
411.78	138.09
411.98	100.64
412.17	114.69
412.36	51.49
412.55	56.17
412.74	37.45
412.93	159.16
413.12	138.09
413.31	133.41
413.50	124.05
413.69	16.38
413.88	173.20
414.07	95.96
414.26	121.71
414.45	128.73
414.64	107.66
414.83	161.50
415.02	102.98
415.22	133.41
415.41	154.48
415.60	133.41
415.79	166.18
415.98	166.18
416.17	121.71
416.36	100.64
416.55	124.05
416.74	163.84
416.93	149.79
417.12	51.49
417.31	133.41
417.50	140.43
417.69	147.45
417.88	124.05
418.07	156.82
418.26	170.86
418.45	140.43
418.64	173.20
418.83	173.20
419.02	238.73
419.21	128.73
419.39	210.65
419.58	110.01
419.77	74.90
419.96	149.79
420.15	198.95
420.34	168.52
420.53	140.43
420.72	140.43
420.91	102.98
421.10	107.66
421.29	79.58
421.48	112.35
421.67	110.01
421.86	149.79
422.05	117.03
422.24	110.01
422.43	140.43
422.61	58.51
422.80	168.52
422.99	81.92
423.18	56.17
423.37	180.22
423.56	154.48
423.75	95.96
423.94	112.35
424.13	107.66
424.32	51.49
424.50	25.75
424.69	138.09
424.88	173.20
425.07	135.75
425.26	170.86
425.45	208.31
425.64	198.95
425.83	222.35
426.01	128.73
426.20	112.35
426.39	121.71
426.58	93.62
426.77	58.51
426.96	149.79
427.15	161.50
427.33	142.77
427.52	91.28
427.71	95.96
427.90	145.11
428.09	177.88
428.28	67.88
428.46	170.86
428.65	117.03
428.84	121.71
429.03	166.18
429.22	166.18
429.40	95.96
429.59	114.69
429.78	102.98
429.97	119.37
430.16	88.94
430.34	102.98
430.53	159.16
430.72	79.58
430.91	175.54
431.10	128.73
431.28	149.79
431.47	121.71
431.66	95.96
431.85	51.49
432.03	145.11
432.22	198.95
432.41	112.35
432.60	175.54
432.79	98.30
432.97	205.97
433.16	292.57
433.35	168.52
433.54	154.48
433.72	168.52
433.91	149.79
434.10	140.43
434.28	154.48
434.47	121.71
434.66	208.31
434.85	72.56
435.03	166.18
435.22	191.92
435.41	145.11
435.59	81.92
435.78	37.45
435.97	154.48
436.16	60.85
436.34	133.41
436.53	154.48
436.72	161.50
436.90	152.13
437.09	161.50
437.28	236.39
437.46	128.73
437.65	187.24
437.84	74.90
438.02	168.52
438.21	142.77
438.40	196.60
438.58	212.99
438.77	84.26
438.96	133.41
439.14	70.22
439.33	131.07
439.52	56.17
439.70	142.77
439.89	138.09
440.08	110.01
440.26	51.49
440.45	124.05
440.63	105.32
440.82	37.45
441.01	166.18
441.19	124.05
441.38	74.90
441.57	147.45
441.75	161.50
441.94	147.45
442.12	152.13
442.31	131.07
442.50	79.58
442.68	121.71
442.87	152.13
443.05	182.56
443.24	227.03
443.43	170.86
443.61	166.18
443.80	168.52
443.98	95.96
444.17	126.39
444.35	163.84
444.54	110.01
444.73	117.03
444.91	138.09
445.10	119.37
445.28	152.13
445.47	168.52
445.65	138.09
445.84	79.58
446.02	147.45
446.21	138.09
446.39	168.52
446.58	138.09
446.77	142.77
446.95	128.73
447.14	131.07
447.32	107.66
447.51	138.09
447.69	180.22
447.88	112.35
448.06	152.13
448.25	135.75
448.43	124.05
448.62	131.07
448.80	119.37
448.99	100.64
449.17	135.75
449.36	112.35
449.54	67.88
449.73	142.77
449.91	187.24
450.10	131.07
450.28	166.18
450.46	168.52
450.65	77.24
450.83	138.09
451.02	114.69
451.20	126.39
451.39	91.28
451.57	110.01
451.76	124.05
451.94	98.30
452.13	128.73
452.31	184.90
452.49	166.18
452.68	145.11
452.86	84.26
453.05	217.67
453.23	145.11
453.42	110.01
453.60	133.41
453.78	147.45
453.97	53.83
454.15	152.13
454.34	112.35
454.52	81.92
454.70	170.86
454.89	100.64
455.07	102.98
455.26	133.41
455.44	91.28
455.62	156.82
455.81	152.13
455.99	102.98
456.17	194.26
456.36	72.56
456.54	91.28
456.73	77.24
456.91	210.65
457.09	110.01
457.28	147.45
457.46	182.56
457.64	184.90
457.83	175.54
458.01	74.90
458.19	149.79
458.38	191.92
458.56	98.30
458.74	217.67
458.93	72.56
459.11	215.33
459.29	105.32
459.48	149.79
459.66	149.79
459.84	191.92
460.03	208.31
460.21	187.24
460.39	161.50
460.57	191.92
460.76	135.75
460.94	154.48
461.12	238.73
461.31	170.86
461.49	131.07
461.67	117.03
461.85	184.90
462.04	145.11
462.22	514.92
462.40	114.69
462.59	159.16
462.77	166.18
462.95	187.24
463.13	84.26
463.32	105.32
463.50	147.45
463.68	180.22
463.86	131.07
464.05	107.66
464.23	161.50
464.41	128.73
464.59	133.41
464.78	168.52
464.96	140.43
465.14	140.43
465.32	117.03
465.50	93.62
465.69	203.63
465.87	145.11
466.05	170.86
466.23	88.94
466.41	131.07
466.60	140.43
466.78	126.39
466.96	161.50
467.14	128.73
467.32	124.05
467.51	152.13
467.69	182.56
467.87	140.43
468.05	154.48
468.23	175.54
468.41	81.92
468.60	177.88
468.78	161.50
468.96	124.05
469.14	124.05
469.32	46.81
469.50	133.41
469.69	140.43
469.87	105.32
470.05	126.39
470.23	212.99
470.41	117.03
470.59	168.52
470.77	145.11
470.95	159.16
471.14	227.03
471.32	152.13
471.50	184.90
471.68	149.79
471.86	168.52
472.04	175.54
472.22	149.79
472.40	135.75
472.58	201.29
472.77	180.22
472.95	175.54
473.13	91.28
473.31	86.60
473.49	170.86
473.67	70.22
473.85	203.63
474.03	201.29
474.21	166.18
474.39	161.50
474.57	220.01
474.75	128.73
474.93	175.54
475.12	95.96
475.30	124.05
475.48	105.32
475.66	220.01
475.84	152.13
476.02	198.95
476.20	119.37
476.38	124.05
476.56	255.12
476.74	119.37
476.92	217.67
477.10	135.75
477.28	152.13
477.46	175.54
477.64	227.03
477.82	175.54
478.00	119.37
478.18	119.37
478.36	149.79
478.54	133.41
478.72	145.11
478.90	121.71
479.08	156.82
479.26	145.11
479.44	133.41
479.62	112.35
479.80	107.66
479.98	98.30
480.16	131.07
480.34	154.48
480.52	175.54
480.70	191.92
480.88	131.07
481.06	159.16
481.24	131.07
481.41	198.95
481.59	177.88
481.77	138.09
481.95	173.20
482.13	149.79
482.31	227.03
482.49	175.54
482.67	170.86
482.85	154.48
483.03	191.92
483.21	154.48
483.39	194.26
483.57	201.29
483.74	196.60
483.92	189.58
484.10	88.94
484.28	173.20
484.46	215.33
484.64	149.79
484.82	243.42
485.00	117.03
485.18	110.01
485.35	133.41
485.53	126.39
485.71	119.37
485.89	110.01
486.07	93.62
486.25	196.60
486.43	191.92
486.61	152.13
486.78	205.97
486.96	119.37
487.14	177.88
487.32	65.54
487.50	175.54
487.68	159.16
487.85	149.79
488.03	224.69
488.21	210.65
488.39	154.48
488.57	154.48
488.75	189.58
488.92	470.45
489.10	145.11
489.28	220.01
489.46	191.92
489.64	180.22
489.81	201.29
489.99	189.58
490.17	184.90
490.35	229.37
490.53	180.22
490.70	107.66
490.88	168.52
491.06	154.48
491.24	196.60
491.41	177.88
491.59	262.14
491.77	163.84
491.95	145.11
492.13	152.13
492.30	145.11
492.48	208.31
492.66	187.24
492.84	234.05
493.01	121.71
493.19	166.18
493.37	194.26
493.54	276.18
493.72	198.95
493.90	173.20
494.08	163.84
494.25	156.82
494.43	194.26
494.61	159.16
494.79	163.84
494.96	212.99
495.14	161.50
495.32	201.29
495.49	196.60
495.67	245.76
495.85	128.73
496.02	229.37
496.20	222.35
496.38	283.20
496.55	194.26
496.73	198.95
496.91	194.26
497.09	252.78
497.26	124.05
497.44	222.35
497.62	229.37
497.79	135.75
497.97	217.67
498.14	194.26
498.32	236.39
498.50	177.88
498.67	182.56
498.85	224.69
499.03	205.97
499.20	177.88
499.38	170.86
499.56	238.73
499.73	191.92
499.91	149.79
500.08	203.63
500.26	163.84
500.44	201.29
500.61	217.67
500.79	135.75
500.97	222.35
501.14	201.29
501.32	187.24
501.49	210.65
501.67	117.03
501.84	236.39
502.02	117.03
502.20	205.97
502.37	234.05
502.55	159.16
502.72	222.35
502.90	196.60
503.07	203.63
503.25	255.12
503.43	248.10
503.60	175.54
503.78	238.73
503.95	147.45
504.13	180.22
504.30	194.26
504.48	135.75
504.65	180.22
504.83	163.84
505.01	168.52
505.18	229.37
505.36	175.54
505.53	184.90
505.71	194.26
505.88	220.01
506.06	208.31
506.23	191.92
506.41	131.07
506.58	250.44
506.76	220.01
506.93	201.29
507.11	175.54
507.28	161.50
507.46	205.97
507.63	250.44
507.81	124.05
507.98	210.65
508.16	210.65
508.33	236.39
508.50	138.09
508.68	238.73
508.85	156.82
509.03	140.43
509.20	152.13
509.38	210.65
509.55	245.76
509.73	243.42
509.90	217.67
510.08	110.01
510.25	187.24
510.42	203.63
510.60	189.58
510.77	163.84
510.95	180.22
511.12	297.25
511.30	308.95
511.47	322.99
511.64	201.29
511.82	180.22
511.99	198.95
512.17	140.43
512.34	166.18
512.51	215.33
512.69	187.24
512.86	149.79
513.04	170.86
513.21	205.97
513.38	149.79
513.56	77.24
513.73	154.48
513.90	170.86
514.08	236.39
514.25	234.05
514.43	271.50
514.60	131.07
514.77	257.46
514.95	224.69
515.12	266.82
515.29	224.69
515.47	145.11
515.64	205.97
515.81	290.23
515.99	222.35
516.16	241.08
516.33	149.79
516.51	166.18
516.68	170.86
516.85	161.50
517.03	250.44
517.20	168.52
517.37	201.29
517.54	154.48
517.72	212.99
517.89	182.56
518.06	180.22
518.24	259.80
518.41	273.84
518.58	292.57
518.75	189.58
518.93	156.82
519.10	163.84
519.27	138.09
519.45	142.77
519.62	156.82
519.79	121.71
519.96	210.65
520.14	205.97
520.31	334.70
520.48	231.71
520.65	278.52
520.83	238.73
521.00	184.90
521.17	187.24
521.34	191.92
521.52	259.80
521.69	238.73
521.86	215.33
522.03	182.56
522.20	283.20
522.38	217.67
522.55	201.29
522.72	184.90
522.89	189.58
523.07	257.46
523.24	231.71
523.41	196.60
523.58	152.13
523.75	220.01
523.92	243.42
524.10	147.45
524.27	201.29
524.44	189.58
524.61	222.35
524.78	177.88
524.96	217.67
525.13	236.39
525.30	210.65
525.47	243.42
525.64	175.54
525.81	196.60
525.98	184.90
526.16	269.16
526.33	236.39
526.50	156.82
526.67	133.41
526.84	156.82
527.01	159.16
527.18	220.01
527.36	163.84
527.53	159.16
527.70	168.52
527.87	205.97
528.04	238.73
528.21	299.59
528.38	210.65
528.55	243.42
528.72	248.10
528.89	208.31
529.07	201.29
529.24	243.42
529.41	224.69
529.58	283.20
529.75	227.03
529.92	194.26
530.09	245.76
530.26	229.37
530.43	271.50
530.60	234.05
530.77	191.92
530.94	224.69
531.11	234.05
531.28	234.05
531.46	208.31
531.63	224.69
531.80	220.01
531.97	182.56
532.14	250.44
532.31	238.73
532.48	266.82
532.65	315.97
532.82	353.42
532.99	416.62
533.16	301.93
533.33	294.91
533.50	168.52
533.67	236.39
533.84	369.80
534.01	433.00
534.18	334.70
534.35	280.86
534.52	238.73
534.69	292.57
534.86	294.91
535.03	248.10
535.20	238.73
535.37	259.80
535.54	175.54
535.71	269.16
535.88	245.76
536.05	189.58
536.22	280.86
536.38	196.60
536.55	196.60
536.72	198.95
536.89	133.41
537.06	208.31
537.23	189.58
537.40	196.60
537.57	208.31
537.74	257.46
537.91	217.67
538.08	110.01
538.25	238.73
538.42	220.01
538.59	227.03
538.75	156.82
538.92	252.78
539.09	212.99
539.26	271.50
539.43	496.19
539.60	1247.51
539.77	1919.24
539.94	1776.47
540.11	1266.23
540.28	795.78
540.44	505.56
540.61	315.97
540.78	276.18
540.95	184.90
541.12	227.03
541.29	203.63
541.46	220.01
541.62	248.10
541.79	140.43
541.96	273.84
542.13	194.26
542.30	147.45
542.47	259.80
542.63	243.42
542.80	224.69
542.97	243.42
543.14	245.76
543.31	224.69
543.48	217.67
543.64	217.67
543.81	168.52
543.98	201.29
544.15	173.20
544.32	170.86
544.48	229.37
544.65	142.77
544.82	182.56
544.99	196.60
545.16	266.82
545.32	245.76
545.49	191.92
545.66	264.48
545.83	201.29
546.00	147.45
546.16	243.42
546.33	248.10
546.50	184.90
546.67	276.18
546.83	208.31
547.00	210.65
547.17	227.03
547.34	173.20
547.50	229.37
547.67	215.33
547.84	189.58
548.00	196.60
548.17	168.52
548.34	224.69
548.51	257.46
548.67	250.44
548.84	285.55
549.01	236.39
549.18	224.69
549.34	243.42
549.51	194.26
549.68	269.16
549.84	248.10
550.01	182.56
550.18	351.08
550.34	299.59
550.51	191.92
550.68	182.56
550.84	234.05
551.01	255.12
551.18	220.01
551.34	255.12
551.51	224.69
551.68	231.71
551.84	257.46
552.01	194.26
552.18	154.48
552.34	222.35
552.51	252.78
552.68	264.48
552.84	154.48
553.01	229.37
553.18	241.08
553.34	194.26
553.51	215.33
553.67	245.76
553.84	215.33
554.01	257.46
554.17	285.55
554.34	138.09
554.51	210.65
554.67	191.92
554.84	292.57
555.00	266.82
555.17	98.30
555.33	220.01
555.50	198.95
555.67	182.56
555.83	234.05
556.00	290.23
556.16	374.49
556.33	241.08
556.50	212.99
556.66	238.73
556.83	250.44
556.99	196.60
557.16	203.63
557.32	198.95
557.49	210.65
557.65	163.84
557.82	140.43
557.98	243.42
558.15	243.42
558.32	248.10
558.48	138.09
558.65	163.84
558.81	156.82
558.98	194.26
559.14	182.56
559.31	248.10
559.47	208.31
559.64	182.56
559.80	182.56
559.97	220.01
560.13	140.43
560.30	198.95
560.46	194.26
560.63	252.78
560.79	250.44
560.96	271.50
561.12	147.45
561.29	194.26
561.45	168.52
561.61	224.69
561.78	278.52
561.94	224.69
562.11	166.18
562.27	205.97
562.44	145.11
562.60	168.52
562.77	142.77
562.93	238.73
563.10	198.95
563.26	227.03
563.42	241.08
563.59	271.50
563.75	217.67
563.92	187.24
564.08	149.79
564.24	168.52
564.41	201.29
564.57	161.50
564.74	220.01
564.90	241.08
565.07	180.22
565.23	306.61
565.39	231.71
565.56	262.14
565.72	152.13
565.88	145.11
566.05	238.73
566.21	215.33
566.38	224.69
566.54	133.41
566.70	170.86
566.87	198.95
567.03	102.98
567.19	257.46
567.36	269.16
567.52	203.63
567.68	182.56
567.85	229.37
568.01	212.99
568.17	175.54
568.34	173.20
568.50	278.52
568.66	248.10
568.83	266.82
568.99	128.73
569.15	278.52
569.32	217.67
569.48	248.10
569.64	215.33
569.81	255.12
569.97	229.37
570.13	217.67
570.30	205.97
570.46	217.67
570.62	220.01
570.78	149.79
570.95	170.86
571.11	177.88
571.27	245.76
571.43	191.92
571.60	189.58
571.76	203.63
571.92	227.03
572.09	241.08
572.25	194.26
572.41	191.92
572.57	147.45
572.74	229.37
572.90	231.71
573.06	184.90
573.22	252.78
573.38	259.80
573.55	203.63
573.71	280.86
573.87	238.73
574.03	133.41
574.20	243.42
574.36	259.80
574.52	339.38
574.68	332.36
574.84	264.48
575.01	330.02
575.17	187.24
575.33	243.42
575.49	194.26
575.65	208.31
575.82	395.55
575.98	617.90
576.14	821.53
576.30	936.21
576.46	596.84
576.62	599.18
576.79	386.19
576.95	360.44
577.11	224.69
577.27	238.73
577.43	262.14
577.59	299.59
577.75	255.12
577.92	290.23
578.08	259.80
578.24	191.92
578.40	271.50
578.56	285.55
578.72	304.27
578.88	339.38
579.04	283.20
579.21	215.33
579.37	227.03
579.53	203.63
579.69	252.78
579.85	236.39
580.01	404.91
580.17	379.17
580.33	447.04
580.49	395.55
580.65	360.44
580.82	271.50
580.98	416.62
581.14	360.44
581.30	400.23
581.46	423.64
581.62	622.58
581.78	748.97
581.94	608.54
582.10	554.71
582.26	444.70
582.42	479.81
582.58	463.43
582.74	404.91
582.90	418.96
583.06	505.56
583.22	564.07
583.38	552.37
583.54	547.69
583.70	713.86
583.86	720.88
584.02	976.00
584.18	1172.61
584.34	1558.80
584.50	4201.26
584.66	32212.79
584.82	63973.86
584.98	65535.00
585.14	65535.00
585.30	62599.97
585.46	40119.12
585.62	24650.52
585.78	10803.91
585.94	4362.76
586.10	2022.22
586.26	1282.61
586.42	992.39
586.58	788.76
586.74	767.70
586.90	631.94
587.06	660.03
587.22	685.78
587.38	589.82
587.54	1434.75
587.70	4699.80
587.86	7964.84
588.02	8603.81
588.18	5930.92
588.34	3815.07
588.49	2595.65
588.65	1390.28
588.81	779.40
588.97	374.49
589.13	346.40
589.29	306.61
589.45	374.49
589.61	372.15
589.77	444.70
589.93	458.74
590.08	507.90
590.24	423.64
590.40	517.26
590.56	435.34
590.72	360.44
590.88	318.31
591.04	327.68
591.20	332.36
591.35	470.45
591.51	273.84
591.67	311.29
591.83	290.23
591.99	334.70
592.15	241.08
592.31	205.97
592.46	231.71
592.62	250.44
592.78	259.80
592.94	280.86
593.10	301.93
593.26	388.53
593.41	353.42
593.57	388.53
593.73	648.33
593.89	3763.58
594.05	9958.98
594.20	14740.69
594.36	13916.83
594.52	8828.50
594.68	5621.97
594.84	3627.83
594.99	1994.14
595.15	793.44
595.31	423.64
595.47	416.62
595.62	358.10
595.78	327.68
595.94	332.36
596.10	402.57
596.25	381.51
596.41	355.76
596.57	330.02
596.73	355.76
596.88	713.86
597.04	1811.57
597.20	2939.71
597.36	3471.01
597.51	2511.39
597.67	1753.06
597.83	1256.87
597.99	823.87
598.14	552.37
598.30	454.06
598.46	353.42
598.61	374.49
598.77	411.93
598.93	341.72
599.09	330.02
599.24	236.39
599.40	243.42
599.56	210.65
599.71	229.37
599.87	262.14
600.03	212.99
600.18	189.58
600.34	252.78
600.50	245.76
600.65	184.90
600.81	259.80
600.97	231.71
601.12	201.29
601.28	220.01
601.44	201.29
601.59	217.67
601.75	278.52
601.91	227.03
602.06	166.18
602.22	330.02
602.37	809.83
602.53	2289.04
602.69	3550.59
602.84	3698.05
603.00	2722.04
603.16	1762.42
603.31	1188.99
603.47	802.80
603.62	435.34
603.78	245.76
603.94	250.44
604.09	294.91
604.25	320.65
604.40	285.55
604.56	308.95
604.71	224.69
604.87	173.20
605.03	332.36
605.18	315.97
605.34	297.25
605.49	280.86
605.65	259.80
605.80	278.52
605.96	294.91
606.12	266.82
606.27	320.65
606.43	435.34
606.58	409.59
606.74	1039.20
606.89	4571.07
607.05	9626.62
607.20	12475.06
607.36	10104.09
607.51	6860.11
607.67	4372.12
607.82	3023.97
607.98	1647.74
608.13	833.23
608.29	608.54
608.44	540.66
608.60	433.00
608.75	535.98
608.91	1476.88
609.06	7206.51
609.22	16065.44
609.37	21832.52
609.53	18848.33
609.68	12538.25
609.84	7929.74
609.99	5401.96
610.15	2874.18
610.30	1263.89
610.46	688.12
610.61	465.77
610.76	383.85
610.92	327.68
611.07	344.06
611.23	400.23
611.38	322.99
611.54	294.91
611.69	322.99
611.84	318.31
612.00	290.23
612.15	320.65
612.31	505.56
612.46	716.20
612.62	809.83
612.77	849.61
612.92	688.12
613.08	655.35
613.23	585.13
613.39	526.62
613.54	1076.65
613.69	6752.45
613.85	20620.12
614.00	33216.88
614.15	35122.08
614.31	24306.46
614.46	16086.50
614.62	10572.20
614.77	6162.63
614.92	2775.88
615.08	1277.93
615.23	746.63
615.38	585.13
615.54	505.56
615.69	1210.06
615.84	3700.39
616.00	6902.24
616.15	8676.37
616.30	7328.22
616.46	4903.42
616.61	3178.45
616.76	2076.06
616.92	1132.82
617.07	629.60
617.22	444.70
617.37	332.36
617.53	297.25
617.68	358.10
617.83	283.20
617.99	313.63
618.14	369.80
618.29	269.16
618.45	229.37
618.60	311.29
618.75	327.68
618.90	245.76
619.06	294.91
619.21	318.31
619.36	320.65
619.51	196.60
619.67	266.82
619.82	222.35
619.97	227.03
620.12	198.95
620.28	217.67
620.43	234.05
620.58	250.44
620.73	285.55
620.89	362.78
621.04	526.62
621.19	1980.09
621.34	4084.23
621.49	5247.48
621.65	4528.94
621.80	3220.58
621.95	2125.21
622.10	1526.03
622.25	784.08
622.41	493.85
622.56	292.57
622.71	341.72
622.86	248.10
623.01	238.73
623.16	217.67
623.32	189.58
623.47	177.88
623.62	212.99
623.77	259.80
623.92	149.79
624.07	234.05
624.23	142.77
624.38	205.97
624.53	220.01
624.68	234.05
624.83	250.44
624.98	227.03
625.13	276.18
625.29	220.01
625.44	292.57
625.59	332.36
625.74	360.44
625.89	657.69
626.04	3243.98
626.19	9776.42
626.34	16156.72
626.49	18045.53
626.65	13102.32
626.80	8786.37
626.95	5921.56
627.10	3676.98
627.25	1778.81
627.40	844.93
627.55	491.51
627.70	318.31
627.85	341.72
628.00	276.18
628.15	241.08
628.30	245.76
628.45	196.60
628.60	308.95
628.76	301.93
628.91	220.01
629.06	243.42
629.21	198.95
629.36	238.73
629.51	234.05
629.66	287.89
629.81	486.83
629.96	1839.66
630.11	3353.99
630.26	4372.12
630.41	3927.42
630.56	2864.82
630.71	2026.90
630.86	1301.34
631.01	847.27
631.16	514.92
631.31	409.59
631.46	367.46
631.61	191.92
631.76	224.69
631.91	227.03
632.06	269.16
632.21	271.50
632.36	386.19
632.51	308.95
632.66	477.47
632.81	1516.67
632.96	5483.88
633.10	10066.64
633.25	12554.63
633.40	10052.60
633.55	6810.96
633.70	4720.86
633.85	3049.72
634.00	1565.82
634.15	807.48
634.30	561.73
634.45	332.36
634.60	337.04
634.75	299.59
634.90	306.61
635.05	220.01
635.19	332.36
635.34	198.95
635.49	257.46
635.64	266.82
635.79	262.14
635.94	220.01
636.09	287.89
636.24	311.29
636.39	299.59
636.53	266.82
636.68	245.76
636.83	264.48
636.98	346.40
637.13	362.78
637.28	369.80
637.43	500.87
637.57	812.17
637.72	4414.25
637.87	13144.45
638.02	21027.37
638.17	23061.30
638.32	16812.07
638.46	11262.66
638.61	7599.72
638.76	4807.46
638.91	2221.17
639.06	1207.72
639.20	814.51
639.35	772.38
639.50	1261.55
639.65	6792.23
639.80	20592.03
639.94	33034.32
640.09	37043.66
640.24	26600.19
640.39	17778.71
640.54	11999.93
640.68	7066.08
640.83	3389.10
640.98	1530.71
641.13	901.11
641.27	573.43
641.42	512.58
641.57	397.89
641.72	322.99
641.86	290.23
642.01	330.02
642.16	306.61
642.31	299.59
642.45	285.55
642.60	194.26
642.75	229.37
642.90	257.46
643.04	215.33
643.19	238.73
643.34	231.71
643.48	231.71
643.63	215.33
643.78	304.27
643.93	196.60
644.07	252.78
644.22	210.65
644.37	236.39
644.51	299.59
644.66	173.20
644.81	229.37
644.95	234.05
645.10	255.12
645.25	227.03
645.39	264.48
645.54	215.33
645.69	248.10
645.83	170.86
645.98	304.27
646.13	210.65
646.27	161.50
646.42	252.78
646.57	210.65
646.71	161.50
646.86	168.52
647.00	231.71
647.15	236.39
647.30	238.73
647.44	135.75
647.59	180.22
647.74	217.67
647.88	170.86
648.03	154.48
648.17	250.44
648.32	238.73
648.47	182.56
648.61	203.63
648.76	205.97
648.90	201.29
649.05	203.63
649.20	194.26
649.34	271.50
649.49	287.89
649.63	304.27
649.78	241.08
649.92	451.72
650.07	2602.68
650.21	8980.64
650.36	15384.34
650.51	18588.53
650.65	15222.84
650.80	10422.41
650.94	6944.37
651.09	4215.30
651.23	2129.89
651.38	1067.28
651.52	552.37
651.67	395.55
651.81	290.23
651.96	283.20
652.10	278.52
652.25	241.08
652.39	351.08
652.54	355.76
652.68	819.19
652.83	2509.05
652.97	4746.61
653.12	6462.22
653.26	5713.25
653.41	3911.04
653.55	2869.50
653.70	1771.79
653.84	1008.77
653.99	538.32
654.13	372.15
654.27	208.31
654.42	159.16
654.56	170.86
654.71	243.42
654.85	131.07
655.00	196.60
655.14	133.41
655.29	210.65
655.43	142.77
655.57	166.18
655.72	152.13
655.86	145.11
656.01	168.52
656.15	222.35
656.30	156.82
656.44	138.09
656.58	114.69
656.73	142.77
656.87	128.73
657.01	159.16
657.16	280.86
657.30	255.12
657.45	276.18
657.59	180.22
657.73	128.73
657.88	180.22
658.02	255.12
658.16	191.92
658.31	198.95
658.45	191.92
658.60	149.79
658.74	215.33
658.88	276.18
659.03	262.14
659.17	257.46
659.31	1088.35
659.46	3763.58
659.60	7014.59
659.74	9137.45
659.89	7871.22
660.03	5764.74
660.17	3779.97
660.32	2352.24
660.46	1336.45
660.60	730.25
660.74	418.96
660.89	322.99
661.03	217.67
661.17	187.24
661.32	201.29
661.46	220.01
661.60	194.26
661.74	194.26
661.89	250.44
662.03	154.48
662.17	173.20
662.31	138.09
662.46	142.77
662.60	184.90
662.74	163.84
662.88	152.13
663.03	152.13
663.17	145.11
663.31	201.29
663.45	173.20
663.60	217.67
663.74	208.31
663.88	224.69
664.02	198.95
664.17	170.86
664.31	177.88
664.45	205.97
664.59	168.52
664.73	262.14
664.88	220.01
665.02	173.20
665.16	191.92
665.30	243.42
665.44	173.20
665.59	163.84
665.73	121.71
665.87	205.97
666.01	173.20
666.15	189.58
666.29	212.99
666.44	234.05
666.58	308.95
666.72	212.99
666.86	210.65
667.00	301.93
667.14	505.56
667.28	2340.54
667.43	7454.61
667.57	12594.42
667.71	15646.48
667.85	13563.40
667.99	9877.06
668.13	6171.99
668.27	3599.74
668.41	1947.33
668.56	1086.01
668.70	748.97
668.84	390.87
668.98	334.70
669.12	220.01
669.26	264.48
669.40	304.27
669.54	259.80
669.68	135.75
669.82	259.80
669.96	156.82
670.10	175.54
670.25	175.54
670.39	241.08
670.53	198.95
670.67	210.65
670.81	196.60
670.95	283.20
671.09	596.84
671.23	2562.89
671.37	6094.76
671.51	9069.58
671.65	9856.00
671.79	7730.79
671.93	5235.78
672.07	3070.78
672.21	1741.36
672.35	1055.58
672.49	592.16
672.63	346.40
672.77	351.08
672.91	217.67
673.05	220.01
673.19	255.12
673.33	236.39
673.47	266.82
673.61	264.48
673.75	187.24
673.89	173.20
674.03	124.05
674.17	102.98
674.31	201.29
674.45	140.43
674.59	159.16
674.73	126.39
674.87	170.86
675.01	292.57
675.15	241.08
675.29	325.33
675.43	149.79
675.56	173.20
675.70	257.46
675.84	152.13
675.98	184.90
676.12	156.82
676.26	152.13
676.40	173.20
676.54	234.05
676.68	170.86
676.82	98.30
676.96	105.32
677.10	133.41
677.23	67.88
677.37	124.05
677.51	88.94
677.65	154.48
677.79	133.41
677.93	107.66
678.07	79.58
678.21	161.50
678.34	119.37
678.48	198.95
678.62	175.54
678.76	159.16
678.90	79.58
679.04	131.07
679.18	133.41
679.31	138.09
679.45	107.66
679.59	142.77
679.73	128.73
679.87	107.66
680.00	177.88
680.14	189.58
680.28	131.07
680.42	126.39
680.56	203.63
680.70	152.13
680.83	149.79
680.97	173.20
681.11	117.03
681.25	177.88
681.39	128.73
681.52	147.45
681.66	149.79
681.80	177.88
681.94	145.11
682.07	95.96
682.21	46.81
682.35	173.20
682.49	166.18
682.62	140.43
682.76	147.45
682.90	114.69
683.04	107.66
683.17	147.45
683.31	177.88
683.45	198.95
683.59	168.52
683.72	112.35
683.86	163.84
684.00	166.18
684.13	248.10
684.27	105.32
684.41	170.86
684.55	128.73
684.68	70.22
684.82	142.77
684.96	140.43
685.09	86.60
685.23	88.94
685.37	67.88
685.50	156.82
685.64	142.77
685.78	142.77
685.91	138.09
686.05	168.52
686.19	208.31
686.32	203.63
686.46	161.50
686.60	156.82
686.73	306.61
686.87	166.18
687.01	222.35
687.14	147.45
687.28	126.39
687.42	142.77
687.55	135.75
687.69	168.52
687.82	53.83
687.96	140.43
688.10	191.92
688.23	131.07
688.37	145.11
688.50	154.48
688.64	138.09
688.78	105.32
688.91	140.43
689.05	88.94
689.18	100.64
689.32	140.43
689.46	142.77
689.59	100.64
689.73	159.16
689.86	173.20
690.00	140.43
690.13	126.39
690.27	198.95
690.41	44.47
690.54	170.86
690.68	149.79
690.81	189.58
690.95	198.95
691.08	91.28
691.22	177.88
691.35	23.41
691.49	147.45
691.62	161.50
691.76	220.01
691.89	121.71
692.03	182.56
692.16	166.18
692.30	238.73
692.43	943.24
692.57	3023.97
692.70	5348.12
692.84	6965.43
692.97	6394.34
693.11	4676.39
693.24	3433.57
693.38	2251.60
693.51	1458.15
693.65	905.79
693.78	545.34
693.92	390.87
694.05	294.91
694.19	259.80
694.32	168.52
694.45	117.03
694.59	142.77
694.72	86.60
694.86	217.67
694.99	126.39
695.13	203.63
695.26	184.90
695.39	117.03
695.53	100.64
695.66	110.01
695.80	154.48
695.93	159.16
696.07	201.29
696.20	259.80
696.33	365.12
696.47	414.27
696.60	447.04
696.73	330.02
696.87	241.08
697.00	299.59
697.14	222.35
697.27	84.26
697.40	238.73
697.54	175.54
697.67	72.56
697.80	175.54
697.94	95.96
698.07	124.05
698.21	133.41
698.34	138.09
698.47	147.45
698.61	145.11
698.74	145.11
698.87	91.28
699.01	112.35
699.14	117.03
699.27	147.45
699.40	262.14
699.54	72.56
699.67	224.69
699.80	124.05
699.94	168.52
700.07	203.63
700.20	88.94
700.34	142.77
700.47	187.24
700.60	100.64
700.73	161.50
700.87	184.90
701.00	198.95
701.13	166.18
701.26	152.13
701.40	145.11
701.53	184.90
701.66	91.28
701.79	154.48
701.93	205.97
702.06	327.68
702.19	430.66
702.32	521.94
702.46	552.37
702.59	496.19
702.72	1160.91
702.85	4042.11
702.99	8592.11
703.12	12152.06
703.25	13785.76
703.38	11611.40
703.51	8999.36
703.65	7171.40
703.78	4968.96
703.91	3232.28
704.04	2122.87
704.17	1170.27
704.31	760.67
704.44	498.53
704.57	383.85
704.70	276.18
704.83	271.50
704.96	175.54
705.10	182.56
705.23	163.84
>>>>>End Processed Spectral Data<<<<<
