SpectraSuite Data File
++++++++++++++++++++++++++++++++++++
Date: Fri Oct 04 11:39:53 GMT-05:00 2013
User: price-jones
Dark Spectrum Present: No
Reference Spectrum Present: No
Number of Sampled Component Spectra: 1
Spectrometers: USB2+H05261
Integration Time (usec): 100000 (USB2+H05261)
Spectra Averaged: 1 (USB2+H05261)
Boxcar Smoothing: 0 (USB2+H05261)
Correct for Electrical Dark: No (USB2+H05261)
Strobe/Lamp Enabled: No (USB2+H05261)
Correct for Detector Non-linearity: No (USB2+H05261)
Correct for Stray Light: No (USB2+H05261)
Number of Pixels in Processed Spectrum: 2048
>>>>>Begin Processed Spectral Data<<<<<
365.73	105.32
365.92	105.32
366.12	105.32
366.32	4.68
366.52	0.00
366.72	0.00
366.91	0.00
367.11	0.00
367.31	0.00
367.51	0.00
367.70	56.17
367.90	0.00
368.10	0.00
368.30	0.00
368.49	0.00
368.69	0.00
368.89	0.00
369.09	0.00
369.28	0.00
369.48	0.00
369.68	0.00
369.87	0.00
370.07	30.43
370.27	46.81
370.47	9.36
370.66	135.75
370.86	135.75
371.06	156.82
371.25	124.05
371.45	140.43
371.65	170.86
371.84	201.29
372.04	102.98
372.24	182.56
372.44	194.26
372.63	222.35
372.83	229.37
373.03	180.22
373.22	180.22
373.42	259.80
373.62	198.95
373.81	234.05
374.01	241.08
374.21	189.58
374.40	257.46
374.60	257.46
374.79	255.12
374.99	215.33
375.19	292.57
375.38	220.01
375.58	271.50
375.78	194.26
375.97	271.50
376.17	222.35
376.37	210.65
376.56	173.20
376.76	210.65
376.95	234.05
377.15	241.08
377.35	304.27
377.54	292.57
377.74	259.80
377.93	259.80
378.13	252.78
378.33	205.97
378.52	220.01
378.72	236.39
378.91	191.92
379.11	187.24
379.31	266.82
379.50	231.71
379.70	191.92
379.89	250.44
380.09	255.12
380.28	241.08
380.48	248.10
380.68	217.67
380.87	238.73
381.07	194.26
381.26	241.08
381.46	212.99
381.65	252.78
381.85	177.88
382.04	283.20
382.24	280.86
382.43	236.39
382.63	280.86
382.83	285.55
383.02	308.95
383.22	292.57
383.41	294.91
383.61	264.48
383.80	318.31
384.00	259.80
384.19	252.78
384.39	294.91
384.58	299.59
384.78	287.89
384.97	367.46
385.17	290.23
385.36	306.61
385.56	322.99
385.75	262.14
385.95	245.76
386.14	208.31
386.34	325.33
386.53	285.55
386.72	273.84
386.92	280.86
387.11	376.83
387.31	320.65
387.50	294.91
387.70	262.14
387.89	337.04
388.09	294.91
388.28	248.10
388.48	322.99
388.67	318.31
388.86	390.87
389.06	292.57
389.25	264.48
389.45	360.44
389.64	320.65
389.84	372.15
390.03	379.17
390.22	337.04
390.42	304.27
390.61	330.02
390.81	346.40
391.00	358.10
391.19	355.76
391.39	376.83
391.58	390.87
391.78	355.76
391.97	327.68
392.16	393.21
392.36	430.66
392.55	327.68
392.75	442.36
392.94	292.57
393.13	386.19
393.33	337.04
393.52	409.59
393.71	475.13
393.91	425.98
394.10	421.30
394.29	475.13
394.49	390.87
394.68	388.53
394.88	463.43
395.07	372.15
395.26	524.28
395.46	421.30
395.65	472.79
395.84	334.70
396.04	442.36
396.23	468.11
396.42	479.81
396.62	449.38
396.81	442.36
397.00	381.51
397.19	500.87
397.39	414.27
397.58	517.26
397.77	451.72
397.97	521.94
398.16	533.64
398.35	517.26
398.55	517.26
398.74	437.68
398.93	533.64
399.12	545.34
399.32	458.74
399.51	526.62
399.70	582.79
399.90	496.19
400.09	538.32
400.28	573.43
400.47	533.64
400.67	545.34
400.86	629.60
401.05	580.45
401.24	674.07
401.44	585.13
401.63	660.03
401.82	631.94
402.01	657.69
402.21	671.73
402.40	606.20
402.59	650.67
402.78	641.31
402.97	655.35
403.17	692.80
403.36	660.03
403.55	622.58
403.74	695.14
403.93	716.20
404.13	774.72
404.32	765.36
404.51	755.99
404.70	685.78
404.89	777.06
405.09	828.55
405.28	739.61
405.47	748.97
405.66	816.85
405.85	917.49
406.05	856.64
406.24	814.51
406.43	854.30
406.62	861.32
406.81	816.85
407.00	936.21
407.20	873.02
407.39	858.98
407.58	940.90
407.77	947.92
407.96	976.00
408.15	908.13
408.34	938.55
408.54	922.17
408.73	990.05
408.92	999.41
409.11	936.21
409.30	1011.11
409.49	1064.94
409.68	990.05
409.87	983.02
410.07	1018.13
410.26	1076.65
410.45	1083.67
410.64	1095.37
410.83	1153.88
411.02	1179.63
411.21	1158.57
411.40	1076.65
411.59	1165.59
411.78	1238.14
411.98	1158.57
412.17	1240.48
412.36	1203.04
412.55	1249.85
412.74	1261.55
412.93	1301.34
413.12	1289.64
413.31	1343.47
413.50	1364.53
413.69	1355.17
413.88	1345.81
414.07	1385.60
414.26	1420.71
414.45	1357.51
414.64	1444.11
414.83	1526.03
415.02	1453.47
415.22	1570.50
415.41	1607.95
415.60	1542.41
415.79	1582.20
415.98	1565.82
416.17	1607.95
416.36	1675.82
416.55	1537.73
416.74	1572.84
416.93	1675.82
417.12	1645.40
417.31	1732.00
417.50	1629.01
417.69	1797.53
417.88	1748.38
418.07	1724.97
418.26	1834.98
418.45	1804.55
418.64	1844.34
418.83	1886.47
419.02	1905.20
419.21	1856.04
419.39	1867.75
419.58	1797.53
419.77	1753.06
419.96	1881.79
420.15	1884.13
420.34	1764.76
420.53	1984.77
420.72	1977.75
420.91	2001.16
421.10	2003.50
421.29	2026.90
421.48	1898.17
421.67	2073.71
421.86	2024.56
422.05	2092.44
422.24	1966.05
422.43	1984.77
422.61	2026.90
422.80	2064.35
422.99	2078.40
423.18	2010.52
423.37	2069.03
423.56	2045.63
423.75	2127.55
423.94	2005.84
424.13	1937.96
424.32	2012.86
424.50	2052.65
424.69	2183.72
424.88	2167.34
425.07	2169.68
425.26	2003.50
425.45	2108.82
425.64	2155.63
425.83	2087.76
426.01	2228.19
426.20	2094.78
426.39	2099.46
426.58	2148.61
426.77	2237.55
426.96	2167.34
427.15	2207.13
427.33	2108.82
427.52	2209.47
427.71	2162.66
427.90	2221.17
428.09	2188.40
428.28	2277.34
428.46	2326.49
428.65	2324.15
428.84	2392.03
429.03	2354.58
429.22	2291.38
429.40	2340.54
429.59	2333.51
429.78	2335.85
429.97	2282.02
430.16	2282.02
430.34	2431.82
430.53	2361.60
430.72	2448.20
430.91	2373.30
431.10	2354.58
431.28	2410.75
431.47	2560.55
431.66	2518.42
431.85	2462.24
432.03	2485.65
432.22	2658.85
432.41	2574.59
432.60	2656.51
432.79	2609.70
432.97	2530.12
433.16	2588.63
433.35	2532.46
433.54	2588.63
433.72	2541.82
433.91	2635.44
434.10	2640.12
434.28	2647.15
434.47	2677.57
434.66	2605.02
434.85	2754.81
435.03	2738.43
435.22	2937.37
435.41	3215.90
435.59	3016.95
435.78	2918.65
435.97	2937.37
436.16	2883.54
436.34	2843.75
436.53	2904.60
436.72	2942.05
436.90	2808.64
437.09	2820.35
437.28	2909.29
437.46	2902.26
437.65	2897.58
437.84	2881.20
438.02	2899.92
438.21	2986.52
438.40	2916.31
438.58	3000.57
438.77	3023.97
438.96	2993.55
439.14	3094.19
439.33	3040.36
439.52	3143.34
439.70	3197.17
439.89	3103.55
440.08	3190.15
440.26	3272.07
440.45	3185.47
440.63	3171.43
440.82	3300.16
441.01	3269.73
441.19	3239.30
441.38	3293.13
441.57	3358.67
441.75	3398.46
441.94	3248.66
442.12	3508.46
442.31	3386.76
442.50	3665.28
442.68	3393.78
442.87	3506.12
443.05	3562.30
443.24	3552.93
443.43	3585.70
443.61	3639.53
443.80	3836.14
443.98	3517.83
444.17	3564.64
444.35	3555.27
444.54	3674.64
444.73	3775.28
444.91	3658.26
445.10	3496.76
445.28	3592.72
445.47	3524.85
445.65	3543.57
445.84	3534.21
446.02	3702.73
446.21	3716.77
446.39	3756.56
446.58	3641.87
446.77	3740.18
446.95	3548.25
447.14	3684.00
447.32	3798.69
447.51	3662.94
447.69	3679.32
447.88	3728.47
448.06	3674.64
448.25	3768.26
448.43	3730.81
448.62	3646.55
448.80	3667.62
448.99	3854.86
449.17	3765.92
449.36	3791.67
449.54	3824.44
449.73	3754.22
449.91	3901.67
450.10	3831.46
450.28	4004.66
450.46	3974.23
450.65	3955.51
450.83	4088.92
451.02	3920.40
451.20	4011.68
451.39	3964.87
451.57	4042.11
451.76	3981.25
451.94	3948.48
452.13	3976.57
452.31	4021.04
452.49	3985.93
452.68	4149.77
452.86	4039.76
453.05	4219.99
453.23	4030.40
453.42	4184.88
453.60	4067.85
453.78	4138.07
453.97	4182.54
454.15	4135.73
454.34	4238.71
454.52	4201.26
454.70	4301.90
454.89	4313.61
455.07	4109.98
455.26	4173.18
455.44	4381.48
455.62	4091.26
455.81	4203.60
455.99	4386.16
456.17	4348.72
456.36	4376.80
456.54	4447.02
456.73	4564.04
456.91	4393.19
457.09	4468.08
457.28	4559.36
457.46	4573.41
457.64	4496.17
457.83	4498.51
458.01	4498.51
458.19	4624.90
458.38	4566.39
458.56	4592.13
458.74	4571.07
458.93	4613.20
459.11	4770.01
459.29	4676.39
459.48	4650.64
459.66	4716.18
459.84	4697.46
460.03	4809.80
460.21	4802.78
460.39	4730.22
460.57	4753.63
460.76	4940.87
460.94	4894.06
461.12	4786.40
461.31	5025.13
461.49	4844.91
461.67	4788.74
461.85	5039.17
462.04	4842.57
462.22	5432.38
462.40	5071.94
462.59	4992.36
462.77	4966.62
462.95	4983.00
463.13	5036.83
463.32	5041.51
463.50	4954.91
463.68	5149.18
463.86	5029.81
464.05	5050.88
464.23	5135.14
464.41	5025.13
464.59	5146.84
464.78	5160.88
464.96	5116.41
465.14	5076.62
465.32	5261.52
465.50	5270.89
465.69	5404.30
465.87	5188.97
466.05	5102.37
466.23	5186.63
466.41	5249.82
466.60	5453.45
466.78	5273.23
466.96	5320.04
467.14	5228.76
467.32	5287.27
467.51	5493.24
467.69	5343.44
467.87	5530.69
468.05	5437.06
468.23	5301.31
468.41	5273.23
468.60	5352.81
468.78	5521.32
468.96	5650.05
469.14	5483.88
469.32	5563.45
469.50	5376.21
469.69	5619.63
469.87	5589.20
470.05	5605.58
470.23	5652.39
470.41	5734.31
470.59	5727.29
470.77	5790.49
470.95	5865.38
471.14	5790.49
471.32	5701.54
471.50	5811.55
471.68	5870.06
471.86	5802.19
472.04	5806.87
472.22	5921.56
472.40	5851.34
472.58	5994.11
472.77	5949.64
472.95	6073.69
473.13	6380.30
473.31	6038.58
473.49	6057.31
473.67	6160.29
473.85	6085.39
474.03	6230.51
474.21	6164.97
474.39	6181.35
474.57	6370.94
474.75	6417.75
474.93	6485.62
475.12	6546.48
475.30	6612.01
475.48	6583.93
475.66	6583.93
475.84	6396.68
476.02	6609.67
476.20	6761.81
476.38	6806.28
476.56	6806.28
476.74	6883.52
476.92	6724.36
477.10	6799.26
477.28	6963.09
477.46	6923.30
477.64	6979.48
477.82	7258.00
478.00	7393.75
478.18	7309.49
478.36	7211.19
478.54	7091.82
478.72	7304.81
478.90	7616.10
479.08	7445.24
479.26	7702.70
479.44	7599.72
479.62	7648.87
479.80	7681.64
479.98	7836.11
480.16	8006.97
480.34	7960.16
480.52	8021.02
480.70	8081.87
480.88	7988.25
481.06	8004.63
481.24	7971.86
481.41	8081.87
481.59	8266.77
481.77	8332.31
481.95	8311.24
482.13	8428.27
482.31	8308.90
482.49	8716.16
482.67	8533.59
482.85	8713.81
483.03	8683.39
483.21	8894.04
483.39	8985.32
483.57	9100.00
483.74	8912.76
483.92	9259.16
484.10	9083.62
484.28	9088.30
484.46	9427.68
484.64	9504.92
484.82	9582.15
485.00	9514.28
485.18	9535.34
485.35	9729.61
485.53	9708.54
485.71	9769.40
485.89	10143.88
486.07	9919.19
486.25	10092.39
486.43	10274.95
486.61	10171.97
486.78	10293.68
486.96	10204.74
487.14	10443.47
487.32	10422.41
487.50	10511.35
487.68	10567.52
487.85	10647.10
488.03	11201.80
488.21	11108.18
488.39	10998.18
488.57	11026.26
488.75	11222.87
488.92	11447.56
489.10	11414.79
489.28	11447.56
489.46	11733.11
489.64	11573.95
489.81	11847.79
489.99	11737.79
490.17	11950.78
490.35	12072.48
490.53	11936.73
490.70	11894.60
490.88	11976.52
491.06	12093.55
491.24	12149.72
491.41	12313.56
491.59	12290.15
491.77	12381.43
491.95	12769.96
492.13	12507.82
492.30	12559.31
492.48	12549.95
492.66	12788.69
492.84	12898.69
493.01	12901.03
493.19	13273.18
493.37	13214.66
493.54	13334.03
493.72	13455.74
493.90	13315.31
494.08	13523.62
494.25	13699.16
494.43	13460.42
494.61	13710.86
494.79	13797.46
494.96	13661.71
495.14	13930.87
495.32	14157.90
495.49	14174.28
495.67	14352.16
495.85	14295.99
496.02	14363.87
496.20	14483.24
496.38	14092.37
496.55	14462.17
496.73	14808.57
496.91	14621.33
497.09	14862.40
497.26	14904.53
497.44	14721.97
497.62	14984.11
497.79	15112.84
497.97	15115.18
498.14	15447.54
498.32	15419.45
498.50	15297.74
498.67	15272.00
498.85	15389.02
499.03	15602.01
499.20	15627.76
499.38	15690.95
499.56	15758.83
499.73	15800.96
499.91	15747.12
500.08	16166.08
500.26	15978.84
500.44	16126.29
500.61	15953.09
500.79	16222.25
500.97	16224.59
501.14	16301.83
501.32	16402.47
501.49	16308.85
501.67	16524.18
501.84	16566.31
502.02	16594.40
502.20	16676.32
502.37	16713.77
502.55	16676.32
502.72	16830.79
502.90	16748.87
503.07	16936.12
503.25	17142.08
503.43	16940.80
503.60	17165.49
503.78	17179.53
503.95	17212.30
504.13	17144.42
504.30	17301.24
504.48	17291.88
504.65	17371.46
504.83	17689.77
505.01	17757.64
505.18	17535.29
505.36	17825.52
505.53	17415.93
505.71	17657.00
505.88	18001.06
506.06	17853.61
506.23	18061.91
506.41	18033.83
506.58	18258.52
506.76	18232.77
506.93	18118.09
507.11	18003.40
507.28	18080.64
507.46	18216.39
507.63	18572.15
507.81	18345.12
507.98	18457.46
508.16	18520.66
508.33	18462.15
508.50	18614.28
508.68	18787.48
508.85	18899.83
509.03	18965.36
509.20	19014.51
509.38	18984.09
509.55	19515.39
509.73	19349.21
509.90	19077.71
510.08	18993.45
510.25	19161.97
510.42	18986.43
510.60	19597.31
510.77	19590.28
510.95	19559.86
511.12	19693.27
511.30	19611.35
511.47	19456.87
511.64	19489.64
511.82	19730.72
511.99	19648.80
512.17	19868.81
512.34	19864.13
512.51	20128.61
512.69	19814.98
512.86	19946.05
513.04	20250.32
513.21	20297.13
513.38	20320.53
513.56	20329.89
513.73	20308.83
513.90	20365.00
514.08	20247.97
514.25	20716.08
514.43	20561.61
514.60	21130.36
514.77	20978.22
514.95	21132.70
515.12	20664.59
515.29	20765.23
515.47	20664.59
515.64	20896.30
515.81	21275.47
515.99	21263.77
516.16	21296.53
516.33	21259.09
516.51	21371.43
516.68	21436.97
516.85	21142.06
517.03	21371.43
517.20	21455.69
517.37	21460.37
517.54	21961.25
517.72	21364.41
517.89	21619.53
518.06	21928.48
518.24	21816.13
518.41	21689.74
518.58	21687.40
518.75	21589.10
518.93	21879.33
519.10	21975.29
519.27	21968.27
519.45	22089.98
519.62	22024.44
519.79	22253.81
519.96	22218.71
520.14	22363.82
520.31	22302.96
520.48	22361.48
520.65	22525.32
520.83	22693.83
521.00	22288.92
521.17	22452.76
521.34	22625.96
521.52	22370.84
521.69	22906.82
521.86	22637.66
522.03	22852.99
522.20	22658.73
522.38	23030.87
522.55	22700.86
522.72	22995.76
522.89	23161.94
523.07	23290.67
523.24	23157.26
523.41	23318.76
523.58	23042.57
523.75	23585.58
523.92	23012.15
524.10	23489.62
524.27	23714.31
524.44	23328.12
524.61	23901.55
524.78	23854.74
524.96	23592.60
525.13	23747.08
525.30	23484.94
525.47	23922.62
525.64	23751.76
525.81	23658.14
525.98	24229.23
526.16	23880.49
526.33	23873.46
526.50	23852.40
526.67	23803.25
526.84	23974.11
527.01	23896.87
527.18	24140.29
527.36	24283.06
527.53	24091.13
527.70	24580.31
527.87	24430.51
528.04	24261.99
528.21	24467.96
528.38	24496.05
528.55	24606.05
528.72	24959.47
528.89	24592.01
529.07	24563.92
529.24	24460.94
529.41	24732.44
529.58	24535.84
529.75	24549.88
529.92	24943.09
530.09	24884.58
530.26	24734.78
530.43	25212.25
530.60	24641.16
530.77	24699.67
530.94	24872.87
531.11	25039.05
531.28	24781.59
531.46	25137.35
531.63	25340.98
531.80	25338.64
531.97	25530.56
532.14	25507.16
532.31	25502.48
532.48	25509.50
532.65	25776.32
532.82	25184.16
532.99	25645.25
533.16	25247.36
533.33	25867.60
533.50	26038.46
533.67	25720.15
533.84	25647.59
534.01	25631.21
534.18	25523.54
534.35	25937.82
534.52	26047.82
534.69	25720.15
534.86	26148.46
535.03	25867.60
535.20	25935.48
535.37	26387.20
535.54	26340.39
535.71	26038.46
535.88	26593.17
536.05	26228.04
536.22	26024.42
536.38	26071.23
536.55	26150.81
536.72	26499.55
536.89	26312.30
537.06	26534.65
537.23	26522.95
537.40	26300.60
537.57	26295.92
537.74	26443.37
537.91	26445.71
538.08	26473.80
538.25	26443.37
538.42	26647.00
538.59	26567.42
538.75	26661.04
538.92	26869.35
539.09	26829.56
539.26	26934.88
539.43	26972.33
539.60	27047.23
539.77	26740.62
539.94	27330.44
540.11	26911.48
540.28	26960.63
540.44	27342.14
540.61	27201.71
540.78	27157.24
540.95	27552.79
541.12	27800.88
541.29	27623.00
541.46	27433.42
541.62	27370.22
541.79	27550.45
541.96	27538.74
542.13	27337.46
542.30	27707.26
542.47	27943.66
542.63	28105.15
542.80	27796.20
542.97	27990.47
543.14	28374.31
543.31	28151.96
543.48	28217.50
543.64	28418.78
543.81	28470.28
543.98	28549.85
544.15	28364.95
544.32	28238.56
544.48	28655.18
544.65	28568.58
544.82	28552.20
544.99	28095.79
545.16	28166.01
545.32	28479.64
545.49	28868.17
545.66	29326.91
545.83	29696.72
546.00	29645.23
546.16	28739.44
546.33	28297.08
546.50	28491.34
546.67	28496.02
546.83	27946.00
547.00	28765.18
547.17	28559.22
547.34	28446.87
547.50	28875.19
547.67	28898.59
547.84	28776.89
548.00	28765.18
548.17	29240.31
548.34	28701.99
548.51	28819.02
548.67	28697.31
548.84	29263.72
549.01	28882.21
549.18	28716.03
549.34	28774.55
549.51	28868.17
549.68	28472.62
549.84	28814.34
550.01	28994.56
550.18	29127.97
550.34	29404.15
550.51	29036.69
550.68	28975.83
550.84	28905.62
551.01	29282.44
551.18	28917.32
551.34	28903.28
551.51	29062.43
551.68	28800.29
551.84	29156.05
552.01	29137.33
552.18	29113.92
552.34	29053.07
552.51	29029.66
552.68	28694.97
552.84	29404.15
553.01	29259.04
553.18	29355.00
553.34	29699.06
553.51	29387.77
553.67	29401.81
553.84	29415.85
554.01	29268.40
554.17	29177.12
554.34	29237.97
554.51	29380.74
554.67	29446.28
554.84	29614.80
555.00	29294.14
555.17	29528.20
555.33	29633.52
555.50	29591.39
555.67	29591.39
555.83	29507.13
556.00	29736.51
556.16	29804.38
556.33	29624.16
556.50	29652.25
556.66	30169.51
556.83	29694.38
556.99	29846.51
557.16	29722.46
557.32	29827.79
557.49	29785.66
557.65	29544.58
557.82	29233.29
557.98	29448.62
558.15	29303.51
558.32	29549.26
558.48	29422.87
558.65	29811.40
558.81	30153.12
558.98	30000.99
559.14	29998.65
559.31	29797.36
559.47	29797.36
559.64	29996.31
559.80	30375.47
559.97	30216.32
560.13	29626.50
560.30	29984.60
560.46	30005.67
560.63	29635.86
560.79	30221.00
560.96	30141.42
561.12	30487.82
561.29	29970.56
561.45	30024.39
561.61	30300.58
561.78	29998.65
561.94	30352.07
562.11	30543.99
562.27	30246.74
562.44	30078.22
562.60	30103.97
562.77	30162.48
562.93	30305.26
563.10	30302.92
563.26	30572.08
563.42	30546.33
563.59	30569.74
563.75	30279.51
563.92	30438.67
564.08	30366.11
564.24	30146.10
564.41	30382.49
564.57	30522.93
564.74	30347.39
564.90	30539.31
565.07	30305.26
565.23	30583.78
565.39	30265.47
565.56	30792.09
565.72	30164.82
565.88	30551.01
566.05	30368.45
566.21	30455.05
566.38	30286.53
566.54	30780.39
566.70	30551.01
566.87	30728.89
567.03	30572.08
567.19	30972.31
567.36	30338.02
567.52	30223.34
567.68	30256.11
567.85	30410.58
568.01	30541.65
568.17	30572.08
568.34	30532.29
568.50	30679.74
568.66	30057.16
568.83	30717.19
568.99	30441.01
569.15	30635.27
569.32	30632.93
569.48	30331.00
569.64	30419.94
569.81	30742.94
569.97	30768.68
570.13	31096.36
570.30	30527.61
570.46	30827.20
570.62	30459.73
570.78	30452.71
570.95	30338.02
571.11	30490.16
571.27	30834.22
571.43	30511.22
571.60	30883.37
571.76	30670.38
571.92	30808.47
572.09	30993.37
572.25	31040.18
572.41	30698.47
572.57	30864.64
572.74	30864.64
572.90	30520.59
573.06	30691.44
573.22	30661.02
573.38	30480.80
573.55	30710.17
573.71	30944.22
573.87	30778.04
574.03	30651.66
574.20	30600.16
574.36	30771.02
574.52	31044.87
574.68	30712.51
574.84	30778.04
575.01	30998.06
575.17	31124.44
575.33	30520.59
575.49	31007.42
575.65	30979.33
575.82	30888.05
575.98	30951.24
576.14	31145.51
576.30	30951.24
576.46	30644.63
576.62	31002.74
576.79	31082.31
576.95	30806.13
577.11	31150.19
577.27	31234.45
577.43	31281.26
577.59	30998.06
577.75	30944.22
577.92	31019.12
578.08	30850.60
578.24	30913.80
578.40	30934.86
578.56	31159.55
578.72	31213.38
578.88	31391.26
579.04	31309.35
579.21	31342.11
579.37	30813.15
579.53	31213.38
579.69	31133.81
579.85	30377.81
580.01	30911.46
580.17	30670.38
580.33	31115.08
580.49	30923.16
580.65	31285.94
580.82	31112.74
580.98	31325.73
581.14	31395.95
581.30	31353.82
581.46	31112.74
581.62	30679.74
581.78	31023.80
581.94	30902.09
582.10	31112.74
582.26	30778.04
582.42	31197.00
582.58	30864.64
582.74	31021.46
582.90	31622.98
583.06	31248.49
583.22	31208.70
583.38	31171.25
583.54	31431.05
583.70	31236.79
583.86	31428.71
584.02	31206.36
584.18	31440.42
584.34	31477.86
584.50	31543.40
584.66	31229.77
584.82	30871.67
584.98	31140.83
585.14	31094.02
585.30	30857.62
585.46	30984.01
585.62	31002.74
585.78	31503.61
585.94	31026.14
586.10	31253.17
586.26	30962.95
586.42	31653.40
586.58	31501.27
586.74	31021.46
586.90	31222.75
587.06	31103.38
587.22	31316.37
587.38	31419.35
587.54	31459.14
587.70	31697.88
587.86	31091.68
588.02	31201.68
588.18	31466.16
588.34	31307.01
588.49	31468.50
588.65	30960.61
588.81	30881.03
588.97	31679.15
589.13	31351.48
589.29	31304.67
589.45	31630.00
589.61	31330.41
589.77	31995.12
589.93	31662.77
590.08	31658.09
590.24	31393.61
590.40	31576.17
590.56	31557.44
590.72	31625.32
590.88	30759.32
591.04	31367.86
591.20	31683.83
591.35	31325.73
591.51	31463.82
591.67	31651.06
591.83	31555.10
591.99	31613.62
592.15	31756.39
592.31	31583.19
592.46	31669.79
592.62	31721.28
592.78	31182.96
592.94	31562.12
593.10	31861.71
593.26	31772.77
593.41	31880.44
593.57	31999.80
593.73	31519.99
593.89	31784.48
594.05	31622.98
594.20	31353.82
594.36	32135.56
594.52	31173.60
594.68	31431.05
594.84	31431.05
594.99	31276.58
595.15	31545.74
595.31	31927.25
595.47	31875.76
595.62	31676.81
595.78	31304.67
595.94	31349.14
596.10	31494.25
596.25	31639.36
596.41	31517.65
596.57	31421.69
596.73	31573.83
596.88	31573.83
597.04	32039.59
597.20	31707.24
597.36	31704.90
597.51	31674.47
597.67	31707.24
597.83	31674.47
597.99	32079.38
598.14	31761.07
598.30	31576.17
598.46	31662.77
598.61	31976.40
598.77	31611.28
598.93	31697.88
599.09	31744.69
599.24	31789.16
599.40	31604.25
599.56	31578.51
599.71	31821.92
599.87	31494.25
600.03	31501.27
600.18	31452.12
600.34	32074.70
600.50	31480.21
600.65	31524.68
600.81	32144.92
600.97	31938.95
601.12	32084.06
601.28	31735.32
601.44	31833.63
601.59	31494.25
601.75	31407.65
601.91	31721.28
602.06	31709.58
602.22	31665.11
602.37	31892.14
602.53	31681.49
602.69	31833.63
602.84	31833.63
603.00	31374.88
603.16	32105.13
603.31	32093.43
603.47	31440.42
603.62	31817.24
603.78	31885.12
603.94	31463.82
604.09	31751.71
604.25	31519.99
604.40	31737.66
604.56	31749.37
604.71	32027.89
604.87	31512.97
605.03	31379.56
605.18	31543.40
605.34	31571.49
605.49	31023.80
605.65	31672.13
605.80	31597.23
605.96	31548.08
606.12	31222.75
606.27	31515.31
606.43	31667.45
606.58	32107.47
606.74	31672.13
606.89	31583.19
607.05	31550.42
607.20	31807.88
607.36	31505.95
607.51	31463.82
607.67	31599.57
607.82	31442.76
607.98	31309.35
608.13	31679.15
608.29	31658.09
608.44	31470.84
608.60	31391.26
608.75	31761.07
608.91	31885.12
609.06	31433.39
609.22	31620.64
609.37	31438.08
609.53	31260.20
609.68	31805.54
609.84	31414.67
609.99	31299.98
610.15	31732.98
610.30	31702.56
610.46	31501.27
610.61	32039.59
610.76	32142.58
610.92	32542.81
611.07	32378.97
611.23	32734.73
611.38	32173.00
611.54	32594.30
611.69	31637.02
611.84	31772.77
612.00	31840.65
612.15	31496.59
612.31	31484.89
612.46	31655.75
612.62	31515.31
612.77	31718.94
612.92	31604.25
613.08	31182.96
613.23	31271.90
613.39	31243.81
613.54	31309.35
613.69	31049.55
613.85	30773.36
614.00	31140.83
614.15	31012.10
614.31	31431.05
614.46	31129.12
614.62	31304.67
614.77	31014.44
614.92	31292.96
615.08	30955.93
615.23	30822.51
615.38	30892.73
615.54	30897.41
615.69	30747.62
615.84	30696.13
616.00	30824.86
616.15	30445.69
616.30	30855.28
616.46	30801.45
616.61	30876.35
616.76	30836.56
616.92	30820.17
617.07	30768.68
617.22	30761.66
617.37	30874.01
617.53	31009.76
617.68	30473.78
617.83	30663.36
617.99	30820.17
618.14	30754.64
618.29	30408.24
618.45	30560.37
618.60	30529.95
618.75	30607.19
618.90	30721.87
619.06	30185.89
619.21	30766.34
619.36	30672.72
619.51	30314.62
619.67	30380.15
619.82	30106.31
619.97	30300.58
620.12	30085.25
620.28	29968.22
620.43	30492.50
620.58	30487.82
620.73	30188.23
620.89	30188.23
621.04	30686.76
621.19	30658.68
621.34	30284.19
621.49	29720.12
621.65	29813.74
621.80	30031.41
621.95	29965.88
622.10	30033.75
622.25	30195.25
622.41	30155.46
622.56	30199.93
622.71	30326.32
622.86	30448.03
623.01	30443.35
623.16	29706.08
623.32	29991.62
623.47	30188.23
623.62	30045.46
623.77	30085.25
623.92	30246.74
624.07	30094.61
624.23	29940.13
624.38	30331.00
624.53	30103.97
624.68	30071.20
624.83	30199.93
624.98	29923.75
625.13	29610.12
625.29	29970.56
625.44	29785.66
625.59	29851.19
625.74	29659.27
625.89	29539.90
626.04	29509.47
626.19	29366.70
626.34	29736.51
626.49	29560.97
626.65	29273.08
626.80	29352.66
626.95	29862.90
627.10	29621.82
627.25	29596.07
627.40	29731.83
627.55	29184.14
627.70	29434.58
627.85	29235.63
628.00	29422.87
628.15	29682.67
628.30	29401.81
628.45	29785.66
628.60	29312.87
628.76	30206.95
628.91	29486.07
629.06	29301.17
629.21	29308.19
629.36	29420.53
629.51	28987.53
629.66	29226.27
629.81	29146.69
629.96	29448.62
630.11	28971.15
630.26	29174.78
630.41	29610.12
630.56	29003.92
630.71	29289.46
630.86	29469.69
631.01	29242.65
631.16	29350.32
631.31	29055.41
631.46	29032.00
631.61	29029.66
631.76	29366.70
631.91	29186.48
632.06	28858.81
632.21	28999.24
632.36	28844.76
632.51	28849.44
632.66	28648.16
632.81	28795.61
632.96	29090.52
633.10	29050.73
633.25	29289.46
633.40	28776.89
633.55	28893.91
633.70	28699.65
633.85	28634.11
634.00	28701.99
634.15	28790.93
634.30	28439.85
634.45	28634.11
634.60	28446.87
634.75	29165.42
634.90	28404.74
635.05	28704.33
635.19	28744.12
635.34	28837.74
635.49	28774.55
635.64	28613.05
635.79	28301.76
635.94	28643.48
636.09	28388.36
636.24	28287.71
636.39	28250.27
636.53	28203.46
636.68	28491.34
636.83	28252.61
636.98	28313.46
637.13	28290.06
637.28	28435.17
637.43	28444.53
637.57	28346.23
637.72	28245.58
637.87	28135.58
638.02	28582.62
638.17	28348.57
638.32	28381.34
638.46	28240.90
638.61	28313.46
638.76	28133.24
638.91	28259.63
639.06	27992.81
639.20	28264.31
639.35	28737.10
639.50	28011.53
639.65	28268.99
639.80	28430.49
639.94	27697.90
640.09	28121.54
640.24	28322.82
640.39	28144.94
640.54	27686.20
640.68	28030.26
640.83	28037.28
640.98	27695.56
641.13	27192.34
641.27	28166.01
641.42	27737.69
641.57	28025.57
641.72	27992.81
641.86	28006.85
642.01	27899.19
642.16	27548.11
642.31	27594.92
642.45	27889.82
642.60	27978.76
642.75	27468.53
642.90	27138.51
643.04	27470.87
643.19	27917.91
643.34	27623.00
643.48	27623.00
643.63	27676.83
643.78	28016.21
643.93	28039.62
644.07	27859.40
644.22	27681.52
644.37	27599.60
644.51	28088.77
644.66	27615.98
644.81	27943.66
644.95	27592.58
645.10	27323.41
645.25	27747.05
645.39	27580.87
645.54	27545.76
645.69	27634.71
645.83	27651.09
645.98	27662.79
646.13	27777.48
646.27	27442.78
646.42	27370.22
646.57	27337.46
646.71	27108.08
646.86	27505.98
647.00	27335.12
647.15	26820.20
647.30	27136.17
647.44	27344.48
647.59	27316.39
647.74	26787.43
647.88	27723.65
648.03	27421.72
648.17	27201.71
648.32	27623.00
648.47	27253.20
648.61	27108.08
648.76	27241.50
648.90	27267.24
649.05	27243.84
649.20	27173.62
649.34	27019.14
649.49	26876.37
649.63	27253.20
649.78	27000.42
649.92	27197.02
650.07	27311.71
650.21	27119.79
650.36	27379.59
650.51	27283.62
650.65	27520.02
650.80	27087.02
650.94	27012.12
651.09	27129.15
651.23	27026.17
651.38	26939.57
651.52	26916.16
651.67	26806.16
651.81	27033.19
651.96	26897.44
652.10	26630.62
652.25	26724.24
652.39	26604.87
652.54	27002.76
652.68	27117.45
652.83	26965.31
652.97	27115.11
653.12	26998.08
653.26	26817.86
653.41	26850.63
653.55	26499.55
653.70	26419.97
653.84	26647.00
653.99	26597.85
654.13	26354.43
654.27	26560.40
654.42	26328.69
654.56	26787.43
654.71	27075.32
654.85	26644.66
655.00	26656.36
655.14	26696.15
655.29	26394.22
655.43	26721.90
655.57	26672.74
655.72	26431.67
655.86	26211.66
656.01	26272.51
656.15	26052.50
656.30	26270.17
656.44	26441.03
656.58	26370.82
656.73	26534.65
656.87	26403.58
657.01	26314.64
657.16	26707.85
657.30	26221.02
657.45	26111.02
657.59	26632.96
657.73	26249.11
657.88	26291.24
658.02	26005.69
658.16	26426.99
658.31	25872.28
658.45	25848.88
658.60	25743.55
658.74	25900.37
658.88	25766.96
659.03	25617.16
659.17	25933.14
659.31	25923.77
659.46	25577.37
659.60	25912.07
659.74	25769.30
659.89	25635.89
660.03	25558.65
660.17	25722.49
660.32	25848.88
660.46	25577.37
660.60	25584.40
660.74	25399.49
660.89	25706.10
661.03	25528.22
661.17	25577.37
661.32	25458.01
661.46	25422.90
661.60	25411.20
661.74	25685.04
661.89	25703.76
662.03	25427.58
662.17	25446.30
662.31	25212.25
662.46	25490.77
662.60	25216.93
662.74	24936.07
662.88	25392.47
663.03	25174.80
663.17	25219.27
663.31	25221.61
663.45	24922.02
663.60	25186.50
663.74	24980.54
663.88	25036.71
664.02	25081.18
664.17	24603.71
664.31	24758.19
664.45	24540.52
664.59	24781.59
664.73	24833.08
664.88	24830.74
665.02	24304.12
665.16	24261.99
665.30	24734.78
665.44	24620.10
665.59	24788.61
665.73	24751.17
665.87	24285.40
666.01	24320.51
666.15	24477.32
666.29	24322.85
666.44	24657.54
666.58	24444.56
666.72	24269.01
666.86	24451.58
667.00	24081.77
667.14	24219.86
667.28	24245.61
667.43	24369.66
667.57	24147.31
667.71	23929.64
667.85	24114.54
667.99	24144.97
668.13	23969.43
668.27	23775.16
668.41	23775.16
668.56	23882.83
668.70	23721.33
668.84	23807.93
668.98	23608.98
669.12	23789.20
669.26	23852.40
669.40	23810.27
669.54	23756.44
669.68	23594.94
669.82	23318.76
669.96	23208.75
670.10	23529.41
670.25	23435.78
670.39	23311.74
670.53	22930.23
670.67	23168.96
670.81	23178.33
670.95	23016.83
671.09	23218.11
671.23	23077.68
671.37	23047.26
671.51	23136.20
671.65	23098.75
671.79	23009.81
671.93	22979.38
672.07	23185.35
672.21	22906.82
672.35	22532.34
672.49	22508.93
672.63	22656.39
672.77	22649.36
672.91	22457.44
673.05	22551.06
673.19	22618.94
673.33	22712.56
673.47	22810.86
673.61	22572.13
673.75	22635.32
673.89	22389.56
674.03	22040.82
674.17	22267.86
674.31	22202.32
674.45	21996.35
674.59	21673.36
674.73	22097.00
674.87	21947.20
675.01	21837.20
675.15	21820.81
675.29	21893.37
675.43	21907.41
675.56	21869.97
675.70	21834.86
675.84	22125.08
675.98	21303.56
676.12	21893.37
676.26	21600.80
676.40	21727.19
676.54	21584.42
676.68	21469.73
676.82	20830.77
676.96	21123.33
677.10	21294.19
677.23	21008.65
677.37	20996.95
677.51	21088.23
677.65	20533.52
677.79	20688.00
677.93	20929.07
678.07	20772.25
678.21	20809.70
678.34	20664.59
678.48	20816.72
678.62	20554.58
678.76	20259.68
678.90	20411.81
679.04	20442.24
679.18	20322.87
679.31	19824.34
679.45	19868.81
679.59	20077.12
679.73	19763.48
679.87	19957.75
680.00	19948.39
680.14	19871.15
680.28	19630.07
680.42	19550.49
680.56	19702.63
680.70	19934.34
680.83	19667.52
680.97	19311.76
681.11	19599.65
681.25	19529.43
681.39	19393.68
681.52	18937.27
681.66	19545.81
681.80	19021.53
681.94	19051.96
682.07	19246.23
682.21	19185.37
682.35	19014.51
682.49	18993.45
682.62	18677.48
682.76	18820.25
682.90	18778.12
683.04	18984.09
683.17	18656.41
683.31	18635.35
683.45	18478.53
683.59	18448.10
683.72	18312.35
683.86	18185.96
684.00	18382.57
684.13	18223.41
684.27	18136.81
684.41	17965.95
684.55	17813.82
684.68	17984.68
684.82	18001.06
684.96	17551.68
685.09	17947.23
685.23	17713.17
685.37	17825.52
685.50	17727.22
685.64	17582.10
685.78	17554.02
685.91	17415.93
686.05	17582.10
686.19	17460.40
686.32	17418.27
686.46	17003.99
686.60	17156.13
686.73	17043.78
686.87	17296.56
687.01	16915.05
687.14	17106.98
687.28	16994.63
687.42	16901.01
687.55	16741.85
687.69	16926.75
687.82	16678.66
687.96	16830.79
688.10	16748.87
688.23	16968.88
688.37	16449.28
688.50	16449.28
688.64	16531.20
688.78	16437.58
688.91	16313.53
689.05	16341.62
689.18	16198.85
689.32	16287.79
689.46	15957.77
689.59	16065.44
689.73	15999.90
689.86	15728.40
690.00	15777.55
690.13	16088.84
690.27	15604.35
690.41	15824.36
690.54	15646.48
690.68	15543.50
690.81	15836.06
690.95	15496.69
691.08	15477.96
691.22	15520.09
691.35	15279.02
691.49	15293.06
691.62	15143.27
691.76	15211.14
691.89	14984.11
692.03	14810.91
692.16	14719.63
692.30	14658.78
692.43	14892.83
692.57	14738.35
692.70	14855.38
692.84	14846.02
692.97	14696.22
693.11	14682.18
693.24	14443.45
693.38	14544.09
693.51	14406.00
693.65	14464.51
693.78	14340.46
693.92	14246.84
694.05	14441.11
694.19	14164.92
694.32	14108.75
694.45	13989.38
694.59	13956.61
694.72	13944.91
694.86	13582.13
694.99	13638.30
695.13	13661.71
695.26	13504.89
695.39	13561.06
695.53	13579.79
695.66	13720.22
695.80	13348.08
695.93	13362.12
696.07	13345.73
696.20	13408.93
696.33	13139.77
696.47	13195.94
696.60	13242.75
696.73	13233.39
696.87	13422.97
697.00	13259.13
697.14	12784.01
697.27	12737.20
697.40	12905.71
697.54	12767.62
697.67	12655.28
697.80	12636.55
697.94	12521.87
698.07	12751.24
698.21	12430.59
698.34	12573.36
698.47	12423.56
698.61	12355.69
698.74	12278.45
698.87	12383.77
699.01	12128.66
699.14	12133.34
699.27	12243.34
699.40	11768.21
699.54	12123.98
699.67	11976.52
699.80	11936.73
699.94	11817.36
700.07	11740.13
700.20	11613.74
700.34	11681.61
700.47	11524.80
700.60	11536.50
700.73	11690.98
700.87	11707.36
701.00	11496.71
701.13	11454.58
701.26	11412.45
701.40	11503.73
701.53	11211.17
701.66	11297.77
701.79	11290.74
701.93	10934.98
702.06	11052.01
702.19	10918.60
702.32	10909.24
702.46	10923.28
702.59	10839.02
702.72	10909.24
702.85	10796.89
702.99	10492.62
703.12	10827.32
703.25	10721.99
703.38	10616.67
703.51	10544.11
703.65	10707.95
703.78	10633.05
703.91	10345.17
704.04	10314.74
704.17	10497.30
704.31	10211.76
704.44	10108.77
704.57	10274.95
704.70	10209.42
704.83	10321.76
704.96	9980.04
705.10	9998.77
705.23	9816.21
>>>>>End Processed Spectral Data<<<<<
