SpectraSuite Data File
++++++++++++++++++++++++++++++++++++
Date: Fri Oct 04 11:39:20 GMT-05:00 2013
User: price-jones
Dark Spectrum Present: No
Reference Spectrum Present: No
Number of Sampled Component Spectra: 1
Spectrometers: USB2+H05261
Integration Time (usec): 100000 (USB2+H05261)
Spectra Averaged: 1 (USB2+H05261)
Boxcar Smoothing: 0 (USB2+H05261)
Correct for Electrical Dark: No (USB2+H05261)
Strobe/Lamp Enabled: No (USB2+H05261)
Correct for Detector Non-linearity: No (USB2+H05261)
Correct for Stray Light: No (USB2+H05261)
Number of Pixels in Processed Spectrum: 2048
>>>>>Begin Processed Spectral Data<<<<<
365.73	11.70
365.92	11.70
366.12	11.70
366.32	0.00
366.52	0.00
366.72	0.00
366.91	0.00
367.11	0.00
367.31	0.00
367.51	0.00
367.70	0.00
367.90	0.00
368.10	0.00
368.30	0.00
368.49	0.00
368.69	0.00
368.89	0.00
369.09	4.68
369.28	0.00
369.48	0.00
369.68	18.72
369.87	0.00
370.07	0.00
370.27	25.75
370.47	28.09
370.66	318.31
370.86	262.14
371.06	327.68
371.25	269.16
371.45	313.63
371.65	379.17
371.84	292.57
372.04	334.70
372.24	313.63
372.44	322.99
372.63	358.10
372.83	341.72
373.03	376.83
373.22	402.57
373.42	390.87
373.62	362.78
373.81	362.78
374.01	425.98
374.21	440.02
374.40	416.62
374.60	484.49
374.79	358.10
374.99	355.76
375.19	470.45
375.38	418.96
375.58	472.79
375.78	444.70
375.97	486.83
376.17	451.72
376.37	440.02
376.56	500.87
376.76	440.02
376.95	435.34
377.15	510.24
377.35	444.70
377.54	416.62
377.74	353.42
377.93	454.06
378.13	477.47
378.33	416.62
378.52	442.36
378.72	472.79
378.91	533.64
379.11	414.27
379.31	465.77
379.50	430.66
379.70	500.87
379.89	411.93
380.09	489.17
380.28	526.62
380.48	470.45
380.68	521.94
380.87	475.13
381.07	489.17
381.26	514.92
381.46	503.22
381.65	564.07
381.85	500.87
382.04	484.49
382.24	491.51
382.43	526.62
382.63	561.73
382.83	491.51
383.02	554.71
383.22	564.07
383.41	566.41
383.61	564.07
383.80	505.56
384.00	580.45
384.19	592.16
384.39	615.56
384.58	521.94
384.78	538.32
384.97	603.86
385.17	564.07
385.36	620.24
385.56	554.71
385.75	557.05
385.95	568.75
386.14	582.79
386.34	617.90
386.53	648.33
386.72	660.03
386.92	706.84
387.11	601.52
387.31	634.29
387.50	655.35
387.70	631.94
387.89	690.46
388.09	685.78
388.28	547.69
388.48	594.50
388.67	676.41
388.86	664.71
389.06	631.94
389.25	624.92
389.45	629.60
389.64	650.67
389.84	688.12
390.03	669.39
390.22	737.27
390.42	734.93
390.61	692.80
390.81	713.86
391.00	725.57
391.19	711.52
391.39	772.38
391.58	781.74
391.78	746.63
391.97	793.44
392.16	737.27
392.36	795.78
392.55	807.48
392.75	777.06
392.94	786.42
393.13	847.27
393.33	732.59
393.52	821.53
393.71	858.98
393.91	870.68
394.10	880.04
394.29	798.12
394.49	868.34
394.68	931.53
394.88	828.55
395.07	1020.47
395.26	894.08
395.46	919.83
395.65	866.00
395.84	819.19
396.04	1015.79
396.23	1069.62
396.42	943.24
396.62	835.57
396.81	950.26
397.00	945.58
397.19	985.37
397.39	915.15
397.58	1074.31
397.77	999.41
397.97	1046.22
398.16	1022.81
398.35	990.05
398.55	1015.79
398.74	983.02
398.93	1170.27
399.12	1074.31
399.32	1053.24
399.51	1006.43
399.70	1137.50
399.90	1118.78
400.09	1062.60
400.28	1121.12
400.47	1100.05
400.67	1156.22
400.86	1196.01
401.05	1093.03
401.24	1130.48
401.44	1151.54
401.63	1146.86
401.82	1231.12
402.01	1224.10
402.21	1308.36
402.40	1313.04
402.59	1247.51
402.78	1345.81
402.97	1214.74
403.17	1254.53
403.36	1413.68
403.55	1409.00
403.74	1336.45
403.93	1343.47
404.13	1364.53
404.32	1406.66
404.51	1432.41
404.70	1416.02
404.89	1277.93
405.09	1467.52
405.28	1458.15
405.47	1519.01
405.66	1427.73
405.85	1488.58
406.05	1430.07
406.24	1565.82
406.43	1530.71
406.62	1451.13
406.81	1558.80
407.00	1488.58
407.20	1509.65
407.39	1551.78
407.58	1685.19
407.77	1603.27
407.96	1743.70
408.15	1661.78
408.34	1600.93
408.54	1624.33
408.73	1736.68
408.92	1629.01
409.11	1907.54
409.30	1823.28
409.49	1750.72
409.68	1811.57
409.87	1769.44
410.07	1809.23
410.26	1900.52
410.45	1776.47
410.64	1863.07
410.83	1933.28
411.02	1905.20
411.21	1813.92
411.40	1926.26
411.59	2001.16
411.78	2029.24
411.98	1928.60
412.17	1982.43
412.36	2024.56
412.55	2155.63
412.74	2209.47
412.93	2146.27
413.12	2143.93
413.31	2326.49
413.50	2165.00
413.69	2162.66
413.88	2363.94
414.07	2326.49
414.26	2265.64
414.45	2410.75
414.64	2417.77
414.83	2415.43
415.02	2434.16
415.22	2466.92
415.41	2516.08
415.60	2525.44
415.79	2502.03
415.98	2471.61
416.17	2605.02
416.36	2640.12
416.55	2668.21
416.74	2654.17
416.93	2644.81
417.12	2705.66
417.31	2626.08
417.50	2693.96
417.69	2890.56
417.88	2820.35
418.07	2794.60
418.26	2780.56
418.45	2904.60
418.64	3007.59
418.83	3066.10
419.02	2892.90
419.21	2923.33
419.39	3033.33
419.58	2850.77
419.77	2918.65
419.96	3019.29
420.15	3028.65
420.34	3073.12
420.53	3089.51
420.72	3089.51
420.91	3218.24
421.10	3314.20
421.29	3164.40
421.48	3126.96
421.67	3262.71
421.86	3225.26
422.05	3297.81
422.24	3253.34
422.43	3262.71
422.61	3096.53
422.80	3253.34
422.99	3344.63
423.18	3236.96
423.37	3337.60
423.56	3169.09
423.75	3346.97
423.94	3265.05
424.13	3115.25
424.32	3141.00
424.50	3314.20
424.69	3438.25
424.88	3442.93
425.07	3346.97
425.26	3363.35
425.45	3321.22
425.64	3335.26
425.83	3328.24
426.01	3473.36
426.20	3286.11
426.39	3456.97
426.58	3283.77
426.77	3372.71
426.96	3576.34
427.15	3456.97
427.33	3517.83
427.52	3566.98
427.71	3555.27
427.90	3482.72
428.09	3503.78
428.28	3559.95
428.46	3651.24
428.65	3754.22
428.84	3630.17
429.03	3751.88
429.22	3531.87
429.40	3733.15
429.59	3770.60
429.78	3501.44
429.97	3515.48
430.16	3676.98
430.34	3784.65
430.53	3796.35
430.72	3871.25
430.91	3705.07
431.10	3765.92
431.28	3838.48
431.47	3754.22
431.66	3962.53
431.85	3885.29
432.03	3875.93
432.22	4051.47
432.41	3974.23
432.60	4093.60
432.79	3913.38
432.97	4025.72
433.16	4142.75
433.35	4109.98
433.54	4109.98
433.72	4205.94
433.91	4093.60
434.10	4241.05
434.28	4119.34
434.47	4191.90
434.66	4170.83
434.85	4271.48
435.03	4315.95
435.22	4486.81
435.41	4744.27
435.59	4755.97
435.78	4552.34
435.97	4528.94
436.16	4367.44
436.34	4484.47
436.53	4334.67
436.72	4418.93
436.90	4367.44
437.09	4594.47
437.28	4437.66
437.46	4491.49
437.65	4594.47
437.84	4676.39
438.02	4554.68
438.21	4636.60
438.40	4587.45
438.58	4629.58
438.77	4716.18
438.96	4692.77
439.14	4980.66
439.33	4784.06
439.52	5020.45
439.70	4903.42
439.89	4971.30
440.08	4926.83
440.26	5062.58
440.45	5018.11
440.63	4858.95
440.82	5123.43
441.01	5226.42
441.19	5303.65
441.38	5282.59
441.57	5298.97
441.75	5228.76
441.94	5455.79
442.12	5324.72
442.31	5458.13
442.50	5465.15
442.68	5390.25
442.87	5465.15
443.05	5371.53
443.24	5586.86
443.43	5359.83
443.61	5518.98
443.80	5636.01
443.98	5497.92
444.17	5373.87
444.35	5551.75
444.54	5696.86
444.73	5673.46
444.91	5598.56
445.10	5657.07
445.28	5680.48
445.47	5476.85
445.65	5764.74
445.84	5607.92
446.02	5837.30
446.21	5577.50
446.39	5614.95
446.58	5863.04
446.77	5715.59
446.95	5650.05
447.14	5687.50
447.32	5682.82
447.51	5750.70
447.69	5823.25
447.88	5748.36
448.06	5717.93
448.25	5687.50
448.43	5846.66
448.62	5959.00
448.80	5729.63
448.99	5942.62
449.17	5839.64
449.36	5830.27
449.54	5991.77
449.73	5998.79
449.91	6005.81
450.10	6015.18
450.28	6181.35
450.46	6162.63
450.65	6169.65
450.83	5994.11
451.02	6136.88
451.20	6235.19
451.39	6174.33
451.57	6310.08
451.76	6146.25
451.94	6366.26
452.13	6403.71
452.31	6422.43
452.49	6394.34
452.68	6483.28
452.86	6176.67
453.05	6384.98
453.23	6572.22
453.42	6445.84
453.60	6399.02
453.78	6469.24
453.97	6303.06
454.15	6363.92
454.34	6324.13
454.52	6649.46
454.70	6459.88
454.89	6635.42
455.07	6616.69
455.26	6731.38
455.44	6792.23
455.62	6726.70
455.81	6796.92
455.99	6836.70
456.17	6951.39
456.36	6752.45
456.54	6799.26
456.73	6902.24
456.91	7164.38
457.09	7084.80
457.28	6977.14
457.46	6738.40
457.64	7166.72
457.83	7192.47
458.01	7155.02
458.19	7197.15
458.38	7101.19
458.56	7288.43
458.74	7045.01
458.93	7204.17
459.11	7262.68
459.29	7115.23
459.48	7372.69
459.66	7250.98
459.84	7421.84
460.03	7716.75
460.21	7344.60
460.39	7433.54
460.57	7431.20
460.76	7627.81
460.94	7468.65
461.12	7541.21
461.31	7581.00
461.49	7410.14
461.67	7716.75
461.85	7824.41
462.04	7749.51
462.22	8231.66
462.40	7845.48
462.59	7859.52
462.77	7801.01
462.95	7915.69
463.13	7836.11
463.32	7887.61
463.50	7922.71
463.68	7843.14
463.86	7995.27
464.05	7840.79
464.23	7943.78
464.41	7985.91
464.59	7808.03
464.78	8081.87
464.96	8072.51
465.14	7927.39
465.32	8229.32
465.50	8133.36
465.69	8294.86
465.87	8138.04
466.05	8037.40
466.23	8159.11
466.41	8533.59
466.60	8428.27
466.78	8154.43
466.96	8306.56
467.14	8168.47
467.32	8348.69
467.51	8379.12
467.69	8388.48
467.87	8444.65
468.05	8425.93
468.23	8140.38
468.41	8308.90
468.60	8545.30
468.78	8662.32
468.96	8383.80
469.14	8772.33
469.32	8858.93
469.50	8599.13
469.69	8636.58
469.87	8793.39
470.05	8786.37
470.23	8723.18
470.41	8898.72
470.59	8910.42
470.77	8856.59
470.95	8936.17
471.14	9341.08
471.32	8854.25
471.50	9383.21
471.68	9013.40
471.86	9095.32
472.04	9217.03
472.22	9554.07
472.40	9228.73
472.58	9383.21
472.77	9259.16
472.95	9563.43
473.13	9977.70
473.31	9451.08
473.49	9444.06
473.67	9680.46
473.85	9640.67
474.03	9722.59
474.21	9785.78
474.39	9844.29
474.57	9818.55
474.75	10038.56
474.93	10197.71
475.12	9954.30
475.30	10228.14
475.48	10157.92
475.66	10251.55
475.84	10134.52
476.02	10478.58
476.20	10518.37
476.38	10714.97
476.56	10958.39
476.74	10471.56
476.92	10698.59
477.10	10607.31
477.28	10956.05
477.46	10951.37
477.64	11044.99
477.82	11021.58
478.00	11435.86
478.18	11473.31
478.36	11325.85
478.54	11618.42
478.72	11562.25
478.90	11651.19
479.08	11709.70
479.26	11730.76
479.44	11775.24
479.62	12060.78
479.80	12067.80
479.98	12243.34
480.16	12386.12
480.34	12369.73
480.52	12517.18
480.70	12709.11
480.88	12264.41
481.06	12716.13
481.24	12524.21
481.41	12549.95
481.59	13188.92
481.77	13177.22
481.95	12917.42
482.13	13319.99
482.31	13193.60
482.49	13439.36
482.67	13441.70
482.85	13675.75
483.03	14054.92
483.21	14211.73
483.39	14274.93
483.57	13790.44
483.74	14340.46
483.92	14300.67
484.10	14333.44
484.28	14764.10
484.46	15143.27
484.64	14904.53
484.82	14895.17
485.00	14747.72
485.18	15456.90
485.35	15260.29
485.53	15480.30
485.71	15435.83
485.89	15744.78
486.07	15737.76
486.25	15845.43
486.43	15969.48
486.61	16154.38
486.78	16292.47
486.96	16224.59
487.14	16774.62
487.32	16666.95
487.50	16379.07
487.68	17111.66
487.85	17111.66
488.03	17287.20
488.21	17385.50
488.39	17549.34
488.57	17570.40
488.75	17605.51
488.92	17853.61
489.10	17806.80
489.28	18160.22
489.46	18595.56
489.64	18373.21
489.81	18663.43
489.99	18628.32
490.17	18473.85
490.35	18958.34
490.53	18750.03
490.70	19145.58
490.88	19489.64
491.06	19185.37
491.24	19480.28
491.41	19166.65
491.59	19882.85
491.77	19896.89
491.95	20013.92
492.13	20056.05
492.30	20072.43
492.48	20325.21
492.66	20297.13
492.84	20442.24
493.01	20868.22
493.19	20856.51
493.37	21137.38
493.54	20915.03
493.72	20966.52
493.90	21003.97
494.08	21109.29
494.25	21472.07
494.43	21418.24
494.61	21799.75
494.79	22389.56
494.96	21921.46
495.14	21902.73
495.32	22033.80
495.49	22349.78
495.67	22569.79
495.85	22850.65
496.02	22778.09
496.20	22986.40
496.38	22902.14
496.55	22998.10
496.73	23630.05
496.91	23473.23
497.09	23145.56
497.26	23723.67
497.44	23662.82
497.62	23819.63
497.79	24072.41
497.97	24006.87
498.14	24133.26
498.32	24573.28
498.50	24472.64
498.67	24500.73
498.85	24350.93
499.03	24570.94
499.20	24741.80
499.38	24711.38
499.56	25104.59
499.73	25310.55
499.91	25221.61
500.08	25158.42
500.26	24961.81
500.44	25345.66
500.61	25926.11
500.79	25174.80
500.97	25785.68
501.14	26089.95
501.32	26167.19
501.49	25942.50
501.67	25633.55
501.84	26118.04
502.02	26239.75
502.20	26792.11
502.37	26518.27
502.55	26218.68
502.72	26647.00
502.90	26611.89
503.07	26539.33
503.25	26562.74
503.43	26625.93
503.60	27103.40
503.78	27335.12
503.95	27257.88
504.13	27548.11
504.30	27360.86
504.48	27564.49
504.65	27573.85
504.83	28163.67
505.01	28175.37
505.18	27683.86
505.36	27995.15
505.53	27917.91
505.71	27988.13
505.88	28130.90
506.06	28252.61
506.23	28922.00
506.41	28835.40
506.58	28816.68
506.76	28514.75
506.93	28676.24
507.11	28716.03
507.28	28521.77
507.46	28919.66
507.63	29177.12
507.81	29146.69
507.98	29043.71
508.16	28933.70
508.33	28940.72
508.50	29256.70
508.68	29280.10
508.85	29778.64
509.03	29888.64
509.20	30017.37
509.38	30246.74
509.55	30380.15
509.73	30408.24
509.90	30066.52
510.08	30316.96
510.25	30305.26
510.42	30728.89
510.60	30958.27
510.77	30579.10
510.95	30731.23
511.12	30661.02
511.30	30663.36
511.47	31189.98
511.64	30799.11
511.82	31150.19
511.99	31110.40
512.17	31517.65
512.34	31115.08
512.51	31225.09
512.69	31367.86
512.86	31786.82
513.04	31866.39
513.21	31903.84
513.38	32304.07
513.56	32180.03
513.73	31995.12
513.90	31889.80
514.08	32397.70
514.25	32348.54
514.43	32215.13
514.60	32362.59
514.77	32882.19
514.95	32556.85
515.12	32519.40
515.29	32840.06
515.47	33053.05
515.64	32816.65
515.81	33097.52
515.99	33291.78
516.16	33408.81
516.33	33319.87
516.51	33443.91
516.68	33170.07
516.85	33539.88
517.03	33790.31
517.20	33560.94
517.37	33570.30
517.54	33518.81
517.72	33804.36
517.89	33837.12
518.06	33799.68
518.24	33820.74
518.41	34253.74
518.58	34476.09
518.75	34096.92
518.93	34251.40
519.10	34326.30
519.27	34426.94
519.45	34546.31
519.62	34485.45
519.79	34768.66
519.96	34478.43
520.14	35344.43
520.31	34763.98
520.48	34965.26
520.65	34742.91
520.83	35065.91
521.00	35143.14
521.17	35367.84
521.34	35159.53
521.52	35477.84
521.69	35321.02
521.86	36203.41
522.03	36055.95
522.20	35548.06
522.38	35730.62
522.55	35765.73
522.72	35786.79
522.89	36348.52
523.07	36315.75
523.24	36196.38
523.41	36233.83
523.58	36594.28
523.75	36261.92
523.92	36526.40
524.10	36362.56
524.27	36732.37
524.44	36952.38
524.61	36669.17
524.78	37001.53
524.96	37156.00
525.13	36814.29
525.30	37017.91
525.47	37752.84
525.64	36921.95
525.81	37310.48
525.98	37322.18
526.16	37237.92
526.33	37397.08
526.50	37638.15
526.67	37670.92
526.84	37310.48
527.01	37577.30
527.18	37977.53
527.36	37628.79
527.53	38155.41
527.70	38162.43
527.87	37811.35
528.04	38272.44
528.21	38143.71
528.38	38213.93
528.55	38059.45
528.72	38148.39
528.89	38579.05
529.07	38256.06
529.24	38068.81
529.41	38504.15
529.58	38693.74
529.75	38384.79
529.92	38712.46
530.09	38609.48
530.26	38761.61
530.43	38565.01
530.60	38703.10
530.77	39082.27
530.94	39222.70
531.11	38850.55
531.28	39138.44
531.46	39267.17
531.63	39129.08
531.80	39466.11
531.97	39316.32
532.14	39646.33
532.31	39271.85
532.48	39651.02
532.65	39316.32
532.82	39576.12
532.99	39786.77
533.16	39629.95
533.33	39938.90
533.50	40624.68
533.67	39798.47
533.84	40039.54
534.01	39700.17
534.18	39524.63
534.35	40123.80
534.52	40219.77
534.69	40650.42
534.86	40421.05
535.03	40273.60
535.20	40524.04
535.37	40444.46
535.54	40685.53
535.71	40236.15
535.88	41038.95
536.05	41003.85
536.22	40772.13
536.38	41273.01
536.55	41303.43
536.72	40891.50
536.89	40928.95
537.06	40870.43
537.23	41280.03
537.40	40580.21
537.57	41158.32
537.74	41181.73
537.91	41556.21
538.08	41308.11
538.25	41343.22
538.42	41759.84
538.59	41535.15
538.75	41368.97
538.92	41024.91
539.09	41614.72
539.26	41471.95
539.43	41696.64
539.60	42036.02
539.77	41642.81
539.94	42199.86
540.11	41940.06
540.28	42029.00
540.44	41928.36
540.61	42312.20
540.78	42185.82
540.95	42040.70
541.12	42253.69
541.29	42602.43
541.46	42375.40
541.62	42253.69
541.79	42831.80
541.96	42192.84
542.13	42253.69
542.30	42759.25
542.47	42899.68
542.63	43323.32
542.80	43454.39
542.97	43337.36
543.14	43775.04
543.31	43145.44
543.48	43449.70
543.64	43566.73
543.81	43503.54
543.98	43370.13
544.15	43452.05
544.32	43744.61
544.48	43861.64
544.65	43580.78
544.82	43629.93
544.99	43475.45
545.16	43629.93
545.32	44072.29
545.49	43995.05
545.66	45226.17
545.83	44631.68
546.00	44528.69
546.16	44261.87
546.33	43763.34
546.50	43896.75
546.67	44201.02
546.83	43587.80
547.00	44039.52
547.17	44140.16
547.34	44032.50
547.50	44079.31
547.67	44505.29
547.84	43873.34
548.00	44416.35
548.17	44587.21
548.34	44605.93
548.51	44327.41
548.67	44547.42
548.84	44552.10
549.01	44861.05
549.18	44357.83
549.34	44470.18
549.51	44671.46
549.68	44500.61
549.84	44289.96
550.01	45249.58
550.18	44634.02
550.34	44835.30
550.51	44713.59
550.68	44947.65
550.84	44231.44
551.01	44921.90
551.18	44444.43
551.34	44685.51
551.51	44596.57
551.68	45268.30
551.84	45191.06
552.01	44989.78
552.18	45141.91
552.34	45015.52
552.51	45244.90
552.68	45127.87
552.84	45146.59
553.01	45523.42
553.18	45301.07
553.34	45607.68
553.51	45184.04
553.67	45427.46
553.84	46057.06
554.01	45808.96
554.17	45205.11
554.34	45549.17
554.51	45380.65
554.67	45607.68
554.84	45570.23
555.00	45698.96
555.17	45663.85
555.33	45542.14
555.50	45507.04
555.67	45783.22
555.83	45408.73
556.00	45720.02
556.16	45771.52
556.33	45385.33
556.50	45427.46
556.66	46103.87
556.83	45638.11
556.99	46270.05
557.16	45869.82
557.32	45993.87
557.49	46103.87
557.65	45874.50
557.82	45771.52
557.98	45865.14
558.15	45904.93
558.32	46614.11
558.48	46040.68
558.65	45921.31
558.81	46419.84
558.98	46454.95
559.14	46246.65
559.31	45666.19
559.47	46136.64
559.64	46396.44
559.80	46649.22
559.97	46461.97
560.13	46408.14
560.30	46424.53
560.46	46686.67
560.63	46822.42
560.79	46485.38
560.96	46356.65
561.12	46499.42
561.29	46859.87
561.45	46850.50
561.61	46763.90
561.78	46979.23
561.94	46419.84
562.11	47028.38
562.27	47131.37
562.44	46698.37
562.60	46656.24
562.77	47152.43
562.93	46731.14
563.10	46731.14
563.26	47028.38
563.42	47098.60
563.59	46948.81
563.75	47187.54
563.92	47285.84
564.08	46749.86
564.24	46796.67
564.41	46806.03
564.57	46848.16
564.74	47264.78
564.90	46937.10
565.07	46887.95
565.23	47182.86
565.39	47093.92
565.56	47363.08
565.72	46923.06
565.88	46887.95
566.05	46637.51
566.21	46990.94
566.38	46904.34
566.54	47276.48
566.70	48147.16
566.87	47803.10
567.03	47262.44
567.19	47552.66
567.36	47056.47
567.52	47000.30
567.68	47243.71
567.85	47196.90
568.01	47559.69
568.17	47037.75
568.34	47772.67
568.50	47707.14
568.66	47267.12
568.83	47779.70
568.99	47657.99
569.15	47391.17
569.32	47297.55
569.48	46855.18
569.64	47601.82
569.81	47065.83
569.97	47208.61
570.13	47583.09
570.30	47311.59
570.46	47756.29
570.62	47283.50
570.78	47264.78
570.95	47021.36
571.11	47800.76
571.27	47257.76
571.43	47147.75
571.60	47433.30
571.76	47402.87
571.92	47845.23
572.09	48009.07
572.25	47995.03
572.41	47487.13
572.57	47852.25
572.74	47573.73
572.90	47449.68
573.06	47547.98
573.22	47653.31
573.38	47487.13
573.55	47578.41
573.71	48053.54
573.87	47838.21
574.03	47592.45
574.20	47576.07
574.36	47262.44
574.52	47426.28
574.68	47241.37
574.84	47618.20
575.01	47524.58
575.17	47442.66
575.33	47356.06
575.49	47686.07
575.65	48116.73
575.82	48088.65
575.98	47594.79
576.14	47789.06
576.30	47498.83
576.46	47758.63
576.62	47419.25
576.79	48500.58
576.95	47164.14
577.11	47566.71
577.27	48058.22
577.43	47978.64
577.59	47765.65
577.75	47901.40
577.92	47833.53
578.08	47538.62
578.24	47456.70
578.40	47929.49
578.56	47770.33
578.72	47847.57
578.88	48334.40
579.04	48341.42
579.21	47739.91
579.37	48273.55
579.53	48102.69
579.69	48016.09
579.85	47957.58
580.01	47878.00
580.17	47934.17
580.33	48311.00
580.49	47838.21
580.65	47650.97
580.82	48212.70
580.98	48018.43
581.14	48011.41
581.30	48315.68
581.46	47585.43
581.62	48065.24
581.78	47583.09
581.94	48168.22
582.10	48114.39
582.26	48451.43
582.42	48285.25
582.58	48025.45
582.74	47901.40
582.90	48554.41
583.06	48266.53
583.22	48121.41
583.38	47945.87
583.54	47693.10
583.70	48233.76
583.86	48107.37
584.02	47597.13
584.18	48116.73
584.34	48362.49
584.50	48191.63
584.66	48032.47
584.82	47899.06
584.98	47938.85
585.14	48112.05
585.30	47765.65
585.46	48294.61
585.62	48065.24
585.78	47971.62
585.94	47686.07
586.10	48168.22
586.26	48076.94
586.42	48495.90
586.58	48552.07
586.74	48102.69
586.90	47878.00
587.06	48257.17
587.22	48315.68
587.38	48156.52
587.54	48261.85
587.70	48399.94
587.86	48353.13
588.02	48388.24
588.18	48748.68
588.34	48158.86
588.49	48259.51
588.65	47585.43
588.81	48151.84
588.97	48177.59
589.13	48172.91
589.29	48348.45
589.45	48362.49
589.61	48294.61
589.77	48591.86
589.93	48786.13
590.08	48823.58
590.24	48296.95
590.40	48615.27
590.56	48921.88
590.72	48210.35
590.88	47978.64
591.04	48231.42
591.20	49059.97
591.35	49062.31
591.51	48678.46
591.67	48736.98
591.83	49003.80
591.99	48514.62
592.15	48533.35
592.31	48285.25
592.46	48610.59
592.62	48432.71
592.78	48465.47
592.94	48467.81
593.10	48446.75
593.26	48692.50
593.41	48980.39
593.57	48435.05
593.73	48816.55
593.89	48818.89
594.05	49022.52
594.20	48474.84
594.36	48332.06
594.52	48655.06
594.68	48413.98
594.84	48399.94
594.99	48795.49
595.15	48652.72
595.31	49109.12
595.47	48514.62
595.62	48776.76
595.78	49085.72
595.94	48823.58
596.10	48830.60
596.25	48638.67
596.41	48362.49
596.57	48067.58
596.73	48402.28
596.88	48633.99
597.04	48802.51
597.20	49066.99
597.36	48921.88
597.51	48919.54
597.67	48699.53
597.83	48612.93
597.99	48964.01
598.14	48308.66
598.30	49123.16
598.46	48914.86
598.61	48973.37
598.77	48477.18
598.93	48811.87
599.09	49015.50
599.24	49153.59
599.40	48935.92
599.56	48566.12
599.71	48442.07
599.87	49125.50
600.03	48999.12
600.18	48809.53
600.34	48512.28
600.50	49242.53
600.65	49139.55
600.81	49230.83
600.97	49172.31
601.12	49209.76
601.28	49457.86
601.44	48849.32
601.59	48617.61
601.75	48498.24
601.91	48678.46
602.06	48809.53
602.22	49125.50
602.37	48931.24
602.53	48868.05
602.69	48980.39
602.84	48846.98
603.00	48802.51
603.16	49132.53
603.31	48584.84
603.47	48896.13
603.62	48898.47
603.78	48739.32
603.94	48652.72
604.09	48851.66
604.25	48638.67
604.40	48332.06
604.56	48376.53
604.71	48842.30
604.87	48416.32
605.03	49088.06
605.18	48690.16
605.34	48563.78
605.49	48231.42
605.65	48802.51
605.80	48292.27
605.96	48154.18
606.12	48556.75
606.27	49095.08
606.43	48959.33
606.58	48928.90
606.74	48617.61
606.89	48917.20
607.05	48767.40
607.20	48701.87
607.36	48786.13
607.51	48744.00
607.67	48371.85
607.82	48418.66
607.98	48465.47
608.13	48575.48
608.29	48346.11
608.44	48093.33
608.60	48238.44
608.75	48360.15
608.91	48395.26
609.06	48357.81
609.22	48765.06
609.37	48170.57
609.53	48144.82
609.68	48341.42
609.84	48165.88
609.99	48062.90
610.15	48994.43
610.30	48545.05
610.46	48617.61
610.61	48924.22
610.76	49282.32
610.92	49364.24
611.07	49485.95
611.23	49359.56
611.38	48982.73
611.54	48954.64
611.69	48751.02
611.84	48573.14
612.00	48432.71
612.15	48170.57
612.31	48577.82
612.46	48531.01
612.62	49013.16
612.77	48797.83
612.92	48924.22
613.08	48493.56
613.23	48362.49
613.39	48481.86
613.54	47824.17
613.69	48561.44
613.85	48030.13
614.00	48325.04
614.15	48224.40
614.31	48247.80
614.46	48357.81
614.62	48243.12
614.77	47990.34
614.92	48135.46
615.08	48308.66
615.23	48086.31
615.38	48280.57
615.54	47941.19
615.69	48233.76
615.84	47683.73
616.00	48002.05
616.15	47730.54
616.30	47964.60
616.46	47995.03
616.61	47695.44
616.76	48102.69
616.92	47559.69
617.07	47409.89
617.22	47358.40
617.37	47302.23
617.53	47571.39
617.68	47749.27
617.83	47552.66
617.99	47576.07
618.14	47173.50
618.29	47901.40
618.45	47777.36
618.60	47618.20
618.75	47751.61
618.90	47388.83
619.06	47622.88
619.21	47339.68
619.36	47423.93
619.51	47168.82
619.67	47004.98
619.82	47473.09
619.97	47028.38
620.12	47547.98
620.28	46855.18
620.43	47278.82
620.58	47302.23
620.73	47122.01
620.89	47365.42
621.04	47096.26
621.19	47538.62
621.34	47203.92
621.49	46658.58
621.65	46593.04
621.80	47084.56
621.95	46869.23
622.10	47051.79
622.25	46789.65
622.41	46777.95
622.56	47203.92
622.71	47061.15
622.86	47075.19
623.01	47072.85
623.16	46801.35
623.32	46768.58
623.47	46635.17
623.62	46602.41
623.77	46890.29
623.92	46953.49
624.07	46562.62
624.23	46333.24
624.38	46501.76
624.53	46335.59
624.68	46396.44
624.83	46850.50
624.98	46953.49
625.13	46412.82
625.29	46813.05
625.44	46674.96
625.59	46569.64
625.74	46384.74
625.89	46368.35
626.04	46527.51
626.19	46412.82
626.34	46340.27
626.49	46845.82
626.65	46036.00
626.80	46293.46
626.95	46246.65
627.10	45958.76
627.25	46225.58
627.40	46167.07
627.55	46197.49
627.70	46586.02
627.85	46071.10
628.00	46106.21
628.15	46080.47
628.30	45935.35
628.45	46155.36
628.60	45968.12
628.76	46092.17
628.91	45893.22
629.06	45525.76
629.21	45579.59
629.36	45951.74
629.51	45359.58
629.66	45680.24
629.81	45799.60
629.96	45577.25
630.11	45420.44
630.26	46120.26
630.41	46241.96
630.56	45771.52
630.71	45670.87
630.86	46113.23
631.01	45743.43
631.16	45970.46
631.31	45911.95
631.46	45392.35
631.61	45766.84
631.76	45373.63
631.91	45179.36
632.06	45078.72
632.21	45158.30
632.36	45118.51
632.51	44844.66
632.66	45593.64
632.81	45226.17
632.96	45570.23
633.10	45382.99
633.25	45308.09
633.40	45357.24
633.55	45516.40
633.70	45118.51
633.85	45235.53
634.00	44879.77
634.15	45090.42
634.30	44996.80
634.45	44917.22
634.60	44748.70
634.75	45338.52
634.90	44631.68
635.05	45219.15
635.19	45125.53
635.34	45406.39
635.49	44877.43
635.64	44737.00
635.79	44727.64
635.94	44765.09
636.09	44734.66
636.24	44659.76
636.39	44322.72
636.53	44603.59
636.68	44556.78
636.83	44612.95
636.98	44355.49
637.13	44247.83
637.28	44788.49
637.43	44587.21
637.57	44680.83
637.72	44041.86
637.87	44011.43
638.02	44437.41
638.17	44226.76
638.32	44182.29
638.46	44289.96
638.61	44151.87
638.76	43920.15
638.91	43868.66
639.06	44189.31
639.20	44313.36
639.35	44282.94
639.50	44205.70
639.65	44020.80
639.80	44186.97
639.94	44210.38
640.09	43896.75
640.24	44339.11
640.39	43753.97
640.54	44076.97
640.68	44079.31
640.83	43948.24
640.98	43510.56
641.13	43543.33
641.27	43906.11
641.42	43646.31
641.57	44133.14
641.72	44467.84
641.86	43803.13
642.01	43739.93
642.16	44142.50
642.31	43613.54
642.45	43899.09
642.60	43555.03
642.75	43405.23
642.90	43601.84
643.04	43505.88
643.19	43206.29
643.34	42857.55
643.48	43236.72
643.63	43526.94
643.78	43632.27
643.93	43531.62
644.07	43391.19
644.22	43459.07
644.37	43257.78
644.51	43569.07
644.66	43086.92
644.81	43222.67
644.95	42916.06
645.10	42817.76
645.25	43250.76
645.39	43599.50
645.54	43002.66
645.69	43241.40
645.83	43367.79
645.98	43037.77
646.13	43349.06
646.27	43206.29
646.42	43042.45
646.57	42660.94
646.71	43159.48
646.86	43288.21
647.00	43072.88
647.15	42635.20
647.30	42852.87
647.44	42230.29
647.59	42628.18
647.74	42794.36
647.88	42579.03
648.03	43138.41
648.17	42777.97
648.32	43126.71
648.47	42916.06
648.61	42492.43
648.76	42682.01
648.90	42646.90
649.05	42478.38
649.20	42693.71
649.34	42466.68
649.49	42913.72
649.63	42513.49
649.78	42122.62
649.92	42314.55
650.07	42515.83
650.21	42590.73
650.36	42560.30
650.51	42562.64
650.65	42579.03
650.80	42906.70
650.94	42462.00
651.09	42469.02
651.23	42220.92
651.38	42101.56
651.52	42281.78
651.67	42131.98
651.81	42005.59
651.96	41874.52
652.10	41708.35
652.25	41928.36
652.39	42089.85
652.54	42164.75
652.68	42178.79
652.83	41916.65
652.97	42476.04
653.12	42106.24
653.26	42220.92
653.41	42129.64
653.55	41947.08
653.70	41947.08
653.84	41476.63
653.99	41273.01
654.13	41832.39
654.27	41755.16
654.42	42211.56
654.56	41933.04
654.71	42241.99
654.85	42190.50
655.00	41457.91
655.14	41439.18
655.29	41722.39
655.43	41940.06
655.57	41528.13
655.72	41624.09
655.86	41654.51
656.01	41155.98
656.15	41490.68
656.30	40865.75
656.44	40992.14
656.58	41446.21
656.73	41280.03
656.87	41420.46
657.01	41263.64
657.16	41755.16
657.30	41347.90
657.45	41460.25
657.59	41160.66
657.73	40568.51
657.88	40732.34
658.02	40847.03
658.16	40664.47
658.31	40989.80
658.45	41249.60
658.60	40559.14
658.74	41064.70
658.88	40837.67
659.03	40697.24
659.17	40502.97
659.31	40563.82
659.46	40598.93
659.60	40355.52
659.74	40907.88
659.89	40849.37
660.03	40371.90
660.17	40746.39
660.32	40397.65
660.46	40355.52
660.60	40140.19
660.74	39746.98
660.89	39828.90
661.03	39496.54
661.17	40100.40
661.32	40060.61
661.46	39936.56
661.60	39978.69
661.74	39974.01
661.89	39700.17
662.03	39934.22
662.17	39370.15
662.31	39583.14
662.46	39901.45
662.60	39777.40
662.74	39412.28
662.88	39669.74
663.03	39597.18
663.17	39620.59
663.31	39803.15
663.45	39501.22
663.60	39084.61
663.74	39262.49
663.88	39313.98
664.02	38902.04
664.17	39604.20
664.31	38899.70
664.45	38780.34
664.59	38768.63
664.73	39051.84
664.88	38937.15
665.02	38653.95
665.16	38731.18
665.30	38497.13
665.44	38330.95
665.59	38445.64
665.73	38686.71
665.87	37972.85
666.01	38375.42
666.15	38396.49
666.29	38260.74
666.44	38803.74
666.58	38220.95
666.72	38155.41
666.86	38106.26
667.00	38302.87
667.14	38176.48
667.28	38014.98
667.43	38047.75
667.57	38038.39
667.71	38005.62
667.85	37715.39
667.99	37596.03
668.13	37799.65
668.27	38232.65
668.41	37673.26
668.56	37591.34
668.70	37963.49
668.84	38326.27
668.98	37759.86
669.12	37399.42
669.26	37083.45
669.40	37329.20
669.54	37364.31
669.68	37172.39
669.82	36765.14
669.96	36156.60
670.10	36807.26
670.25	36182.34
670.39	36725.35
670.53	36863.44
670.67	36617.68
670.81	36704.28
670.95	36772.16
671.09	36816.63
671.23	37088.13
671.37	36634.06
671.51	36683.22
671.65	36741.73
671.79	36423.42
671.93	36079.36
672.07	36481.93
672.21	36617.68
672.35	36114.47
672.49	35938.93
672.63	35901.48
672.77	36219.79
672.91	35990.42
673.05	36027.87
673.19	35730.62
673.33	36362.56
673.47	35857.01
673.61	35852.33
673.75	36041.91
673.89	35370.18
674.03	35229.74
674.17	35208.68
674.31	35377.20
674.45	35400.60
674.59	35033.14
674.73	34995.69
674.87	34560.35
675.01	34752.27
675.15	34986.33
675.29	34771.00
675.43	34841.21
675.56	34754.61
675.70	34668.02
675.84	34717.17
675.98	33479.02
676.12	34876.32
676.26	34684.40
676.40	34403.53
676.54	33544.56
676.68	33479.02
676.82	33516.47
676.96	33846.49
677.10	33422.85
677.23	33481.36
677.37	33708.40
677.51	33390.08
677.65	33717.76
677.79	33010.92
677.93	33305.82
678.07	32762.82
678.21	32769.84
678.34	32807.29
678.48	32730.05
678.62	32870.48
678.76	32694.94
678.90	32287.69
679.04	32109.81
679.18	32460.89
679.31	32004.49
679.45	32093.43
679.59	32006.83
679.73	31510.63
679.87	31440.42
680.00	31819.58
680.14	31234.45
680.28	31660.43
680.42	31814.90
680.56	31573.83
680.70	31353.82
680.83	31608.93
680.97	31519.99
681.11	31615.96
681.25	31257.85
681.39	30724.21
681.52	30848.26
681.66	30707.83
681.80	30637.61
681.94	30504.20
682.07	30586.12
682.21	30291.21
682.35	30160.14
682.49	30134.40
682.62	30094.61
682.76	29912.05
682.90	30197.59
683.04	29949.50
683.17	29909.71
683.31	29986.94
683.45	29881.62
683.59	29736.51
683.72	29673.31
683.86	29411.17
684.00	29921.41
684.13	29289.46
684.27	29216.91
684.41	29298.83
684.55	28964.13
684.68	28936.04
684.82	28503.04
684.96	28491.34
685.09	28095.79
685.23	28428.15
685.37	28311.12
685.50	28694.97
685.64	28638.80
685.78	28465.60
685.91	28545.17
686.05	28250.27
686.19	27885.14
686.32	27655.77
686.46	27662.79
686.60	27576.19
686.73	27496.61
686.87	27763.43
687.01	27648.75
687.14	27744.71
687.28	27381.93
687.42	27388.95
687.55	27204.05
687.69	27211.07
687.82	27047.23
687.96	26979.36
688.10	26663.38
688.23	26843.60
688.37	26916.16
688.50	26546.36
688.64	26864.67
688.78	26494.86
688.91	26731.26
689.05	26333.37
689.18	26129.74
689.32	25570.35
689.46	25682.70
689.59	25443.96
689.73	25308.21
689.86	25509.50
690.00	25238.00
690.13	25312.89
690.27	25350.34
690.41	25448.64
690.54	24987.56
690.68	25228.63
690.81	25357.36
690.95	25245.02
691.08	25329.28
691.22	24493.71
691.35	24240.93
691.49	24456.26
691.62	24119.22
691.76	24306.46
691.89	24070.07
692.03	24257.31
692.16	23871.12
692.30	24027.94
692.43	24336.89
692.57	24121.56
692.70	23676.86
692.84	23608.98
692.97	23784.52
693.11	23709.63
693.24	23646.43
693.38	23847.72
693.51	23559.83
693.65	23543.45
693.78	23398.34
693.92	23014.49
694.05	23012.15
694.19	22902.14
694.32	22724.26
694.45	22780.43
694.59	22419.99
694.72	22174.24
694.86	22478.50
694.99	22057.21
695.13	22150.83
695.26	22195.30
695.39	21937.84
695.53	22490.21
695.66	21991.67
695.80	22300.62
695.93	21820.81
696.07	21769.32
696.20	21942.52
696.33	21710.81
696.47	21884.01
696.60	21734.21
696.73	21046.10
696.87	21434.63
697.00	21205.25
697.14	20795.66
697.27	20545.22
697.40	20821.41
697.54	20762.89
697.67	20673.95
697.80	20449.26
697.94	20453.94
698.07	20505.43
698.21	20346.28
698.34	20379.04
698.47	20098.18
698.61	20049.03
698.74	19864.13
698.87	20423.51
699.01	19910.94
699.14	19861.79
699.27	19889.87
699.40	19819.66
699.54	19491.98
699.67	19374.95
699.80	19171.33
699.94	19183.03
700.07	19288.35
700.20	19002.81
700.34	18932.59
700.47	18735.99
700.60	18647.05
700.73	18654.07
700.87	18986.43
701.00	18581.51
701.13	18483.21
701.26	18721.95
701.40	18579.17
701.53	18434.06
701.66	18600.24
701.79	18338.10
701.93	18501.93
702.06	18101.70
702.19	18190.64
702.32	18167.24
702.46	17671.04
702.59	17619.55
702.72	17748.28
702.85	17439.33
702.99	17369.12
703.12	17853.61
703.25	17816.16
703.38	17490.82
703.51	17535.29
703.65	17659.34
703.78	17516.57
703.91	17235.70
704.04	17224.00
704.17	17055.48
704.31	17001.65
704.44	16875.26
704.57	16982.93
704.70	16980.59
704.83	16755.90
704.96	16402.47
705.10	16547.59
705.23	16191.83
>>>>>End Processed Spectral Data<<<<<
