SpectraSuite Data File
++++++++++++++++++++++++++++++++++++
Date: Fri Oct 04 12:13:58 GMT-05:00 2013
User: price-jones
Dark Spectrum Present: No
Reference Spectrum Present: No
Number of Sampled Component Spectra: 1
Spectrometers: USB2+H05261
Integration Time (usec): 1000000 (USB2+H05261)
Spectra Averaged: 1 (USB2+H05261)
Boxcar Smoothing: 0 (USB2+H05261)
Correct for Electrical Dark: No (USB2+H05261)
Strobe/Lamp Enabled: No (USB2+H05261)
Correct for Detector Non-linearity: No (USB2+H05261)
Correct for Stray Light: No (USB2+H05261)
Number of Pixels in Processed Spectrum: 2048
>>>>>Begin Processed Spectral Data<<<<<
365.73	21.06
365.92	21.06
366.12	21.06
366.32	0.00
366.52	0.00
366.72	262.14
366.91	119.37
367.11	304.27
367.31	180.22
367.51	266.82
367.70	339.38
367.90	444.70
368.10	428.32
368.30	360.44
368.49	191.92
368.69	456.40
368.89	248.10
369.09	131.07
369.28	299.59
369.48	117.03
369.68	294.91
369.87	346.40
370.07	238.73
370.27	599.18
370.47	416.62
370.66	315.97
370.86	444.70
371.06	784.08
371.25	966.64
371.45	428.32
371.65	746.63
371.84	299.59
372.04	276.18
372.24	493.85
372.44	409.59
372.63	601.52
372.83	856.64
373.03	472.79
373.22	386.19
373.42	437.68
373.62	498.53
373.81	552.37
374.01	739.61
374.21	702.16
374.40	484.49
374.60	765.36
374.79	463.43
374.99	491.51
375.19	617.90
375.38	634.29
375.58	592.16
375.78	676.41
375.97	582.79
376.17	1032.18
376.37	507.90
376.56	645.99
376.76	388.53
376.95	390.87
377.15	685.78
377.35	528.96
377.54	535.98
377.74	428.32
377.93	372.15
378.13	585.13
378.33	690.46
378.52	566.41
378.72	807.48
378.91	697.48
379.11	463.43
379.31	397.89
379.50	269.16
379.70	631.94
379.89	692.80
380.09	416.62
380.28	367.46
380.48	493.85
380.68	489.17
380.87	339.38
381.07	486.83
381.26	755.99
381.46	592.16
381.65	587.47
381.85	428.32
382.04	388.53
382.24	638.97
382.43	517.26
382.63	358.10
382.83	348.74
383.02	723.23
383.22	699.82
383.41	390.87
383.61	482.15
383.80	458.74
384.00	503.22
384.19	489.17
384.39	533.64
384.58	454.06
384.78	629.60
384.97	608.54
385.17	425.98
385.36	390.87
385.56	699.82
385.75	332.36
385.95	430.66
386.14	748.97
386.34	472.79
386.53	578.11
386.72	414.27
386.92	889.40
387.11	650.67
387.31	683.44
387.50	421.30
387.70	381.51
387.89	475.13
388.09	442.36
388.28	404.91
388.48	372.15
388.67	727.91
388.86	433.00
389.06	482.15
389.25	592.16
389.45	573.43
389.64	517.26
389.84	709.18
390.03	592.16
390.22	573.43
390.42	463.43
390.61	451.72
390.81	271.50
391.00	566.41
391.19	720.88
391.39	484.49
391.58	692.80
391.78	500.87
391.97	533.64
392.16	348.74
392.36	816.85
392.55	821.53
392.75	526.62
392.94	367.46
393.13	697.48
393.33	376.83
393.52	433.00
393.71	819.19
393.91	510.24
394.10	411.93
394.29	489.17
394.49	601.52
394.68	779.40
394.88	919.83
395.07	793.44
395.26	601.52
395.46	594.50
395.65	697.48
395.84	676.41
396.04	1207.72
396.23	449.38
396.42	472.79
396.62	624.92
396.81	528.96
397.00	503.22
397.19	669.39
397.39	571.09
397.58	816.85
397.77	491.51
397.97	571.09
398.16	568.75
398.35	606.20
398.55	447.04
398.74	594.50
398.93	774.72
399.12	561.73
399.32	734.93
399.51	617.90
399.70	685.78
399.90	594.50
400.09	582.79
400.28	830.89
400.47	517.26
400.67	709.18
400.86	603.86
401.05	685.78
401.24	777.06
401.44	608.54
401.63	713.86
401.82	720.88
402.01	510.24
402.21	634.29
402.40	540.66
402.59	631.94
402.78	573.43
402.97	564.07
403.17	580.45
403.36	585.13
403.55	629.60
403.74	550.03
403.93	723.23
404.13	1043.88
404.32	727.91
404.51	587.47
404.70	765.36
404.89	545.34
405.09	1025.15
405.28	645.99
405.47	479.81
405.66	720.88
405.85	692.80
406.05	638.97
406.24	582.79
406.43	622.58
406.62	748.97
406.81	1067.28
407.00	781.74
407.20	550.03
407.39	540.66
407.58	566.41
407.77	676.41
407.96	894.08
408.15	784.08
408.34	788.76
408.54	629.60
408.73	617.90
408.92	657.69
409.11	823.87
409.30	816.85
409.49	486.83
409.68	699.82
409.87	706.84
410.07	491.51
410.26	543.00
410.45	580.45
410.64	566.41
410.83	676.41
411.02	505.56
411.21	758.33
411.40	786.42
411.59	543.00
411.78	601.52
411.98	610.88
412.17	571.09
412.36	617.90
412.55	545.34
412.74	851.96
412.93	978.34
413.12	575.77
413.31	978.34
413.50	711.52
413.69	641.31
413.88	898.77
414.07	816.85
414.26	699.82
414.45	566.41
414.64	786.42
414.83	744.29
415.02	805.14
415.22	901.11
415.41	1029.84
415.60	681.10
415.79	816.85
415.98	1053.24
416.17	657.69
416.36	699.82
416.55	561.73
416.74	812.17
416.93	912.81
417.12	727.91
417.31	650.67
417.50	730.25
417.69	1144.52
417.88	1100.05
418.07	784.08
418.26	849.61
418.45	737.27
418.64	1196.01
418.83	1308.36
419.02	1090.69
419.21	926.85
419.39	959.62
419.58	901.11
419.77	1006.43
419.96	1128.14
420.15	1151.54
420.34	784.08
420.53	765.36
420.72	919.83
420.91	791.10
421.10	683.44
421.29	788.76
421.48	830.89
421.67	931.53
421.86	660.03
422.05	690.46
422.24	582.79
422.43	711.52
422.61	557.05
422.80	615.56
422.99	770.04
423.18	587.47
423.37	940.90
423.56	760.67
423.75	826.21
423.94	624.92
424.13	601.52
424.32	571.09
424.50	765.36
424.69	730.25
424.88	1055.58
425.07	676.41
425.26	947.92
425.45	1142.18
425.64	1156.22
425.83	1205.38
426.01	1226.44
426.20	870.68
426.39	748.97
426.58	767.70
426.77	774.72
426.96	943.24
427.15	779.40
427.33	648.33
427.52	840.25
427.71	760.67
427.90	805.14
428.09	702.16
428.28	620.24
428.46	681.10
428.65	849.61
428.84	851.96
429.03	924.51
429.22	662.37
429.40	638.97
429.59	660.03
429.78	1205.38
429.97	760.67
430.16	641.31
430.34	636.63
430.53	601.52
430.72	676.41
430.91	875.36
431.10	571.09
431.28	657.69
431.47	964.30
431.66	950.26
431.85	674.07
432.03	793.44
432.22	1277.93
432.41	734.93
432.60	1109.41
432.79	800.46
432.97	1355.17
433.16	1488.58
433.35	1212.40
433.54	952.60
433.72	983.02
433.91	1034.52
434.10	809.83
434.28	938.55
434.47	908.13
434.66	1006.43
434.85	800.46
435.03	828.55
435.22	1036.86
435.41	1100.05
435.59	875.36
435.78	856.64
435.97	751.31
436.16	1046.22
436.34	842.59
436.53	828.55
436.72	1062.60
436.90	945.58
437.09	837.91
437.28	791.10
437.46	676.41
437.65	931.53
437.84	919.83
438.02	858.98
438.21	926.85
438.40	664.71
438.58	601.52
438.77	739.61
438.96	788.76
439.14	748.97
439.33	903.45
439.52	765.36
439.70	819.19
439.89	1025.15
440.08	870.68
440.26	858.98
440.45	1097.71
440.63	947.92
440.82	837.91
441.01	943.24
441.19	814.51
441.38	837.91
441.57	784.08
441.75	1055.58
441.94	1158.57
442.12	823.87
442.31	819.19
442.50	795.78
442.68	791.10
442.87	866.00
443.05	828.55
443.24	940.90
443.43	1160.91
443.61	1146.86
443.80	968.98
443.98	709.18
444.17	887.06
444.35	1004.09
444.54	842.59
444.73	915.15
444.91	1097.71
445.10	582.79
445.28	720.88
445.47	905.79
445.65	856.64
445.84	823.87
446.02	854.30
446.21	788.76
446.39	863.66
446.58	912.81
446.77	823.87
446.95	800.46
447.14	887.06
447.32	1163.25
447.51	880.04
447.69	961.96
447.88	866.00
448.06	1188.99
448.25	1013.45
448.43	819.19
448.62	702.16
448.80	1025.15
448.99	1118.78
449.17	781.74
449.36	800.46
449.54	983.02
449.73	741.95
449.91	971.32
450.10	802.80
450.28	1430.07
450.46	1371.55
450.65	1104.73
450.83	1050.90
451.02	908.13
451.20	772.38
451.39	950.26
451.57	924.51
451.76	805.14
451.94	903.45
452.13	1069.62
452.31	1057.92
452.49	1090.69
452.68	699.82
452.86	896.43
453.05	1369.21
453.23	858.98
453.42	720.88
453.60	910.47
453.78	1001.75
453.97	704.50
454.15	786.42
454.34	851.96
454.52	856.64
454.70	1268.57
454.89	992.39
455.07	809.83
455.26	1034.52
455.44	1137.50
455.62	866.00
455.81	1027.50
455.99	1090.69
456.17	1025.15
456.36	929.19
456.54	812.17
456.73	868.34
456.91	882.38
457.09	985.37
457.28	1170.27
457.46	964.30
457.64	1165.59
457.83	950.26
458.01	840.25
458.19	985.37
458.38	861.32
458.56	976.00
458.74	727.91
458.93	1055.58
459.11	959.62
459.29	791.10
459.48	1097.71
459.66	1350.49
459.84	1055.58
460.03	1757.74
460.21	1109.41
460.39	894.08
460.57	1240.48
460.76	1071.97
460.94	964.30
461.12	1385.60
461.31	1299.00
461.49	966.64
461.67	873.02
461.85	894.08
462.04	999.41
462.22	5844.32
462.40	1214.74
462.59	1306.02
462.77	880.04
462.95	1018.13
463.13	805.14
463.32	1156.22
463.50	987.71
463.68	1093.03
463.86	1046.22
464.05	994.73
464.23	1177.29
464.41	1057.92
464.59	889.40
464.78	938.55
464.96	802.80
465.14	1011.11
465.32	894.08
465.50	1029.84
465.69	1188.99
465.87	851.96
466.05	994.73
466.23	781.74
466.41	851.96
466.60	917.49
466.78	985.37
466.96	1324.74
467.14	1053.24
467.32	1186.65
467.51	1025.15
467.69	1121.12
467.87	1324.74
468.05	999.41
468.23	1371.55
468.41	1121.12
468.60	945.58
468.78	1062.60
468.96	1160.91
469.14	1090.69
469.32	833.23
469.50	837.91
469.69	1064.94
469.87	1086.01
470.05	1090.69
470.23	1053.24
470.41	952.60
470.59	1011.11
470.77	1078.99
470.95	1067.28
471.14	1245.16
471.32	1008.77
471.50	1378.58
471.68	938.55
471.86	1078.99
472.04	856.64
472.22	1060.26
472.40	791.10
472.58	943.24
472.77	826.21
472.95	978.34
473.13	1453.47
473.31	1416.02
473.49	861.32
473.67	861.32
473.85	1111.75
474.03	1153.88
474.21	985.37
474.39	1294.32
474.57	1366.87
474.75	1137.50
474.93	940.90
475.12	877.70
475.30	1027.50
475.48	997.07
475.66	1090.69
475.84	1074.31
476.02	1001.75
476.20	1071.97
476.38	1006.43
476.56	1708.59
476.74	1102.39
476.92	966.64
477.10	1015.79
477.28	1186.65
477.46	978.34
477.64	1240.48
477.82	1067.28
478.00	999.41
478.18	1097.71
478.36	1020.47
478.54	966.64
478.72	1048.56
478.90	1062.60
479.08	1184.31
479.26	1102.39
479.44	1022.81
479.62	1069.62
479.80	1067.28
479.98	926.85
480.16	1006.43
480.34	1273.25
480.52	1050.90
480.70	1263.89
480.88	1039.20
481.06	1004.09
481.24	1008.77
481.41	1074.31
481.59	1238.14
481.77	1203.04
481.95	1114.10
482.13	1383.26
482.31	1226.44
482.49	1064.94
482.67	1235.80
482.85	1343.47
483.03	1364.53
483.21	1320.06
483.39	1083.67
483.57	1090.69
483.74	1519.01
483.92	1132.82
484.10	1083.67
484.28	1427.73
484.46	1687.53
484.64	1156.22
484.82	1214.74
485.00	1163.25
485.18	1167.93
485.35	1165.59
485.53	952.60
485.71	1341.13
485.89	873.02
486.07	1074.31
486.25	1720.29
486.43	1287.29
486.61	1291.98
486.78	1315.38
486.96	973.66
487.14	1186.65
487.32	1107.07
487.50	1107.07
487.68	1460.49
487.85	1156.22
488.03	1261.55
488.21	1540.07
488.39	1233.46
488.57	1437.09
488.75	1158.57
488.92	4011.68
489.10	1383.26
489.28	1736.68
489.46	1242.82
489.64	1378.58
489.81	1296.66
489.99	1455.81
490.17	1357.51
490.35	2001.16
490.53	1355.17
490.70	1270.91
490.88	1530.71
491.06	1228.78
491.24	1448.79
491.41	1612.63
491.59	1446.45
491.77	1158.57
491.95	1191.33
492.13	1156.22
492.30	1348.15
492.48	1345.81
492.66	1409.00
492.84	1303.68
493.01	1504.96
493.19	1261.55
493.37	1762.42
493.54	1554.12
493.72	1460.49
493.90	1315.38
494.08	1327.08
494.25	1479.22
494.43	1570.50
494.61	1369.21
494.79	1331.76
494.96	1277.93
495.14	1582.20
495.32	1451.13
495.49	1423.05
495.67	1451.13
495.85	1425.39
496.02	1277.93
496.20	1661.78
496.38	1577.52
496.55	1448.79
496.73	1584.54
496.91	1427.73
497.09	1645.40
497.26	1607.95
497.44	1511.99
497.62	1465.18
497.79	1455.81
497.97	1671.14
498.14	1584.54
498.32	1551.78
498.50	1544.75
498.67	1476.88
498.85	1547.09
499.03	1526.03
499.20	1481.56
499.38	1570.50
499.56	1612.63
499.73	1923.92
499.91	1591.56
500.08	1750.72
500.26	1378.58
500.44	1387.94
500.61	1523.69
500.79	1406.66
500.97	1654.76
501.14	1818.60
501.32	1577.52
501.49	1689.87
501.67	1413.68
501.84	1516.67
502.02	1336.45
502.20	1774.13
502.37	1675.82
502.55	1411.34
502.72	1519.01
502.90	1755.40
503.07	1633.69
503.25	1605.61
503.43	1570.50
503.60	1556.46
503.78	1760.08
503.95	1540.07
504.13	1462.83
504.30	1657.10
504.48	1682.85
504.65	1849.02
504.83	1839.66
505.01	1418.36
505.18	1675.82
505.36	1563.48
505.53	1533.05
505.71	1427.73
505.88	1916.90
506.06	1516.67
506.23	1434.75
506.41	1488.58
506.58	1563.48
506.76	1570.50
506.93	1418.36
507.11	1643.06
507.28	1511.99
507.46	1537.73
507.63	1647.74
507.81	1488.58
507.98	1640.72
508.16	1694.55
508.33	1671.14
508.50	1795.19
508.68	1540.07
508.85	1671.14
509.03	1661.78
509.20	1614.97
509.38	1661.78
509.55	1830.30
509.73	1813.92
509.90	1870.09
510.08	1465.18
510.25	1753.06
510.42	1455.81
510.60	1563.48
510.77	1666.46
510.95	1952.01
511.12	1664.12
511.30	2015.20
511.47	2005.84
511.64	2193.08
511.82	1741.36
511.99	1858.39
512.17	1514.33
512.34	1519.01
512.51	1483.90
512.69	1554.12
512.86	2005.84
513.04	1481.56
513.21	1577.52
513.38	1551.78
513.56	1451.13
513.73	1486.24
513.90	1448.79
514.08	1472.20
514.25	1724.97
514.43	1797.53
514.60	1434.75
514.77	1631.35
514.95	1732.00
515.12	1542.41
515.29	1748.38
515.47	1652.42
515.64	1694.55
515.81	1696.89
515.99	1851.36
516.16	1680.50
516.33	1823.28
516.51	1439.43
516.68	1284.95
516.85	1324.74
517.03	1406.66
517.20	1645.40
517.37	1666.46
517.54	1727.32
517.72	1533.05
517.89	1315.38
518.06	1324.74
518.24	1984.77
518.41	1975.41
518.58	1795.19
518.75	1671.14
518.93	1753.06
519.10	1778.81
519.27	1584.54
519.45	1530.71
519.62	1689.87
519.79	1858.39
519.96	1577.52
520.14	1764.76
520.31	2022.22
520.48	1640.72
520.65	1764.76
520.83	1790.51
521.00	1783.49
521.17	1729.66
521.34	1631.35
521.52	1614.97
521.69	1633.69
521.86	1720.29
522.03	1937.96
522.20	2001.16
522.38	1577.52
522.55	1612.63
522.72	1397.30
522.89	1783.49
523.07	2106.48
523.24	1636.03
523.41	1563.48
523.58	1561.14
523.75	1668.80
523.92	1521.35
524.10	1717.95
524.27	1710.93
524.44	1659.44
524.61	1980.09
524.78	1701.57
524.96	1895.83
525.13	1722.63
525.30	1940.30
525.47	1891.15
525.64	1713.27
525.81	1722.63
525.98	1762.42
526.16	1551.78
526.33	1537.73
526.50	1399.64
526.67	1462.83
526.84	1378.58
527.01	1504.96
527.18	1739.02
527.36	1600.93
527.53	1661.78
527.70	1933.28
527.87	1654.76
528.04	2167.34
528.21	1607.95
528.38	1980.09
528.55	2012.86
528.72	2080.74
528.89	2195.42
529.07	1769.44
529.24	1689.87
529.41	2162.66
529.58	1727.32
529.75	1650.08
529.92	1884.13
530.09	1741.36
530.26	1980.09
530.43	2012.86
530.60	1842.00
530.77	1881.79
530.94	1909.88
531.11	1881.79
531.28	1689.87
531.46	1612.63
531.63	1877.11
531.80	1832.64
531.97	1879.45
532.14	1741.36
532.31	1790.51
532.48	1935.62
532.65	2127.55
532.82	2373.30
532.99	2562.89
533.16	2054.99
533.33	2090.10
533.50	1975.41
533.67	2057.33
533.84	2583.95
534.01	3030.99
534.18	2654.17
534.35	2305.43
534.52	2129.89
534.69	2225.85
534.86	1813.92
535.03	1708.59
535.20	1839.66
535.37	2022.22
535.54	1935.62
535.71	1797.53
535.88	2087.76
536.05	1783.49
536.22	1809.23
536.38	1741.36
536.55	1732.00
536.72	1961.37
536.89	1535.39
537.06	1647.74
537.23	1739.02
537.40	1689.87
537.57	1626.67
537.74	1952.01
537.91	1863.07
538.08	1741.36
538.25	1839.66
538.42	1661.78
538.59	1727.32
538.75	1753.06
538.92	1732.00
539.09	2001.16
539.26	1863.07
539.43	2995.89
539.60	5909.85
539.77	9874.72
539.94	10815.62
540.11	7045.01
540.28	4638.94
540.44	3508.46
540.61	2186.06
540.78	1743.70
540.95	1657.10
541.12	2115.84
541.29	1647.74
541.46	2026.90
541.62	1834.98
541.79	1596.25
541.96	1636.03
542.13	1650.08
542.30	1535.39
542.47	1980.09
542.63	1605.61
542.80	1783.49
542.97	2010.52
543.14	1717.95
543.31	1746.04
543.48	1724.97
543.64	1785.83
543.81	1675.82
543.98	1661.78
544.15	1509.65
544.32	1640.72
544.48	1666.46
544.65	1717.95
544.82	1619.65
544.99	1762.42
545.16	1954.35
545.32	1544.75
545.49	1708.59
545.66	1647.74
545.83	1528.37
546.00	1509.65
546.16	1526.03
546.33	1650.08
546.50	1675.82
546.67	1865.41
546.83	1867.75
547.00	1682.85
547.17	1547.09
547.34	1589.22
547.50	1586.88
547.67	1673.48
547.84	1502.62
548.00	1879.45
548.17	1598.59
548.34	1600.93
548.51	2064.35
548.67	1900.52
548.84	1706.25
549.01	1739.02
549.18	1851.36
549.34	1753.06
549.51	1818.60
549.68	1851.36
549.84	1699.23
550.01	1500.28
550.18	2679.91
550.34	2361.60
550.51	1837.32
550.68	2167.34
550.84	1643.06
551.01	1661.78
551.18	1823.28
551.34	1682.85
551.51	1724.97
551.68	1593.90
551.84	1825.62
552.01	1640.72
552.18	1586.88
552.34	1680.50
552.51	1657.10
552.68	1741.36
552.84	1547.09
553.01	1703.91
553.18	1842.00
553.34	1497.94
553.51	1556.46
553.67	1797.53
553.84	2085.42
554.01	1820.94
554.17	1762.42
554.34	1575.18
554.51	1757.74
554.67	1893.49
554.84	1888.81
555.00	1783.49
555.17	1675.82
555.33	1942.64
555.50	1818.60
555.67	1863.07
555.83	1732.00
556.00	1867.75
556.16	3452.29
556.33	1881.79
556.50	1680.50
556.66	1689.87
556.83	1570.50
556.99	1591.56
557.16	1626.67
557.32	1591.56
557.49	1600.93
557.65	1451.13
557.82	1540.07
557.98	1659.44
558.15	1535.39
558.32	1626.67
558.48	1633.69
558.65	1617.31
558.81	1659.44
558.98	1469.86
559.14	1804.55
559.31	1673.48
559.47	1771.79
559.64	1451.13
559.80	1851.36
559.97	1516.67
560.13	1558.80
560.30	1511.99
560.46	1605.61
560.63	1614.97
560.79	1570.50
560.96	1722.63
561.12	1582.20
561.29	1811.57
561.45	1666.46
561.61	1636.03
561.78	2373.30
561.94	1657.10
562.11	1523.69
562.27	1544.75
562.44	1469.86
562.60	1558.80
562.77	1603.27
562.93	2143.93
563.10	1769.44
563.26	1568.16
563.42	1849.02
563.59	1720.29
563.75	1495.60
563.92	1795.19
564.08	1809.23
564.24	1790.51
564.41	2029.24
564.57	1483.90
564.74	1561.14
564.90	1769.44
565.07	1933.28
565.23	1900.52
565.39	1802.21
565.56	2062.01
565.72	1760.08
565.88	1708.59
566.05	1631.35
566.21	1629.01
566.38	1750.72
566.54	1710.93
566.70	1551.78
566.87	1612.63
567.03	1355.17
567.19	1556.46
567.36	1732.00
567.52	1481.56
567.68	1715.61
567.85	1682.85
568.01	1582.20
568.17	1352.83
568.34	1453.47
568.50	1933.28
568.66	1568.16
568.83	2342.88
568.99	1586.88
569.15	1881.79
569.32	1500.28
569.48	1558.80
569.64	1511.99
569.81	1612.63
569.97	1467.52
570.13	1603.27
570.30	1568.16
570.46	1488.58
570.62	1516.67
570.78	1519.01
570.95	1313.04
571.11	1996.48
571.27	1928.60
571.43	1481.56
571.60	1879.45
571.76	1673.48
571.92	1703.91
572.09	1626.67
572.25	1657.10
572.41	1626.67
572.57	1640.72
572.74	1996.48
572.90	1689.87
573.06	1806.89
573.22	1657.10
573.38	1839.66
573.55	1795.19
573.71	1851.36
573.87	1675.82
574.03	1589.22
574.20	1610.29
574.36	2143.93
574.52	2139.25
574.68	2272.66
574.84	2214.15
575.01	1907.54
575.17	1849.02
575.33	1586.88
575.49	1816.26
575.65	1966.05
575.82	2291.38
575.98	3616.13
576.14	4486.81
576.30	4861.29
576.46	3702.73
576.62	2855.45
576.79	2553.52
576.95	2356.92
577.11	1783.49
577.27	1610.29
577.43	2012.86
577.59	2097.12
577.75	1944.99
577.92	1795.19
578.08	1732.00
578.24	1633.69
578.40	2005.84
578.56	2111.16
578.72	2078.40
578.88	2026.90
579.04	1963.71
579.21	1898.17
579.37	1720.29
579.53	1844.34
579.69	2169.68
579.85	2012.86
580.01	2303.09
580.17	2342.88
580.33	2455.22
580.49	2363.94
580.65	2387.35
580.82	2221.17
580.98	2040.95
581.14	2148.61
581.30	2583.95
581.46	2693.96
581.62	3644.21
581.78	3967.21
581.94	3899.33
582.10	3091.85
582.26	2944.39
582.42	2635.44
582.58	2745.45
582.74	2525.44
582.90	2679.91
583.06	2949.08
583.22	2834.39
583.38	2988.86
583.54	3068.44
583.70	4077.21
583.86	4367.44
584.02	4774.69
584.18	5825.59
584.34	7258.00
584.50	18176.60
584.66	65535.00
584.82	65535.00
584.98	65535.00
585.14	65535.00
585.30	65535.00
585.46	65535.00
585.62	65535.00
585.78	58447.86
585.94	20971.20
586.10	10106.43
586.26	6502.01
586.42	5556.43
586.58	4435.32
586.74	3967.21
586.90	3981.25
587.06	3852.52
587.22	3524.85
587.38	3365.69
587.54	6511.37
587.70	20063.07
587.86	37446.23
588.02	46405.80
588.18	32367.27
588.34	18979.40
588.49	12512.50
588.65	7599.72
588.81	4133.39
588.97	2473.95
589.13	2115.84
589.29	2062.01
589.45	2225.85
589.61	1977.75
589.77	2754.81
589.93	2766.51
590.08	2972.48
590.24	2956.10
590.40	2813.32
590.56	2691.62
590.72	2183.72
590.88	2040.95
591.04	2347.56
591.20	2150.95
591.35	2345.22
591.51	2026.90
591.67	1891.15
591.83	1907.54
591.99	2069.03
592.15	2003.50
592.31	1954.35
592.46	1865.41
592.62	2033.93
592.78	1792.85
592.94	1771.79
593.10	1804.55
593.26	1954.35
593.41	2328.83
593.57	2375.64
593.73	3339.94
593.89	15721.38
594.05	43866.32
594.20	60938.19
594.36	60690.09
594.52	46976.89
594.68	28336.87
594.84	18972.38
594.99	10436.45
595.15	4910.44
595.31	3075.46
595.47	2731.41
595.62	2174.36
595.78	2062.01
595.94	1982.43
596.10	2333.51
596.25	2284.36
596.41	2380.32
596.57	1956.69
596.73	2001.16
596.88	3089.51
597.04	7969.52
597.20	14508.98
597.36	19318.78
597.51	14354.51
597.67	9076.60
597.83	6267.95
597.99	4641.28
598.14	2895.24
598.30	2504.37
598.46	2113.50
598.61	2389.69
598.77	2099.46
598.93	1881.79
599.09	1893.49
599.24	1895.83
599.40	1832.64
599.56	1647.74
599.71	1666.46
599.87	1643.06
600.03	1713.27
600.18	1591.56
600.34	1621.99
600.50	1582.20
600.65	1420.71
600.81	1809.23
600.97	1514.33
601.12	1572.84
601.28	1802.21
601.44	1610.29
601.59	1495.60
601.75	1717.95
601.91	1570.50
602.06	1755.40
602.22	2569.91
602.37	4070.19
602.53	9820.89
602.69	18120.43
602.84	20723.10
603.00	14434.08
603.16	9423.00
603.31	6722.02
603.47	4636.60
603.62	2736.09
603.78	2120.53
603.94	1956.69
604.09	1802.21
604.25	1954.35
604.40	1952.01
604.56	1636.03
604.71	1652.42
604.87	1640.72
605.03	1825.62
605.18	1722.63
605.34	2043.29
605.49	1849.02
605.65	1774.13
605.80	1769.44
605.96	1998.82
606.12	2099.46
606.27	2174.36
606.43	2125.21
606.58	2548.84
606.74	4896.40
606.89	19721.35
607.05	44793.17
607.20	58066.35
607.36	52179.90
607.51	35391.24
607.67	22410.63
607.82	14923.26
607.98	8486.78
608.13	4367.44
608.29	3052.06
608.44	2876.52
608.60	2717.36
608.75	3190.15
608.91	6820.32
609.06	30773.36
609.22	60561.36
609.37	65535.00
609.53	65535.00
609.68	61303.31
609.84	40278.28
609.99	27267.24
610.15	14483.24
610.30	6626.06
610.46	3927.42
610.61	2822.69
610.76	2363.94
610.92	2324.15
611.07	2015.20
611.23	2750.13
611.38	2223.51
611.54	1975.41
611.69	1874.77
611.84	1898.17
612.00	1881.79
612.15	2010.52
612.31	2590.97
612.46	3566.98
612.62	4533.62
612.77	4723.20
612.92	3833.80
613.08	3658.26
613.23	3438.25
613.39	3403.14
613.54	5053.22
613.69	27290.65
613.85	63915.35
614.00	65535.00
614.15	65535.00
614.31	65535.00
614.46	65535.00
614.62	51648.60
614.77	31882.78
614.92	13797.46
615.08	6494.99
615.23	3920.40
615.38	3328.24
615.54	2944.39
615.69	5214.71
615.84	16205.87
616.00	34405.88
616.15	47594.79
616.30	39512.92
616.46	25900.37
616.61	16257.36
616.76	11030.94
616.92	6183.70
617.07	3328.24
617.22	2459.90
617.37	2111.16
617.53	2031.58
617.68	1905.20
617.83	1919.24
617.99	2265.64
618.14	2216.49
618.29	2134.57
618.45	1839.66
618.60	1689.87
618.75	1523.69
618.90	1444.11
619.06	1537.73
619.21	2031.58
619.36	1802.21
619.51	1490.92
619.67	1455.81
619.82	1401.98
619.97	1582.20
620.12	1750.72
620.28	1710.93
620.43	1685.19
620.58	1741.36
620.73	1722.63
620.89	1809.23
621.04	3080.14
621.19	8973.61
621.34	18576.83
621.49	28142.60
621.65	25589.08
621.80	17032.08
621.95	10951.37
622.10	7990.59
622.25	4517.23
622.41	2785.24
622.56	2029.24
622.71	1734.34
622.86	1865.41
623.01	1528.37
623.16	1853.70
623.32	1348.15
623.47	1605.61
623.62	1427.73
623.77	1439.43
623.92	1453.47
624.07	1462.83
624.23	1460.49
624.38	1434.75
624.53	1591.56
624.68	1804.55
624.83	1823.28
624.98	1715.61
625.13	1598.59
625.29	1434.75
625.44	1713.27
625.59	1921.58
625.74	2237.55
625.89	3243.98
626.04	12912.74
626.19	42398.80
626.34	62239.53
626.49	65535.00
626.65	59758.56
626.80	45893.22
626.95	30260.79
627.10	18270.22
627.25	8975.95
627.40	4252.75
627.55	2834.39
627.70	2003.50
627.85	1975.41
628.00	1760.08
628.15	1521.35
628.30	1685.19
628.45	1474.54
628.60	1563.48
628.76	1551.78
628.91	1474.54
629.06	1591.56
629.21	1535.39
629.36	1870.09
629.51	1394.96
629.66	1701.57
629.81	2471.61
629.96	7534.18
630.11	16060.76
630.26	24306.46
630.41	22017.42
630.56	15117.52
630.71	9975.36
630.86	7075.44
631.01	4287.86
631.16	2679.91
631.31	2331.17
631.46	1944.99
631.61	1621.99
631.76	1755.40
631.91	1624.33
632.06	1853.70
632.21	1818.60
632.36	1984.77
632.51	2017.54
632.66	2597.99
632.81	6614.35
632.96	23075.34
633.10	46396.44
633.25	57961.03
633.40	51283.48
633.55	36486.61
633.70	23676.86
633.85	15625.42
634.00	7850.16
634.15	4131.05
634.30	2712.68
634.45	2232.87
634.60	1844.34
634.75	1547.09
634.90	1577.52
635.05	1736.68
635.19	1558.80
635.34	1603.27
635.49	1689.87
635.64	1547.09
635.79	1495.60
635.94	1717.95
636.09	1753.06
636.24	1687.53
636.39	1710.93
636.53	2003.50
636.68	1629.01
636.83	1778.81
636.98	2136.91
637.13	1771.79
637.28	2310.11
637.43	2864.82
637.57	4065.51
637.72	19005.15
637.87	53394.64
638.02	65535.00
638.17	65535.00
638.32	65535.00
638.46	56353.08
638.61	39859.32
638.76	24044.32
638.91	11349.26
639.06	5856.02
639.20	4435.32
639.35	3878.27
639.50	5699.20
639.65	28797.95
639.80	64542.61
639.94	65535.00
640.09	65535.00
640.24	65535.00
640.39	65535.00
640.54	58454.88
640.68	37593.68
640.83	17729.56
640.98	7927.39
641.13	4407.23
641.27	2977.16
641.42	2485.65
641.57	2431.82
641.72	2043.29
641.86	1956.69
642.01	1629.01
642.16	1792.85
642.31	1544.75
642.45	1989.46
642.60	1893.49
642.75	1376.24
642.90	1666.46
643.04	1338.79
643.19	1280.27
643.34	1369.21
643.48	1341.13
643.63	1315.38
643.78	1593.90
643.93	1753.06
644.07	1348.15
644.22	1336.45
644.37	1247.51
644.51	1584.54
644.66	1420.71
644.81	1329.42
644.95	1519.01
645.10	1200.69
645.25	1114.10
645.39	1551.78
645.54	1219.42
645.69	1645.40
645.83	1114.10
645.98	1905.20
646.13	1062.60
646.27	1355.17
646.42	1109.41
646.57	1198.35
646.71	1102.39
646.86	1090.69
647.00	1249.85
647.15	1355.17
647.30	1081.33
647.44	1266.23
647.59	1046.22
647.74	994.73
647.88	1299.00
648.03	992.39
648.17	1502.62
648.32	1196.01
648.47	1261.55
648.61	1249.85
648.76	1219.42
648.90	1289.64
649.05	1336.45
649.20	1116.44
649.34	1387.94
649.49	1413.68
649.63	1563.48
649.78	1715.61
649.92	2471.61
650.07	10752.42
650.21	36374.27
650.36	59826.43
650.51	65535.00
650.65	63330.22
650.80	52552.05
650.94	36208.09
651.09	22494.89
651.23	11412.45
651.38	5479.19
651.52	3133.98
651.67	2064.35
651.81	1781.15
651.96	2003.50
652.10	1673.48
652.25	1516.67
652.39	1699.23
652.54	1762.42
652.68	3426.54
652.83	11080.10
652.97	23620.69
653.12	35037.82
653.26	30969.97
653.41	22153.17
653.55	14464.51
653.70	9191.28
653.84	5357.49
653.99	2925.67
654.13	1799.87
654.27	1481.56
654.42	1282.61
654.56	1275.59
654.71	1341.13
654.85	1025.15
655.00	1006.43
655.14	1123.46
655.29	971.32
655.43	1254.53
655.57	1188.99
655.72	903.45
655.86	1121.12
656.01	1130.48
656.15	985.37
656.30	1359.85
656.44	959.62
656.58	905.79
656.73	1027.50
656.87	961.96
657.01	1081.33
657.16	1373.89
657.30	1240.48
657.45	1441.77
657.59	1130.48
657.73	1025.15
657.88	1188.99
658.02	1750.72
658.16	1132.82
658.31	1128.14
658.45	1004.09
658.60	1041.54
658.74	1158.57
658.88	1088.35
659.03	1320.06
659.17	1596.25
659.31	4589.79
659.46	15672.23
659.60	34068.84
659.74	48196.31
659.89	43480.13
660.03	31534.04
660.17	21404.20
660.32	12643.57
660.46	7269.70
660.60	3990.61
660.74	2684.59
660.89	1823.28
661.03	1355.17
661.17	1245.16
661.32	1102.39
661.46	1224.10
661.60	1156.22
661.74	1313.04
661.89	1299.00
662.03	1233.46
662.17	1022.81
662.31	1095.37
662.46	1224.10
662.60	1100.05
662.74	1128.14
662.88	1207.72
663.03	976.00
663.17	891.74
663.31	1149.20
663.45	1128.14
663.60	1057.92
663.74	968.98
663.88	891.74
664.02	1174.95
664.17	1025.15
664.31	976.00
664.45	1210.06
664.59	1060.26
664.73	1057.92
664.88	1343.47
665.02	1137.50
665.16	1245.16
665.30	1514.33
665.44	1165.59
665.59	1418.36
665.73	1254.53
665.87	1116.44
666.01	1088.35
666.15	1097.71
666.29	1111.75
666.44	1650.08
666.58	1811.57
666.72	1266.23
666.86	1345.81
667.00	1898.17
667.14	2562.89
667.28	9523.64
667.43	30824.86
667.57	55487.08
667.71	64123.66
667.85	59948.14
667.99	51292.84
668.13	33614.77
668.27	18920.89
668.41	10480.92
668.56	5851.34
668.70	3754.22
668.84	2413.09
668.98	2062.01
669.12	1380.92
669.26	1390.28
669.40	1891.15
669.54	1409.00
669.68	1401.98
669.82	1156.22
669.96	1093.03
670.10	1128.14
670.25	1366.87
670.39	1376.24
670.53	1165.59
670.67	1348.15
670.81	1170.27
670.95	1614.97
671.09	2675.23
671.23	11047.33
671.37	27480.23
671.51	46129.62
671.65	51421.57
671.79	40620.00
671.93	28191.75
672.07	17163.15
672.21	9561.09
672.35	5483.88
672.49	3185.47
672.63	2443.52
672.77	1703.91
672.91	1401.98
673.05	1219.42
673.19	1188.99
673.33	961.96
673.47	1535.39
673.61	1057.92
673.75	1006.43
673.89	999.41
674.03	1203.04
674.17	959.62
674.31	968.98
674.45	1109.41
674.59	1083.67
674.73	999.41
674.87	1174.95
675.01	1462.83
675.15	1434.75
675.29	1727.32
675.43	1568.16
675.56	1483.90
675.70	1399.64
675.84	1067.28
675.98	1025.15
676.12	746.63
676.26	943.24
676.40	723.23
676.54	929.19
676.68	866.00
676.82	1036.86
676.96	826.21
677.10	968.98
677.23	807.48
677.37	755.99
677.51	896.43
677.65	1397.30
677.79	884.72
677.93	692.80
678.07	903.45
678.21	763.01
678.34	781.74
678.48	767.70
678.62	924.51
678.76	648.33
678.90	910.47
679.04	894.08
679.18	755.99
679.31	748.97
679.45	685.78
679.59	866.00
679.73	884.72
679.87	629.60
680.00	894.08
680.14	880.04
680.28	912.81
680.42	807.48
680.56	997.07
680.70	685.78
680.83	940.90
680.97	671.73
681.11	748.97
681.25	987.71
681.39	753.65
681.52	917.49
681.66	943.24
681.80	983.02
681.94	725.57
682.07	802.80
682.21	905.79
682.35	671.73
682.49	758.33
682.62	983.02
682.76	760.67
682.90	727.91
683.04	952.60
683.17	940.90
683.31	800.46
683.45	983.02
683.59	1069.62
683.72	1046.22
683.86	896.43
684.00	755.99
684.13	1053.24
684.27	919.83
684.41	915.15
684.55	842.59
684.68	807.48
684.82	695.14
684.96	678.76
685.09	791.10
685.23	608.54
685.37	653.01
685.50	1022.81
685.64	994.73
685.78	683.44
685.91	905.79
686.05	1029.84
686.19	823.87
686.32	798.12
686.46	763.01
686.60	521.94
686.73	1371.55
686.87	1235.80
687.01	1015.79
687.14	1029.84
687.28	961.96
687.42	929.19
687.55	814.51
687.69	1062.60
687.82	781.74
687.96	713.86
688.10	987.71
688.23	704.50
688.37	1235.80
688.50	919.83
688.64	772.38
688.78	650.67
688.91	676.41
689.05	695.14
689.18	589.82
689.32	697.48
689.46	638.97
689.59	833.23
689.73	968.98
689.86	582.79
690.00	737.27
690.13	676.41
690.27	564.07
690.41	786.42
690.54	908.13
690.68	774.72
690.81	727.91
690.95	763.01
691.08	849.61
691.22	690.46
691.35	840.25
691.49	631.94
691.62	826.21
691.76	699.82
691.89	823.87
692.03	814.51
692.16	732.59
692.30	1270.91
692.43	3595.06
692.57	12217.60
692.70	24992.24
692.84	37745.82
692.97	35218.04
693.11	25177.14
693.24	18778.12
693.38	12582.72
693.51	7906.33
693.65	5348.12
693.78	3531.87
693.92	2146.27
694.05	1631.35
694.19	1062.60
694.32	1090.69
694.45	936.21
694.59	779.40
694.72	751.31
694.86	739.61
694.99	919.83
695.13	739.61
695.26	826.21
695.39	802.80
695.53	1338.79
695.66	809.83
695.80	877.70
695.93	702.16
696.07	924.51
696.20	1476.88
696.33	2181.38
696.47	2895.24
696.60	2668.21
696.73	2253.94
696.87	1757.74
697.00	1797.53
697.14	1210.06
697.27	1011.11
697.40	1460.49
697.54	657.69
697.67	833.23
697.80	795.78
697.94	695.14
698.07	695.14
698.21	608.54
698.34	866.00
698.47	594.50
698.61	564.07
698.74	519.60
698.87	828.55
699.01	645.99
699.14	622.58
699.27	837.91
699.40	1694.55
699.54	732.59
699.67	669.39
699.80	645.99
699.94	585.13
700.07	613.22
700.20	585.13
700.34	718.54
700.47	587.47
700.60	601.52
700.73	678.76
700.87	1036.86
701.00	692.80
701.13	746.63
701.26	791.10
701.40	758.33
701.53	699.82
701.66	713.86
701.79	882.38
701.93	1011.11
702.06	1797.53
702.19	2003.50
702.32	2923.33
702.46	2860.13
702.59	2778.22
702.72	4695.11
702.85	16149.70
702.99	38576.71
703.12	55683.69
703.25	61024.79
703.38	57034.17
703.51	50436.20
703.65	40910.22
703.78	28905.62
703.91	18558.11
704.04	11482.67
704.17	6995.86
704.31	4044.45
704.44	2511.39
704.57	1944.99
704.70	1418.36
704.83	1170.27
704.96	1055.58
705.10	1029.84
705.23	903.45
>>>>>End Processed Spectral Data<<<<<
