SpectraSuite Data File
++++++++++++++++++++++++++++++++++++
Date: Fri Oct 04 11:33:48 GMT-05:00 2013
User: price-jones
Dark Spectrum Present: No
Reference Spectrum Present: No
Number of Sampled Component Spectra: 1
Spectrometers: USB2+H05261
Integration Time (usec): 100000 (USB2+H05261)
Spectra Averaged: 1 (USB2+H05261)
Boxcar Smoothing: 0 (USB2+H05261)
Correct for Electrical Dark: No (USB2+H05261)
Strobe/Lamp Enabled: No (USB2+H05261)
Correct for Detector Non-linearity: No (USB2+H05261)
Correct for Stray Light: No (USB2+H05261)
Number of Pixels in Processed Spectrum: 2048
>>>>>Begin Processed Spectral Data<<<<<
365.73	88.94
365.92	88.94
366.12	88.94
366.32	23.41
366.52	30.43
366.72	7.02
366.91	4.68
367.11	0.00
367.31	0.00
367.51	0.00
367.70	0.00
367.90	0.00
368.10	4.68
368.30	0.00
368.49	0.00
368.69	11.70
368.89	0.00
369.09	0.00
369.28	0.00
369.48	0.00
369.68	0.00
369.87	23.41
370.07	0.00
370.27	72.56
370.47	65.54
370.66	67.88
370.86	95.96
371.06	81.92
371.25	175.54
371.45	147.45
371.65	79.58
371.84	159.16
372.04	74.90
372.24	135.75
372.44	95.96
372.63	145.11
372.83	152.13
373.03	138.09
373.22	135.75
373.42	177.88
373.62	124.05
373.81	98.30
374.01	131.07
374.21	131.07
374.40	145.11
374.60	117.03
374.79	79.58
374.99	168.52
375.19	208.31
375.38	98.30
375.58	126.39
375.78	102.98
375.97	102.98
376.17	297.25
376.37	105.32
376.56	173.20
376.76	187.24
376.95	138.09
377.15	100.64
377.35	163.84
377.54	149.79
377.74	201.29
377.93	161.50
378.13	114.69
378.33	163.84
378.52	175.54
378.72	156.82
378.91	145.11
379.11	184.90
379.31	119.37
379.50	77.24
379.70	182.56
379.89	156.82
380.09	126.39
380.28	154.48
380.48	187.24
380.68	107.66
380.87	58.51
381.07	145.11
381.26	112.35
381.46	161.50
381.65	177.88
381.85	117.03
382.04	133.41
382.24	88.94
382.43	56.17
382.63	117.03
382.83	117.03
383.02	191.92
383.22	93.62
383.41	84.26
383.61	159.16
383.80	142.77
384.00	201.29
384.19	114.69
384.39	177.88
384.58	173.20
384.78	212.99
384.97	168.52
385.17	128.73
385.36	67.88
385.56	140.43
385.75	121.71
385.95	95.96
386.14	124.05
386.34	124.05
386.53	156.82
386.72	170.86
386.92	173.20
387.11	128.73
387.31	161.50
387.50	142.77
387.70	177.88
387.89	145.11
388.09	180.22
388.28	152.13
388.48	152.13
388.67	180.22
388.86	217.67
389.06	210.65
389.25	110.01
389.45	131.07
389.64	95.96
389.84	74.90
390.03	191.92
390.22	175.54
390.42	100.64
390.61	124.05
390.81	133.41
391.00	173.20
391.19	220.01
391.39	110.01
391.58	107.66
391.78	194.26
391.97	124.05
392.16	84.26
392.36	140.43
392.55	161.50
392.75	121.71
392.94	156.82
393.13	142.77
393.33	217.67
393.52	86.60
393.71	117.03
393.91	105.32
394.10	140.43
394.29	168.52
394.49	126.39
394.68	124.05
394.88	180.22
395.07	243.42
395.26	107.66
395.46	170.86
395.65	184.90
395.84	161.50
396.04	191.92
396.23	175.54
396.42	203.63
396.62	205.97
396.81	119.37
397.00	159.16
397.19	173.20
397.39	170.86
397.58	142.77
397.77	121.71
397.97	145.11
398.16	98.30
398.35	163.84
398.55	112.35
398.74	126.39
398.93	168.52
399.12	177.88
399.32	133.41
399.51	107.66
399.70	187.24
399.90	126.39
400.09	194.26
400.28	121.71
400.47	114.69
400.67	140.43
400.86	145.11
401.05	217.67
401.24	170.86
401.44	67.88
401.63	86.60
401.82	201.29
402.01	117.03
402.21	112.35
402.40	114.69
402.59	173.20
402.78	140.43
402.97	107.66
403.17	131.07
403.36	117.03
403.55	182.56
403.74	124.05
403.93	203.63
404.13	217.67
404.32	138.09
404.51	149.79
404.70	121.71
404.89	142.77
405.09	138.09
405.28	163.84
405.47	117.03
405.66	189.58
405.85	161.50
406.05	147.45
406.24	156.82
406.43	210.65
406.62	170.86
406.81	227.03
407.00	205.97
407.20	156.82
407.39	140.43
407.58	198.95
407.77	124.05
407.96	184.90
408.15	159.16
408.34	173.20
408.54	173.20
408.73	131.07
408.92	198.95
409.11	173.20
409.30	140.43
409.49	145.11
409.68	138.09
409.87	177.88
410.07	203.63
410.26	140.43
410.45	131.07
410.64	152.13
410.83	198.95
411.02	217.67
411.21	173.20
411.40	182.56
411.59	135.75
411.78	175.54
411.98	128.73
412.17	205.97
412.36	124.05
412.55	91.28
412.74	168.52
412.93	180.22
413.12	105.32
413.31	110.01
413.50	198.95
413.69	182.56
413.88	196.60
414.07	156.82
414.26	147.45
414.45	138.09
414.64	177.88
414.83	156.82
415.02	180.22
415.22	163.84
415.41	194.26
415.60	121.71
415.79	177.88
415.98	241.08
416.17	126.39
416.36	201.29
416.55	203.63
416.74	191.92
416.93	126.39
417.12	159.16
417.31	100.64
417.50	170.86
417.69	138.09
417.88	285.55
418.07	205.97
418.26	135.75
418.45	142.77
418.64	180.22
418.83	159.16
419.02	126.39
419.21	182.56
419.39	250.44
419.58	201.29
419.77	140.43
419.96	156.82
420.15	168.52
420.34	126.39
420.53	196.60
420.72	131.07
420.91	149.79
421.10	220.01
421.29	159.16
421.48	88.94
421.67	175.54
421.86	98.30
422.05	168.52
422.24	170.86
422.43	149.79
422.61	133.41
422.80	224.69
422.99	180.22
423.18	131.07
423.37	203.63
423.56	201.29
423.75	124.05
423.94	152.13
424.13	161.50
424.32	189.58
424.50	154.48
424.69	177.88
424.88	182.56
425.07	102.98
425.26	180.22
425.45	234.05
425.64	182.56
425.83	175.54
426.01	196.60
426.20	149.79
426.39	145.11
426.58	102.98
426.77	173.20
426.96	168.52
427.15	175.54
427.33	203.63
427.52	166.18
427.71	191.92
427.90	121.71
428.09	100.64
428.28	128.73
428.46	84.26
428.65	140.43
428.84	220.01
429.03	224.69
429.22	156.82
429.40	184.90
429.59	98.30
429.78	210.65
429.97	142.77
430.16	159.16
430.34	210.65
430.53	152.13
430.72	161.50
430.91	142.77
431.10	135.75
431.28	245.76
431.47	220.01
431.66	222.35
431.85	198.95
432.03	182.56
432.22	173.20
432.41	128.73
432.60	140.43
432.79	140.43
432.97	238.73
433.16	205.97
433.35	212.99
433.54	170.86
433.72	168.52
433.91	175.54
434.10	173.20
434.28	156.82
434.47	149.79
434.66	229.37
434.85	180.22
435.03	175.54
435.22	292.57
435.41	433.00
435.59	348.74
435.78	269.16
435.97	189.58
436.16	205.97
436.34	205.97
436.53	285.55
436.72	107.66
436.90	177.88
437.09	145.11
437.28	194.26
437.46	187.24
437.65	177.88
437.84	138.09
438.02	180.22
438.21	255.12
438.40	135.75
438.58	191.92
438.77	198.95
438.96	229.37
439.14	170.86
439.33	156.82
439.52	124.05
439.70	212.99
439.89	257.46
440.08	201.29
440.26	147.45
440.45	194.26
440.63	194.26
440.82	215.33
441.01	173.20
441.19	166.18
441.38	145.11
441.57	175.54
441.75	154.48
441.94	173.20
442.12	170.86
442.31	161.50
442.50	175.54
442.68	77.24
442.87	196.60
443.05	147.45
443.24	126.39
443.43	248.10
443.61	236.39
443.80	255.12
443.98	196.60
444.17	168.52
444.35	145.11
444.54	163.84
444.73	177.88
444.91	170.86
445.10	175.54
445.28	224.69
445.47	170.86
445.65	191.92
445.84	177.88
446.02	229.37
446.21	210.65
446.39	177.88
446.58	166.18
446.77	156.82
446.95	166.18
447.14	283.20
447.32	236.39
447.51	170.86
447.69	229.37
447.88	156.82
448.06	229.37
448.25	198.95
448.43	166.18
448.62	135.75
448.80	154.48
448.99	227.03
449.17	166.18
449.36	198.95
449.54	250.44
449.73	110.01
449.91	152.13
450.10	196.60
450.28	191.92
450.46	220.01
450.65	227.03
450.83	177.88
451.02	222.35
451.20	208.31
451.39	184.90
451.57	163.84
451.76	203.63
451.94	142.77
452.13	145.11
452.31	194.26
452.49	191.92
452.68	208.31
452.86	177.88
453.05	198.95
453.23	196.60
453.42	191.92
453.60	161.50
453.78	205.97
453.97	133.41
454.15	126.39
454.34	145.11
454.52	154.48
454.70	117.03
454.89	255.12
455.07	149.79
455.26	173.20
455.44	236.39
455.62	227.03
455.81	224.69
455.99	243.42
456.17	231.71
456.36	187.24
456.54	241.08
456.73	138.09
456.91	124.05
457.09	149.79
457.28	121.71
457.46	182.56
457.64	250.44
457.83	175.54
458.01	212.99
458.19	156.82
458.38	241.08
458.56	124.05
458.74	147.45
458.93	159.16
459.11	203.63
459.29	124.05
459.48	156.82
459.66	294.91
459.84	234.05
460.03	252.78
460.21	217.67
460.39	110.01
460.57	234.05
460.76	170.86
460.94	182.56
461.12	259.80
461.31	133.41
461.49	205.97
461.67	208.31
461.85	189.58
462.04	173.20
462.22	617.90
462.40	212.99
462.59	182.56
462.77	173.20
462.95	217.67
463.13	168.52
463.32	184.90
463.50	201.29
463.68	227.03
463.86	222.35
464.05	177.88
464.23	222.35
464.41	248.10
464.59	203.63
464.78	152.13
464.96	114.69
465.14	227.03
465.32	187.24
465.50	236.39
465.69	173.20
465.87	175.54
466.05	175.54
466.23	205.97
466.41	212.99
466.60	234.05
466.78	184.90
466.96	198.95
467.14	266.82
467.32	231.71
467.51	252.78
467.69	208.31
467.87	217.67
468.05	159.16
468.23	140.43
468.41	180.22
468.60	149.79
468.78	117.03
468.96	175.54
469.14	154.48
469.32	152.13
469.50	224.69
469.69	210.65
469.87	252.78
470.05	222.35
470.23	222.35
470.41	187.24
470.59	241.08
470.77	194.26
470.95	163.84
471.14	245.76
471.32	201.29
471.50	210.65
471.68	180.22
471.86	191.92
472.04	128.73
472.22	156.82
472.40	180.22
472.58	187.24
472.77	131.07
472.95	208.31
473.13	266.82
473.31	191.92
473.49	189.58
473.67	170.86
473.85	217.67
474.03	184.90
474.21	189.58
474.39	198.95
474.57	173.20
474.75	210.65
474.93	182.56
475.12	215.33
475.30	156.82
475.48	182.56
475.66	231.71
475.84	264.48
476.02	201.29
476.20	227.03
476.38	173.20
476.56	248.10
476.74	215.33
476.92	149.79
477.10	210.65
477.28	175.54
477.46	149.79
477.64	224.69
477.82	252.78
478.00	166.18
478.18	229.37
478.36	252.78
478.54	220.01
478.72	149.79
478.90	203.63
479.08	205.97
479.26	198.95
479.44	142.77
479.62	215.33
479.80	191.92
479.98	236.39
480.16	124.05
480.34	180.22
480.52	217.67
480.70	220.01
480.88	198.95
481.06	194.26
481.24	231.71
481.41	215.33
481.59	163.84
481.77	231.71
481.95	161.50
482.13	224.69
482.31	250.44
482.49	187.24
482.67	203.63
482.85	222.35
483.03	276.18
483.21	285.55
483.39	283.20
483.57	208.31
483.74	203.63
483.92	201.29
484.10	224.69
484.28	191.92
484.46	285.55
484.64	156.82
484.82	252.78
485.00	191.92
485.18	140.43
485.35	278.52
485.53	159.16
485.71	220.01
485.89	241.08
486.07	184.90
486.25	259.80
486.43	227.03
486.61	238.73
486.78	250.44
486.96	222.35
487.14	255.12
487.32	224.69
487.50	257.46
487.68	182.56
487.85	227.03
488.03	217.67
488.21	203.63
488.39	234.05
488.57	283.20
488.75	205.97
488.92	482.15
489.10	222.35
489.28	304.27
489.46	243.42
489.64	257.46
489.81	222.35
489.99	205.97
490.17	262.14
490.35	337.04
490.53	231.71
490.70	241.08
490.88	238.73
491.06	236.39
491.24	182.56
491.41	222.35
491.59	208.31
491.77	259.80
491.95	215.33
492.13	243.42
492.30	241.08
492.48	238.73
492.66	215.33
492.84	220.01
493.01	234.05
493.19	163.84
493.37	266.82
493.54	184.90
493.72	280.86
493.90	255.12
494.08	210.65
494.25	203.63
494.43	325.33
494.61	210.65
494.79	215.33
494.96	161.50
495.14	201.29
495.32	294.91
495.49	217.67
495.67	287.89
495.85	248.10
496.02	269.16
496.20	325.33
496.38	299.59
496.55	280.86
496.73	283.20
496.91	257.46
497.09	229.37
497.26	287.89
497.44	266.82
497.62	227.03
497.79	273.84
497.97	140.43
498.14	166.18
498.32	262.14
498.50	266.82
498.67	308.95
498.85	290.23
499.03	318.31
499.20	135.75
499.38	231.71
499.56	294.91
499.73	276.18
499.91	245.76
500.08	262.14
500.26	285.55
500.44	236.39
500.61	222.35
500.79	224.69
500.97	212.99
501.14	234.05
501.32	322.99
501.49	250.44
501.67	248.10
501.84	231.71
502.02	252.78
502.20	236.39
502.37	220.01
502.55	236.39
502.72	264.48
502.90	203.63
503.07	278.52
503.25	250.44
503.43	278.52
503.60	227.03
503.78	229.37
503.95	252.78
504.13	189.58
504.30	280.86
504.48	311.29
504.65	320.65
504.83	271.50
505.01	201.29
505.18	208.31
505.36	243.42
505.53	217.67
505.71	238.73
505.88	229.37
506.06	234.05
506.23	229.37
506.41	245.76
506.58	210.65
506.76	264.48
506.93	346.40
507.11	266.82
507.28	231.71
507.46	177.88
507.63	280.86
507.81	262.14
507.98	348.74
508.16	262.14
508.33	280.86
508.50	255.12
508.68	276.18
508.85	259.80
509.03	217.67
509.20	210.65
509.38	243.42
509.55	348.74
509.73	285.55
509.90	313.63
510.08	241.08
510.25	252.78
510.42	252.78
510.60	222.35
510.77	297.25
510.95	271.50
511.12	299.59
511.30	341.72
511.47	191.92
511.64	346.40
511.82	147.45
511.99	208.31
512.17	290.23
512.34	238.73
512.51	215.33
512.69	271.50
512.86	224.69
513.04	248.10
513.21	252.78
513.38	330.02
513.56	332.36
513.73	222.35
513.90	212.99
514.08	212.99
514.25	210.65
514.43	365.12
514.60	208.31
514.77	208.31
514.95	222.35
515.12	259.80
515.29	196.60
515.47	276.18
515.64	187.24
515.81	205.97
515.99	341.72
516.16	243.42
516.33	227.03
516.51	194.26
516.68	369.80
516.85	227.03
517.03	280.86
517.20	191.92
517.37	234.05
517.54	210.65
517.72	189.58
517.89	229.37
518.06	238.73
518.24	280.86
518.41	273.84
518.58	287.89
518.75	241.08
518.93	266.82
519.10	294.91
519.27	163.84
519.45	222.35
519.62	271.50
519.79	327.68
519.96	208.31
520.14	245.76
520.31	313.63
520.48	290.23
520.65	245.76
520.83	224.69
521.00	280.86
521.17	201.29
521.34	257.46
521.52	238.73
521.69	208.31
521.86	285.55
522.03	278.52
522.20	304.27
522.38	220.01
522.55	236.39
522.72	191.92
522.89	250.44
523.07	241.08
523.24	241.08
523.41	294.91
523.58	224.69
523.75	220.01
523.92	224.69
524.10	201.29
524.27	259.80
524.44	273.84
524.61	283.20
524.78	210.65
524.96	304.27
525.13	250.44
525.30	299.59
525.47	287.89
525.64	229.37
525.81	278.52
525.98	208.31
526.16	266.82
526.33	271.50
526.50	245.76
526.67	142.77
526.84	201.29
527.01	304.27
527.18	322.99
527.36	318.31
527.53	290.23
527.70	234.05
527.87	231.71
528.04	344.06
528.21	227.03
528.38	227.03
528.55	320.65
528.72	301.93
528.89	318.31
529.07	308.95
529.24	245.76
529.41	271.50
529.58	198.95
529.75	322.99
529.92	313.63
530.09	264.48
530.26	311.29
530.43	294.91
530.60	297.25
530.77	266.82
530.94	269.16
531.11	318.31
531.28	287.89
531.46	257.46
531.63	283.20
531.80	292.57
531.97	353.42
532.14	257.46
532.31	224.69
532.48	273.84
532.65	346.40
532.82	248.10
532.99	325.33
533.16	276.18
533.33	327.68
533.50	367.46
533.67	367.46
533.84	353.42
534.01	330.02
534.18	351.08
534.35	294.91
534.52	250.44
534.69	241.08
534.86	276.18
535.03	250.44
535.20	266.82
535.37	341.72
535.54	411.93
535.71	278.52
535.88	290.23
536.05	287.89
536.22	290.23
536.38	313.63
536.55	191.92
536.72	290.23
536.89	266.82
537.06	245.76
537.23	315.97
537.40	311.29
537.57	311.29
537.74	301.93
537.91	313.63
538.08	355.76
538.25	311.29
538.42	348.74
538.59	325.33
538.75	318.31
538.92	264.48
539.09	348.74
539.26	395.55
539.43	468.11
539.60	751.31
539.77	828.55
539.94	800.46
540.11	678.76
540.28	545.34
540.44	498.53
540.61	423.64
540.78	491.51
540.95	442.36
541.12	456.40
541.29	447.04
541.46	543.00
541.62	489.17
541.79	479.81
541.96	414.27
542.13	430.66
542.30	383.85
542.47	472.79
542.63	468.11
542.80	461.09
542.97	463.43
543.14	390.87
543.31	414.27
543.48	475.13
543.64	489.17
543.81	358.10
543.98	362.78
544.15	444.70
544.32	468.11
544.48	421.30
544.65	442.36
544.82	376.83
544.99	442.36
545.16	407.25
545.32	428.32
545.49	578.11
545.66	734.93
545.83	730.25
546.00	594.50
546.16	517.26
546.33	472.79
546.50	449.38
546.67	444.70
546.83	409.59
547.00	334.70
547.17	376.83
547.34	294.91
547.50	388.53
547.67	273.84
547.84	348.74
548.00	341.72
548.17	393.21
548.34	369.80
548.51	400.23
548.67	416.62
548.84	358.10
549.01	304.27
549.18	344.06
549.34	306.61
549.51	334.70
549.68	264.48
549.84	344.06
550.01	227.03
550.18	362.78
550.34	374.49
550.51	313.63
550.68	337.04
550.84	250.44
551.01	231.71
551.18	322.99
551.34	301.93
551.51	278.52
551.68	322.99
551.84	304.27
552.01	304.27
552.18	257.46
552.34	266.82
552.51	196.60
552.68	351.08
552.84	194.26
553.01	264.48
553.18	318.31
553.34	337.04
553.51	245.76
553.67	313.63
553.84	339.38
554.01	313.63
554.17	198.95
554.34	266.82
554.51	308.95
554.67	255.12
554.84	285.55
555.00	273.84
555.17	231.71
555.33	355.76
555.50	301.93
555.67	297.25
555.83	266.82
556.00	306.61
556.16	433.00
556.33	315.97
556.50	220.01
556.66	245.76
556.83	276.18
556.99	220.01
557.16	243.42
557.32	224.69
557.49	290.23
557.65	234.05
557.82	159.16
557.98	262.14
558.15	271.50
558.32	243.42
558.48	259.80
558.65	271.50
558.81	301.93
558.98	325.33
559.14	301.93
559.31	327.68
559.47	308.95
559.64	229.37
559.80	248.10
559.97	304.27
560.13	269.16
560.30	227.03
560.46	290.23
560.63	236.39
560.79	231.71
560.96	285.55
561.12	285.55
561.29	294.91
561.45	241.08
561.61	266.82
561.78	320.65
561.94	224.69
562.11	271.50
562.27	273.84
562.44	166.18
562.60	241.08
562.77	236.39
562.93	325.33
563.10	248.10
563.26	269.16
563.42	252.78
563.59	276.18
563.75	203.63
563.92	285.55
564.08	266.82
564.24	198.95
564.41	297.25
564.57	229.37
564.74	271.50
564.90	273.84
565.07	276.18
565.23	355.76
565.39	231.71
565.56	280.86
565.72	189.58
565.88	252.78
566.05	271.50
566.21	243.42
566.38	224.69
566.54	262.14
566.70	205.97
566.87	297.25
567.03	163.84
567.19	292.57
567.36	262.14
567.52	191.92
567.68	259.80
567.85	276.18
568.01	299.59
568.17	222.35
568.34	252.78
568.50	341.72
568.66	194.26
568.83	337.04
568.99	283.20
569.15	259.80
569.32	224.69
569.48	191.92
569.64	198.95
569.81	292.57
569.97	126.39
570.13	278.52
570.30	318.31
570.46	234.05
570.62	327.68
570.78	276.18
570.95	236.39
571.11	255.12
571.27	339.38
571.43	325.33
571.60	339.38
571.76	344.06
571.92	238.73
572.09	205.97
572.25	294.91
572.41	292.57
572.57	297.25
572.74	252.78
572.90	285.55
573.06	262.14
573.22	234.05
573.38	304.27
573.55	208.31
573.71	285.55
573.87	266.82
574.03	264.48
574.20	285.55
574.36	220.01
574.52	311.29
574.68	292.57
574.84	315.97
575.01	227.03
575.17	292.57
575.33	255.12
575.49	255.12
575.65	241.08
575.82	269.16
575.98	444.70
576.14	418.96
576.30	533.64
576.46	554.71
576.62	423.64
576.79	402.57
576.95	369.80
577.11	255.12
577.27	255.12
577.43	369.80
577.59	285.55
577.75	229.37
577.92	184.90
578.08	257.46
578.24	287.89
578.40	344.06
578.56	320.65
578.72	404.91
578.88	362.78
579.04	355.76
579.21	327.68
579.37	322.99
579.53	313.63
579.69	369.80
579.85	266.82
580.01	358.10
580.17	320.65
580.33	330.02
580.49	393.21
580.65	313.63
580.82	332.36
580.98	292.57
581.14	301.93
581.30	285.55
581.46	318.31
581.62	447.04
581.78	479.81
581.94	430.66
582.10	341.72
582.26	388.53
582.42	393.21
582.58	409.59
582.74	397.89
582.90	379.17
583.06	442.36
583.22	390.87
583.38	433.00
583.54	400.23
583.70	421.30
583.86	458.74
584.02	465.77
584.18	545.34
584.34	758.33
584.50	1500.28
584.66	10150.90
584.82	27068.30
584.98	37926.04
585.14	32390.67
585.30	20184.78
585.46	12140.36
585.62	7779.94
585.78	3719.11
585.94	1657.10
586.10	910.47
586.26	683.44
586.42	526.62
586.58	517.26
586.74	444.70
586.90	484.49
587.06	510.24
587.22	395.55
587.38	379.17
587.54	678.76
587.70	1746.04
587.86	2492.67
588.02	2771.19
588.18	2165.00
588.34	1378.58
588.49	957.28
588.65	664.71
588.81	458.74
588.97	320.65
589.13	236.39
589.29	362.78
589.45	280.86
589.61	306.61
589.77	362.78
589.93	327.68
590.08	351.08
590.24	332.36
590.40	407.25
590.56	285.55
590.72	276.18
590.88	386.19
591.04	278.52
591.20	304.27
591.35	276.18
591.51	344.06
591.67	330.02
591.83	292.57
591.99	290.23
592.15	285.55
592.31	360.44
592.46	304.27
592.62	362.78
592.78	294.91
592.94	337.04
593.10	266.82
593.26	299.59
593.41	315.97
593.57	330.02
593.73	369.80
593.89	1338.79
594.05	3267.39
594.20	4578.09
594.36	4444.68
594.52	3026.31
594.68	1973.07
594.84	1378.58
594.99	856.64
595.15	486.83
595.31	355.76
595.47	353.42
595.62	308.95
595.78	255.12
595.94	297.25
596.10	311.29
596.25	278.52
596.41	362.78
596.57	276.18
596.73	334.70
596.88	440.02
597.04	880.04
597.20	1153.88
597.36	1263.89
597.51	1018.13
597.67	737.27
597.83	594.50
597.99	456.40
598.14	337.04
598.30	227.03
598.46	318.31
598.61	367.46
598.77	308.95
598.93	264.48
599.09	327.68
599.24	294.91
599.40	344.06
599.56	299.59
599.71	294.91
599.87	220.01
600.03	271.50
600.18	236.39
600.34	250.44
600.50	224.69
600.65	173.20
600.81	259.80
600.97	182.56
601.12	297.25
601.28	262.14
601.44	271.50
601.59	353.42
601.75	280.86
601.91	299.59
602.06	224.69
602.22	344.06
602.37	479.81
602.53	929.19
602.69	1308.36
602.84	1371.55
603.00	966.64
603.16	802.80
603.31	655.35
603.47	491.51
603.62	262.14
603.78	252.78
603.94	287.89
604.09	257.46
604.25	280.86
604.40	236.39
604.56	257.46
604.71	304.27
604.87	255.12
605.03	297.25
605.18	365.12
605.34	299.59
605.49	248.10
605.65	311.29
605.80	264.48
605.96	285.55
606.12	297.25
606.27	313.63
606.43	294.91
606.58	297.25
606.74	545.34
606.89	1732.00
607.05	3178.45
607.20	3932.10
607.36	3297.81
607.51	2303.09
607.67	1565.82
607.82	1132.82
607.98	674.07
608.13	461.09
608.29	379.17
608.44	395.55
608.60	383.85
608.75	421.30
608.91	702.16
609.06	2495.01
609.22	5313.02
609.37	6572.22
609.53	5895.81
609.68	4039.76
609.84	2822.69
609.99	2066.69
610.15	1282.61
610.30	861.32
610.46	657.69
610.61	685.78
610.76	791.10
610.92	779.40
611.07	816.85
611.23	875.36
611.38	800.46
611.54	716.20
611.69	664.71
611.84	561.73
612.00	617.90
612.15	587.47
612.31	636.63
612.46	648.33
612.62	603.86
612.77	631.94
612.92	561.73
613.08	463.43
613.23	507.90
613.39	470.45
613.54	540.66
613.69	2483.31
613.85	6558.18
614.00	10218.78
614.15	10679.86
614.31	7630.15
614.46	5261.52
614.62	3517.83
614.77	2272.66
614.92	1128.14
615.08	645.99
615.23	454.06
615.38	404.91
615.54	313.63
615.69	526.62
615.84	1425.39
616.00	2497.35
616.15	2902.26
616.30	2366.28
616.46	1802.21
616.61	1205.38
616.76	924.51
616.92	566.41
617.07	414.27
617.22	325.33
617.37	241.08
617.53	313.63
617.68	315.97
617.83	348.74
617.99	376.83
618.14	320.65
618.29	278.52
618.45	276.18
618.60	273.84
618.75	252.78
618.90	287.89
619.06	297.25
619.21	337.04
619.36	269.16
619.51	208.31
619.67	231.71
619.82	259.80
619.97	322.99
620.12	227.03
620.28	292.57
620.43	264.48
620.58	243.42
620.73	262.14
620.89	283.20
621.04	425.98
621.19	880.04
621.34	1500.28
621.49	1802.21
621.65	1790.51
621.80	1146.86
621.95	929.19
622.10	716.20
622.25	428.32
622.41	369.80
622.56	355.76
622.71	273.84
622.86	325.33
623.01	238.73
623.16	301.93
623.32	353.42
623.47	285.55
623.62	227.03
623.77	308.95
623.92	301.93
624.07	269.16
624.23	198.95
624.38	205.97
624.53	301.93
624.68	325.33
624.83	264.48
624.98	360.44
625.13	262.14
625.29	243.42
625.44	264.48
625.59	276.18
625.74	376.83
625.89	421.30
626.04	1284.95
626.19	3344.63
626.34	5298.97
626.49	5376.21
626.65	4095.94
626.80	3094.19
626.95	2015.20
627.10	1348.15
627.25	805.14
627.40	393.21
627.55	358.10
627.70	306.61
627.85	241.08
628.00	245.76
628.15	292.57
628.30	299.59
628.45	283.20
628.60	266.82
628.76	187.24
628.91	236.39
629.06	287.89
629.21	287.89
629.36	285.55
629.51	346.40
629.66	278.52
629.81	341.72
629.96	781.74
630.11	1287.29
630.26	1504.96
630.41	1409.00
630.56	1095.37
630.71	805.14
630.86	690.46
631.01	500.87
631.16	449.38
631.31	404.91
631.46	287.89
631.61	315.97
631.76	311.29
631.91	278.52
632.06	341.72
632.21	327.68
632.36	313.63
632.51	330.02
632.66	315.97
632.81	601.52
632.96	1837.32
633.10	3433.57
633.25	3971.89
633.40	3222.92
633.55	2406.07
633.70	1577.52
633.85	1181.97
634.00	641.31
634.15	433.00
634.30	280.86
634.45	297.25
634.60	299.59
634.75	262.14
634.90	276.18
635.05	262.14
635.19	365.12
635.34	215.33
635.49	255.12
635.64	229.37
635.79	262.14
635.94	205.97
636.09	339.38
636.24	250.44
636.39	339.38
636.53	304.27
636.68	217.67
636.83	248.10
636.98	304.27
637.13	297.25
637.28	255.12
637.43	360.44
637.57	425.98
637.72	1598.59
637.87	4177.86
638.02	6539.46
638.17	6916.28
638.32	5191.31
638.46	3684.00
638.61	2658.85
638.76	1675.82
638.91	849.61
639.06	589.82
639.20	463.43
639.35	416.62
639.50	578.11
639.65	2349.90
639.80	6576.91
639.94	9954.30
640.09	10684.55
640.24	7768.24
640.39	5392.59
640.54	3712.09
640.68	2319.47
640.83	1308.36
640.98	568.75
641.13	358.10
641.27	360.44
641.42	334.70
641.57	327.68
641.72	301.93
641.86	245.76
642.01	264.48
642.16	313.63
642.31	238.73
642.45	320.65
642.60	159.16
642.75	245.76
642.90	245.76
643.04	166.18
643.19	238.73
643.34	257.46
643.48	217.67
643.63	234.05
643.78	257.46
643.93	248.10
644.07	276.18
644.22	203.63
644.37	217.67
644.51	168.52
644.66	212.99
644.81	189.58
644.95	320.65
645.10	231.71
645.25	173.20
645.39	264.48
645.54	173.20
645.69	231.71
645.83	215.33
645.98	278.52
646.13	220.01
646.27	294.91
646.42	98.30
646.57	205.97
646.71	285.55
646.86	222.35
647.00	198.95
647.15	245.76
647.30	149.79
647.44	217.67
647.59	196.60
647.74	159.16
647.88	287.89
648.03	231.71
648.17	245.76
648.32	262.14
648.47	294.91
648.61	222.35
648.76	234.05
648.90	205.97
649.05	236.39
649.20	231.71
649.34	229.37
649.49	248.10
649.63	250.44
649.78	264.48
649.92	266.82
650.07	987.71
650.21	2902.26
650.36	4929.17
650.51	5720.27
650.65	4578.09
650.80	3316.54
650.94	2270.32
651.09	1420.71
651.23	833.23
651.38	447.04
651.52	404.91
651.67	229.37
651.81	205.97
651.96	308.95
652.10	273.84
652.25	269.16
652.39	273.84
652.54	203.63
652.68	362.78
652.83	1086.01
652.97	1790.51
653.12	2125.21
653.26	1846.68
653.41	1502.62
653.55	1004.09
653.70	671.73
653.84	447.04
653.99	292.57
654.13	252.78
654.27	259.80
654.42	175.54
654.56	180.22
654.71	227.03
654.85	222.35
655.00	201.29
655.14	229.37
655.29	173.20
655.43	222.35
655.57	222.35
655.72	205.97
655.86	283.20
656.01	220.01
656.15	234.05
656.30	210.65
656.44	145.11
656.58	229.37
656.73	203.63
656.87	198.95
657.01	341.72
657.16	264.48
657.30	205.97
657.45	332.36
657.59	203.63
657.73	227.03
657.88	280.86
658.02	280.86
658.16	243.42
658.31	283.20
658.45	231.71
658.60	215.33
658.74	252.78
658.88	224.69
659.03	224.69
659.17	227.03
659.31	514.92
659.46	1504.96
659.60	2476.29
659.74	2841.41
659.89	2590.97
660.03	1914.56
660.17	1366.87
660.32	898.77
660.46	512.58
660.60	332.36
660.74	320.65
660.89	262.14
661.03	166.18
661.17	245.76
661.32	222.35
661.46	259.80
661.60	222.35
661.74	194.26
661.89	203.63
662.03	220.01
662.17	252.78
662.31	241.08
662.46	243.42
662.60	145.11
662.74	245.76
662.88	332.36
663.03	208.31
663.17	152.13
663.31	245.76
663.45	271.50
663.60	252.78
663.74	238.73
663.88	191.92
664.02	283.20
664.17	203.63
664.31	227.03
664.45	280.86
664.59	128.73
664.73	229.37
664.88	224.69
665.02	208.31
665.16	222.35
665.30	140.43
665.44	198.95
665.59	290.23
665.73	161.50
665.87	138.09
666.01	133.41
666.15	161.50
666.29	250.44
666.44	285.55
666.58	301.93
666.72	222.35
666.86	276.18
667.00	304.27
667.14	292.57
667.28	926.85
667.43	2567.57
667.57	4107.64
667.71	4975.98
667.85	4299.56
667.99	2998.23
668.13	2132.23
668.27	1261.55
668.41	849.61
668.56	500.87
668.70	442.36
668.84	292.57
668.98	297.25
669.12	229.37
669.26	234.05
669.40	337.04
669.54	201.29
669.68	264.48
669.82	140.43
669.96	294.91
670.10	210.65
670.25	224.69
670.39	236.39
670.53	205.97
670.67	229.37
670.81	205.97
670.95	194.26
671.09	379.17
671.23	1032.18
671.37	2106.48
671.51	3070.78
671.65	3251.00
671.79	2441.18
671.93	1741.36
672.07	1123.46
672.21	734.93
672.35	486.83
672.49	379.17
672.63	290.23
672.77	290.23
672.91	250.44
673.05	215.33
673.19	257.46
673.33	154.48
673.47	191.92
673.61	182.56
673.75	220.01
673.89	177.88
674.03	229.37
674.17	170.86
674.31	198.95
674.45	236.39
674.59	224.69
674.73	255.12
674.87	205.97
675.01	220.01
675.15	339.38
675.29	224.69
675.43	271.50
675.56	287.89
675.70	215.33
675.84	241.08
675.98	278.52
676.12	180.22
676.26	196.60
676.40	140.43
676.54	285.55
676.68	189.58
676.82	177.88
676.96	205.97
677.10	173.20
677.23	161.50
677.37	170.86
677.51	180.22
677.65	229.37
677.79	128.73
677.93	191.92
678.07	168.52
678.21	191.92
678.34	238.73
678.48	154.48
678.62	203.63
678.76	189.58
678.90	173.20
679.04	196.60
679.18	112.35
679.31	217.67
679.45	227.03
679.59	184.90
679.73	203.63
679.87	220.01
680.00	236.39
680.14	105.32
680.28	191.92
680.42	168.52
680.56	222.35
680.70	203.63
680.83	208.31
680.97	220.01
681.11	149.79
681.25	166.18
681.39	180.22
681.52	180.22
681.66	217.67
681.80	205.97
681.94	189.58
682.07	203.63
682.21	182.56
682.35	201.29
682.49	182.56
682.62	138.09
682.76	194.26
682.90	205.97
683.04	191.92
683.17	198.95
683.31	124.05
683.45	189.58
683.59	187.24
683.72	194.26
683.86	201.29
684.00	191.92
684.13	224.69
684.27	271.50
684.41	159.16
684.55	170.86
684.68	131.07
684.82	170.86
684.96	121.71
685.09	149.79
685.23	126.39
685.37	131.07
685.50	173.20
685.64	234.05
685.78	142.77
685.91	189.58
686.05	152.13
686.19	156.82
686.32	168.52
686.46	198.95
686.60	147.45
686.73	229.37
686.87	255.12
687.01	161.50
687.14	133.41
687.28	191.92
687.42	189.58
687.55	138.09
687.69	201.29
687.82	210.65
687.96	177.88
688.10	348.74
688.23	145.11
688.37	255.12
688.50	184.90
688.64	138.09
688.78	217.67
688.91	135.75
689.05	203.63
689.18	140.43
689.32	131.07
689.46	215.33
689.59	201.29
689.73	184.90
689.86	182.56
690.00	135.75
690.13	166.18
690.27	198.95
690.41	194.26
690.54	196.60
690.68	229.37
690.81	175.54
690.95	184.90
691.08	149.79
691.22	140.43
691.35	194.26
691.49	152.13
691.62	191.92
691.76	154.48
691.89	152.13
692.03	224.69
692.16	131.07
692.30	227.03
692.43	374.49
692.57	1128.14
692.70	1827.96
692.84	2289.04
692.97	1977.75
693.11	1507.30
693.24	1144.52
693.38	753.65
693.51	554.71
693.65	421.30
693.78	381.51
693.92	243.42
694.05	220.01
694.19	208.31
694.32	231.71
694.45	138.09
694.59	184.90
694.72	159.16
694.86	163.84
694.99	236.39
695.13	133.41
695.26	91.28
695.39	173.20
695.53	135.75
695.66	154.48
695.80	177.88
695.93	147.45
696.07	222.35
696.20	255.12
696.33	269.16
696.47	269.16
696.60	271.50
696.73	208.31
696.87	224.69
697.00	252.78
697.14	173.20
697.27	124.05
697.40	187.24
697.54	156.82
697.67	175.54
697.80	241.08
697.94	173.20
698.07	156.82
698.21	88.94
698.34	201.29
698.47	140.43
698.61	166.18
698.74	156.82
698.87	163.84
699.01	145.11
699.14	156.82
699.27	95.96
699.40	283.20
699.54	217.67
699.67	229.37
699.80	110.01
699.94	140.43
700.07	163.84
700.20	105.32
700.34	110.01
700.47	173.20
700.60	203.63
700.73	119.37
700.87	196.60
701.00	173.20
701.13	182.56
701.26	201.29
701.40	65.54
701.53	138.09
701.66	133.41
701.79	138.09
701.93	147.45
702.06	248.10
702.19	250.44
702.32	299.59
702.46	269.16
702.59	257.46
702.72	458.74
702.85	1359.85
702.99	2839.07
703.12	3749.54
703.25	4011.68
703.38	3492.08
703.51	2857.79
703.65	2230.53
703.78	1514.33
703.91	1034.52
704.04	716.20
704.17	557.05
704.31	353.42
704.44	297.25
704.57	266.82
704.70	180.22
704.83	187.24
704.96	189.58
705.10	236.39
705.23	215.33
>>>>>End Processed Spectral Data<<<<<
