SpectraSuite Data File
++++++++++++++++++++++++++++++++++++
Date: Fri Oct 04 11:42:23 GMT-05:00 2013
User: price-jones
Dark Spectrum Present: No
Reference Spectrum Present: No
Number of Sampled Component Spectra: 1
Spectrometers: USB2+H05261
Integration Time (usec): 100000 (USB2+H05261)
Spectra Averaged: 1 (USB2+H05261)
Boxcar Smoothing: 0 (USB2+H05261)
Correct for Electrical Dark: No (USB2+H05261)
Strobe/Lamp Enabled: No (USB2+H05261)
Correct for Detector Non-linearity: No (USB2+H05261)
Correct for Stray Light: No (USB2+H05261)
Number of Pixels in Processed Spectrum: 2048
>>>>>Begin Processed Spectral Data<<<<<
365.73	0.00
365.92	0.00
366.12	0.00
366.32	32.77
366.52	0.00
366.72	0.00
366.91	0.00
367.11	0.00
367.31	0.00
367.51	0.00
367.70	0.00
367.90	0.00
368.10	0.00
368.30	0.00
368.49	0.00
368.69	0.00
368.89	0.00
369.09	0.00
369.28	0.00
369.48	9.36
369.68	0.00
369.87	0.00
370.07	0.00
370.27	4.68
370.47	39.79
370.66	177.88
370.86	138.09
371.06	245.76
371.25	208.31
371.45	180.22
371.65	196.60
371.84	182.56
372.04	212.99
372.24	194.26
372.44	234.05
372.63	196.60
372.83	294.91
373.03	224.69
373.22	294.91
373.42	210.65
373.62	212.99
373.81	229.37
374.01	304.27
374.21	217.67
374.40	210.65
374.60	217.67
374.79	266.82
374.99	269.16
375.19	280.86
375.38	348.74
375.58	287.89
375.78	353.42
375.97	320.65
376.17	400.23
376.37	234.05
376.56	358.10
376.76	353.42
376.95	280.86
377.15	320.65
377.35	257.46
377.54	318.31
377.74	283.20
377.93	318.31
378.13	376.83
378.33	360.44
378.52	236.39
378.72	332.36
378.91	304.27
379.11	212.99
379.31	266.82
379.50	292.57
379.70	325.33
379.89	351.08
380.09	304.27
380.28	271.50
380.48	299.59
380.68	271.50
380.87	231.71
381.07	297.25
381.26	306.61
381.46	301.93
381.65	257.46
381.85	292.57
382.04	147.45
382.24	252.78
382.43	257.46
382.63	283.20
382.83	255.12
383.02	227.03
383.22	259.80
383.41	276.18
383.61	273.84
383.80	290.23
384.00	290.23
384.19	315.97
384.39	327.68
384.58	203.63
384.78	393.21
384.97	355.76
385.17	285.55
385.36	337.04
385.56	337.04
385.75	299.59
385.95	322.99
386.14	290.23
386.34	332.36
386.53	315.97
386.72	266.82
386.92	262.14
387.11	341.72
387.31	325.33
387.50	327.68
387.70	294.91
387.89	306.61
388.09	318.31
388.28	287.89
388.48	287.89
388.67	351.08
388.86	341.72
389.06	425.98
389.25	360.44
389.45	301.93
389.64	355.76
389.84	393.21
390.03	341.72
390.22	332.36
390.42	346.40
390.61	418.96
390.81	365.12
391.00	442.36
391.19	477.47
391.39	407.25
391.58	423.64
391.78	341.72
391.97	379.17
392.16	308.95
392.36	381.51
392.55	276.18
392.75	236.39
392.94	231.71
393.13	236.39
393.33	255.12
393.52	250.44
393.71	332.36
393.91	362.78
394.10	339.38
394.29	402.57
394.49	454.06
394.68	433.00
394.88	472.79
395.07	447.04
395.26	428.32
395.46	468.11
395.65	339.38
395.84	393.21
396.04	362.78
396.23	330.02
396.42	252.78
396.62	301.93
396.81	276.18
397.00	390.87
397.19	423.64
397.39	458.74
397.58	477.47
397.77	489.17
397.97	533.64
398.16	531.30
398.35	526.62
398.55	475.13
398.74	582.79
398.93	629.60
399.12	535.98
399.32	592.16
399.51	571.09
399.70	634.29
399.90	585.13
400.09	596.84
400.28	641.31
400.47	519.60
400.67	599.18
400.86	617.90
401.05	634.29
401.24	561.73
401.44	643.65
401.63	685.78
401.82	657.69
402.01	692.80
402.21	631.94
402.40	615.56
402.59	575.77
402.78	622.58
402.97	610.88
403.17	603.86
403.36	636.63
403.55	599.18
403.74	655.35
403.93	634.29
404.13	638.97
404.32	608.54
404.51	599.18
404.70	657.69
404.89	662.37
405.09	660.03
405.28	594.50
405.47	585.13
405.66	653.01
405.85	580.45
406.05	620.24
406.24	629.60
406.43	631.94
406.62	709.18
406.81	702.16
407.00	657.69
407.20	690.46
407.39	627.26
407.58	575.77
407.77	699.82
407.96	751.31
408.15	786.42
408.34	727.91
408.54	746.63
408.73	657.69
408.92	741.95
409.11	681.10
409.30	795.78
409.49	641.31
409.68	636.63
409.87	641.31
410.07	627.26
410.26	667.05
410.45	641.31
410.64	702.16
410.83	711.52
411.02	636.63
411.21	842.59
411.40	781.74
411.59	767.70
411.78	734.93
411.98	638.97
412.17	709.18
412.36	730.25
412.55	734.93
412.74	727.91
412.93	809.83
413.12	692.80
413.31	791.10
413.50	695.14
413.69	727.91
413.88	779.40
414.07	788.76
414.26	723.23
414.45	739.61
414.64	802.80
414.83	793.44
415.02	755.99
415.22	779.40
415.41	772.38
415.60	763.01
415.79	802.80
415.98	870.68
416.17	781.74
416.36	805.14
416.55	739.61
416.74	858.98
416.93	798.12
417.12	739.61
417.31	755.99
417.50	734.93
417.69	856.64
417.88	823.87
418.07	770.04
418.26	805.14
418.45	798.12
418.64	837.91
418.83	863.66
419.02	847.27
419.21	947.92
419.39	814.51
419.58	772.38
419.77	767.70
419.96	781.74
420.15	964.30
420.34	812.17
420.53	933.87
420.72	915.15
420.91	910.47
421.10	929.19
421.29	805.14
421.48	828.55
421.67	943.24
421.86	844.93
422.05	777.06
422.24	786.42
422.43	702.16
422.61	727.91
422.80	849.61
422.99	711.52
423.18	835.57
423.37	922.17
423.56	800.46
423.75	788.76
423.94	770.04
424.13	784.08
424.32	781.74
424.50	795.78
424.69	826.21
424.88	828.55
425.07	795.78
425.26	763.01
425.45	833.23
425.64	786.42
425.83	830.89
426.01	823.87
426.20	887.06
426.39	936.21
426.58	844.93
426.77	791.10
426.96	711.52
427.15	683.44
427.33	763.01
427.52	800.46
427.71	851.96
427.90	840.25
428.09	772.38
428.28	753.65
428.46	692.80
428.65	737.27
428.84	725.57
429.03	816.85
429.22	737.27
429.40	610.88
429.59	580.45
429.78	613.22
429.97	578.11
430.16	468.11
430.34	592.16
430.53	734.93
430.72	589.82
430.91	741.95
431.10	751.31
431.28	833.23
431.47	922.17
431.66	933.87
431.85	896.43
432.03	840.25
432.22	870.68
432.41	917.49
432.60	877.70
432.79	882.38
432.97	908.13
433.16	922.17
433.35	730.25
433.54	746.63
433.72	779.40
433.91	828.55
434.10	812.17
434.28	809.83
434.47	842.59
434.66	976.00
434.85	887.06
435.03	959.62
435.22	1041.54
435.41	1373.89
435.59	1371.55
435.78	1247.51
435.97	1055.58
436.16	994.73
436.34	971.32
436.53	882.38
436.72	940.90
436.90	961.96
437.09	947.92
437.28	938.55
437.46	940.90
437.65	940.90
437.84	929.19
438.02	828.55
438.21	814.51
438.40	823.87
438.58	826.21
438.77	931.53
438.96	901.11
439.14	858.98
439.33	1018.13
439.52	978.34
439.70	910.47
439.89	936.21
440.08	976.00
440.26	950.26
440.45	966.64
440.63	1011.11
440.82	1020.47
441.01	1088.35
441.19	1053.24
441.38	1107.07
441.57	1060.26
441.75	1100.05
441.94	1142.18
442.12	1036.86
442.31	1060.26
442.50	1027.50
442.68	1067.28
442.87	1034.52
443.05	1057.92
443.24	1039.20
443.43	1053.24
443.61	1153.88
443.80	1118.78
443.98	1114.10
444.17	1008.77
444.35	1050.90
444.54	1081.33
444.73	1174.95
444.91	1062.60
445.10	959.62
445.28	966.64
445.47	1004.09
445.65	1029.84
445.84	961.96
446.02	1109.41
446.21	1069.62
446.39	1088.35
446.58	1123.46
446.77	1116.44
446.95	1128.14
447.14	1146.86
447.32	1081.33
447.51	1032.18
447.69	1130.48
447.88	1046.22
448.06	1114.10
448.25	968.98
448.43	1100.05
448.62	1078.99
448.80	1109.41
448.99	1078.99
449.17	1095.37
449.36	1095.37
449.54	1123.46
449.73	1053.24
449.91	1320.06
450.10	1268.57
450.28	1245.16
450.46	1196.01
450.65	1205.38
450.83	1107.07
451.02	1121.12
451.20	1198.35
451.39	1196.01
451.57	1027.50
451.76	1090.69
451.94	1139.84
452.13	1217.08
452.31	1149.20
452.49	1076.65
452.68	1015.79
452.86	1078.99
453.05	1128.14
453.23	1121.12
453.42	1053.24
453.60	1160.91
453.78	1156.22
453.97	1181.97
454.15	1102.39
454.34	1109.41
454.52	1172.61
454.70	1172.61
454.89	1174.95
455.07	1078.99
455.26	1170.27
455.44	1214.74
455.62	1090.69
455.81	1163.25
455.99	1181.97
456.17	1142.18
456.36	1184.31
456.54	1249.85
456.73	1219.42
456.91	1247.51
457.09	1240.48
457.28	1266.23
457.46	1273.25
457.64	1210.06
457.83	1167.93
458.01	1233.46
458.19	1135.16
458.38	1167.93
458.56	1179.63
458.74	1224.10
458.93	1086.01
459.11	1170.27
459.29	1172.61
459.48	1174.95
459.66	1158.57
459.84	1149.20
460.03	1277.93
460.21	1125.80
460.39	1196.01
460.57	1196.01
460.76	1233.46
460.94	1263.89
461.12	1287.29
461.31	1242.82
461.49	1284.95
461.67	1177.29
461.85	1128.14
462.04	1210.06
462.22	1282.61
462.40	1186.65
462.59	1231.12
462.77	1263.89
462.95	1235.80
463.13	1217.08
463.32	1191.33
463.50	1212.40
463.68	1252.19
463.86	1249.85
464.05	1228.78
464.23	1231.12
464.41	1296.66
464.59	1158.57
464.78	1144.52
464.96	1149.20
465.14	1224.10
465.32	1263.89
465.50	1224.10
465.69	1287.29
465.87	1203.04
466.05	1174.95
466.23	1142.18
466.41	1196.01
466.60	1132.82
466.78	1172.61
466.96	1235.80
467.14	1090.69
467.32	1151.54
467.51	1198.35
467.69	1114.10
467.87	1158.57
468.05	1181.97
468.23	1252.19
468.41	1266.23
468.60	1130.48
468.78	1219.42
468.96	1228.78
469.14	1254.53
469.32	1226.44
469.50	1107.07
469.69	1156.22
469.87	1233.46
470.05	1186.65
470.23	1170.27
470.41	1130.48
470.59	1191.33
470.77	1125.80
470.95	1184.31
471.14	1238.14
471.32	1275.59
471.50	1364.53
471.68	1343.47
471.86	1280.27
472.04	1376.24
472.22	1324.74
472.40	1205.38
472.58	1249.85
472.77	1217.08
472.95	1228.78
473.13	1306.02
473.31	1249.85
473.49	1263.89
473.67	1287.29
473.85	1303.68
474.03	1373.89
474.21	1366.87
474.39	1324.74
474.57	1401.98
474.75	1294.32
474.93	1313.04
475.12	1228.78
475.30	1350.49
475.48	1259.21
475.66	1282.61
475.84	1359.85
476.02	1359.85
476.20	1308.36
476.38	1313.04
476.56	1334.11
476.74	1306.02
476.92	1345.81
477.10	1366.87
477.28	1362.19
477.46	1364.53
477.64	1390.28
477.82	1359.85
478.00	1488.58
478.18	1327.08
478.36	1420.71
478.54	1385.60
478.72	1369.21
478.90	1406.66
479.08	1437.09
479.26	1519.01
479.44	1458.15
479.62	1469.86
479.80	1469.86
479.98	1497.94
480.16	1488.58
480.34	1488.58
480.52	1369.21
480.70	1577.52
480.88	1472.20
481.06	1528.37
481.24	1533.05
481.41	1509.65
481.59	1596.25
481.77	1521.35
481.95	1535.39
482.13	1661.78
482.31	1603.27
482.49	1619.65
482.67	1600.93
482.85	1612.63
483.03	1626.67
483.21	1710.93
483.39	1654.76
483.57	1603.27
483.74	1720.29
483.92	1586.88
484.10	1547.09
484.28	1699.23
484.46	1654.76
484.64	1652.42
484.82	1713.27
485.00	1708.59
485.18	1654.76
485.35	1699.23
485.53	1570.50
485.71	1432.41
485.89	1404.32
486.07	1432.41
486.25	1549.43
486.43	1619.65
486.61	1612.63
486.78	1696.89
486.96	1659.44
487.14	1631.35
487.32	1652.42
487.50	1645.40
487.68	1895.83
487.85	1881.79
488.03	1827.96
488.21	1818.60
488.39	1762.42
488.57	1816.26
488.75	1717.95
488.92	2010.52
489.10	1909.88
489.28	1961.37
489.46	2054.99
489.64	2022.22
489.81	2008.18
489.99	1991.80
490.17	1839.66
490.35	2160.31
490.53	1966.05
490.70	1956.69
490.88	2031.58
491.06	2005.84
491.24	2078.40
491.41	1980.09
491.59	1949.67
491.77	1844.34
491.95	1806.89
492.13	2047.97
492.30	2008.18
492.48	1984.77
492.66	2087.76
492.84	2057.33
493.01	2073.71
493.19	2029.24
493.37	2087.76
493.54	1984.77
493.72	2040.95
493.90	1977.75
494.08	1970.73
494.25	2129.89
494.43	2272.66
494.61	2146.27
494.79	2146.27
494.96	2286.70
495.14	2249.25
495.32	2036.27
495.49	2101.80
495.67	2087.76
495.85	2139.25
496.02	2284.36
496.20	2172.02
496.38	2244.57
496.55	2165.00
496.73	2230.53
496.91	2104.14
497.09	2347.56
497.26	2246.91
497.44	2172.02
497.62	2223.51
497.79	2253.94
497.97	2125.21
498.14	2120.53
498.32	2132.23
498.50	2160.31
498.67	2249.25
498.85	2214.15
499.03	2246.91
499.20	2237.55
499.38	2279.68
499.56	2305.43
499.73	2235.21
499.91	2310.11
500.08	2237.55
500.26	2101.80
500.44	2125.21
500.61	2153.29
500.79	2146.27
500.97	2150.95
501.14	2148.61
501.32	2155.63
501.49	2001.16
501.67	2169.68
501.84	2113.50
502.02	2097.12
502.20	2216.49
502.37	2207.13
502.55	2207.13
502.72	2251.60
502.90	2305.43
503.07	2193.08
503.25	2111.16
503.43	1970.73
503.60	1982.43
503.78	2092.44
503.95	1935.62
504.13	2190.74
504.30	2235.21
504.48	2296.07
504.65	2260.96
504.83	2193.08
505.01	2267.98
505.18	2328.83
505.36	2310.11
505.53	2326.49
505.71	2342.88
505.88	2434.16
506.06	2326.49
506.23	2403.73
506.41	2368.62
506.58	2256.28
506.76	2466.92
506.93	2328.83
507.11	2141.59
507.28	2209.47
507.46	2157.97
507.63	2162.66
507.81	2115.84
507.98	2239.89
508.16	2307.77
508.33	2298.41
508.50	2422.45
508.68	2282.02
508.85	2382.67
509.03	2424.80
509.20	2300.75
509.38	2324.15
509.55	2312.45
509.73	2356.92
509.90	2422.45
510.08	2359.26
510.25	2385.01
510.42	2401.39
510.60	2422.45
510.77	2335.85
510.95	2459.90
511.12	2272.66
511.30	2490.33
511.47	2523.10
511.64	2455.22
511.82	2487.99
511.99	2373.30
512.17	2473.95
512.34	2314.79
512.51	2347.56
512.69	2319.47
512.86	2424.80
513.04	2270.32
513.21	2312.45
513.38	2436.50
513.56	2263.30
513.73	2275.00
513.90	2328.83
514.08	2296.07
514.25	2394.37
514.43	2303.09
514.60	2359.26
514.77	2335.85
514.95	2403.73
515.12	2445.86
515.29	2415.43
515.47	2558.21
515.64	2394.37
515.81	2389.69
515.99	2382.67
516.16	2473.95
516.33	2099.46
516.51	2076.06
516.68	1996.48
516.85	1930.94
517.03	2052.65
517.20	2078.40
517.37	2216.49
517.54	2305.43
517.72	2375.64
517.89	2099.46
518.06	2101.80
518.24	2054.99
518.41	2157.97
518.58	2324.15
518.75	2303.09
518.93	2335.85
519.10	2289.04
519.27	2275.00
519.45	2345.22
519.62	2349.90
519.79	2518.42
519.96	2464.58
520.14	2434.16
520.31	2471.61
520.48	2392.03
520.65	2303.09
520.83	2363.94
521.00	2473.95
521.17	2459.90
521.34	2438.84
521.52	2441.18
521.69	2579.27
521.86	2485.65
522.03	2492.67
522.20	2473.95
522.38	2324.15
522.55	2235.21
522.72	2363.94
522.89	2420.11
523.07	2417.77
523.24	2422.45
523.41	2448.20
523.58	2469.27
523.75	2520.76
523.92	2516.08
524.10	2647.15
524.27	2579.27
524.44	2511.39
524.61	2569.91
524.78	2616.72
524.96	2509.05
525.13	2452.88
525.30	2651.83
525.47	2593.31
525.64	2658.85
525.81	2445.86
525.98	2413.09
526.16	2342.88
526.33	2165.00
526.50	2312.45
526.67	2186.06
526.84	2260.96
527.01	2289.04
527.18	2359.26
527.36	2286.70
527.53	2539.48
527.70	2525.44
527.87	2504.37
528.04	2516.08
528.21	2471.61
528.38	2581.61
528.55	2558.21
528.72	2609.70
528.89	2801.62
529.07	2633.10
529.24	2609.70
529.41	2438.84
529.58	2408.41
529.75	2495.01
529.92	2420.11
530.09	2590.97
530.26	2700.98
530.43	2600.34
530.60	2621.40
530.77	2621.40
530.94	2661.19
531.11	2682.25
531.28	2623.74
531.46	2565.23
531.63	2497.35
531.80	2539.48
531.97	2574.59
532.14	2537.14
532.31	2394.37
532.48	2389.69
532.65	2319.47
532.82	2377.98
532.99	2452.88
533.16	2548.84
533.33	2509.05
533.50	2600.34
533.67	2518.42
533.84	2431.82
534.01	2544.16
534.18	2593.31
534.35	2623.74
534.52	2569.91
534.69	2497.35
534.86	2544.16
535.03	2626.08
535.20	2593.31
535.37	2628.42
535.54	2719.70
535.71	2588.63
535.88	2654.17
536.05	2565.23
536.22	2583.95
536.38	2628.42
536.55	2504.37
536.72	2408.41
536.89	2356.92
537.06	2492.67
537.23	2509.05
537.40	2703.32
537.57	2689.28
537.74	2590.97
537.91	2731.41
538.08	2640.12
538.25	2710.34
538.42	2600.34
538.59	2637.78
538.75	2562.89
538.92	2595.65
539.09	2544.16
539.26	2457.56
539.43	2565.23
539.60	2436.50
539.77	2532.46
539.94	2642.46
540.11	2614.38
540.28	2572.25
540.44	2459.90
540.61	2513.74
540.78	2551.18
540.95	2555.86
541.12	2799.28
541.29	2803.96
541.46	2923.33
541.62	2846.09
541.79	2878.86
541.96	2736.09
542.13	2825.03
542.30	2764.17
542.47	2937.37
542.63	2733.75
542.80	2878.86
542.97	2836.73
543.14	2724.38
543.31	2710.34
543.48	2733.75
543.64	2874.18
543.81	2923.33
543.98	2825.03
544.15	2815.66
544.32	2736.09
544.48	2726.72
544.65	2768.85
544.82	2778.22
544.99	2712.68
545.16	2782.90
545.32	2860.13
545.49	3136.32
545.66	3541.23
545.83	3620.81
546.00	3398.46
546.16	3073.12
546.33	2857.79
546.50	2883.54
546.67	2846.09
546.83	2637.78
547.00	2689.28
547.17	2794.60
547.34	2562.89
547.50	2495.01
547.67	2607.36
547.84	2630.76
548.00	2691.62
548.17	2693.96
548.34	2551.18
548.51	2710.34
548.67	2644.81
548.84	2651.83
549.01	2609.70
549.18	2602.68
549.34	2595.65
549.51	2600.34
549.68	2668.21
549.84	2513.74
550.01	2509.05
550.18	2523.10
550.34	2609.70
550.51	2576.93
550.68	2581.61
550.84	2473.95
551.01	2506.71
551.18	2502.03
551.34	2525.44
551.51	2553.52
551.68	2551.18
551.84	2511.39
552.01	2574.59
552.18	2602.68
552.34	2574.59
552.51	2434.16
552.68	2506.71
552.84	2417.77
553.01	2495.01
553.18	2534.80
553.34	2602.68
553.51	2495.01
553.67	2555.86
553.84	2642.46
554.01	2544.16
554.17	2527.78
554.34	2413.09
554.51	2539.48
554.67	2422.45
554.84	2502.03
555.00	2495.01
555.17	2392.03
555.33	2532.46
555.50	2473.95
555.67	2438.84
555.83	2392.03
556.00	2349.90
556.16	2551.18
556.33	2560.55
556.50	2401.39
556.66	2373.30
556.83	2331.17
556.99	2382.67
557.16	2267.98
557.32	2406.07
557.49	2375.64
557.65	2368.62
557.82	2413.09
557.98	2396.71
558.15	2305.43
558.32	2319.47
558.48	2162.66
558.65	2279.68
558.81	2270.32
558.98	2239.89
559.14	2392.03
559.31	2326.49
559.47	2331.17
559.64	2324.15
559.80	2375.64
559.97	2296.07
560.13	2246.91
560.30	2359.26
560.46	2424.80
560.63	2363.94
560.79	2394.37
560.96	2361.60
561.12	2242.23
561.29	2258.62
561.45	2214.15
561.61	2321.81
561.78	2431.82
561.94	2310.11
562.11	2275.00
562.27	2253.94
562.44	2260.96
562.60	2321.81
562.77	2296.07
562.93	2548.84
563.10	2335.85
563.26	2406.07
563.42	2328.83
563.59	2296.07
563.75	2310.11
563.92	2300.75
564.08	2221.17
564.24	2286.70
564.41	2373.30
564.57	2235.21
564.74	2282.02
564.90	2146.27
565.07	2300.75
565.23	2321.81
565.39	2211.81
565.56	2211.81
565.72	2162.66
565.88	2127.55
566.05	2172.02
566.21	2080.74
566.38	2293.72
566.54	2223.51
566.70	2328.83
566.87	2256.28
567.03	2291.38
567.19	2399.05
567.36	2223.51
567.52	2270.32
567.68	2260.96
567.85	2150.95
568.01	2162.66
568.17	2111.16
568.34	2003.50
568.50	2078.40
568.66	1991.80
568.83	2211.81
568.99	2113.50
569.15	2132.23
569.32	1937.96
569.48	2108.82
569.64	2106.48
569.81	2143.93
569.97	2083.08
570.13	2108.82
570.30	2083.08
570.46	2108.82
570.62	1970.73
570.78	2017.54
570.95	2008.18
571.11	2094.78
571.27	2069.03
571.43	2129.89
571.60	2036.27
571.76	2033.93
571.92	2050.31
572.09	2080.74
572.25	2054.99
572.41	2232.87
572.57	2047.97
572.74	2111.16
572.90	2155.63
573.06	2157.97
573.22	2146.27
573.38	2080.74
573.55	2097.12
573.71	2031.58
573.87	2090.10
574.03	2062.01
574.20	2033.93
574.36	2001.16
574.52	2069.03
574.68	2045.63
574.84	2160.31
575.01	2022.22
575.17	1975.41
575.33	1877.11
575.49	2052.65
575.65	2019.88
575.82	2052.65
575.98	2047.97
576.14	2038.61
576.30	2106.48
576.46	2094.78
576.62	2197.76
576.79	2267.98
576.95	2167.34
577.11	2122.87
577.27	2087.76
577.43	2036.27
577.59	1923.92
577.75	1989.46
577.92	1994.14
578.08	2008.18
578.24	1966.05
578.40	2031.58
578.56	2183.72
578.72	2305.43
578.88	2211.81
579.04	2167.34
579.21	2186.06
579.37	2019.88
579.53	2129.89
579.69	2106.48
579.85	2012.86
580.01	2026.90
580.17	2033.93
580.33	2125.21
580.49	2052.65
580.65	2043.29
580.82	2101.80
580.98	2045.63
581.14	2031.58
581.30	2099.46
581.46	2169.68
581.62	2120.53
581.78	2120.53
581.94	1998.82
582.10	2052.65
582.26	2073.71
582.42	2127.55
582.58	2155.63
582.74	2148.61
582.90	2115.84
583.06	2111.16
583.22	2087.76
583.38	2237.55
583.54	2050.31
583.70	2183.72
583.86	2153.29
584.02	2132.23
584.18	2129.89
584.34	2064.35
584.50	2090.10
584.66	2066.69
584.82	2026.90
584.98	2066.69
585.14	2017.54
585.30	2085.42
585.46	2005.84
585.62	1905.20
585.78	1898.17
585.94	1980.09
586.10	2092.44
586.26	1994.14
586.42	2015.20
586.58	2052.65
586.74	2003.50
586.90	2031.58
587.06	2057.33
587.22	1973.07
587.38	1966.05
587.54	1940.30
587.70	1863.07
587.86	1851.36
588.02	1795.19
588.18	1792.85
588.34	1732.00
588.49	1551.78
588.65	1542.41
588.81	1554.12
588.97	1556.46
589.13	1540.07
589.29	1526.03
589.45	1537.73
589.61	1551.78
589.77	1556.46
589.93	1629.01
590.08	1629.01
590.24	1713.27
590.40	1736.68
590.56	1629.01
590.72	1762.42
590.88	1593.90
591.04	1664.12
591.20	1682.85
591.35	1715.61
591.51	1724.97
591.67	1666.46
591.83	1682.85
591.99	1654.76
592.15	1729.66
592.31	1781.15
592.46	1799.87
592.62	1797.53
592.78	1715.61
592.94	1748.38
593.10	1781.15
593.26	1846.68
593.41	1809.23
593.57	1820.94
593.73	1629.01
593.89	1645.40
594.05	1614.97
594.20	1593.90
594.36	1575.18
594.52	1593.90
594.68	1617.31
594.84	1682.85
594.99	1657.10
595.15	1654.76
595.31	1713.27
595.47	1809.23
595.62	1619.65
595.78	1722.63
595.94	1694.55
596.10	1907.54
596.25	1757.74
596.41	1699.23
596.57	1661.78
596.73	1647.74
596.88	1771.79
597.04	1760.08
597.20	1713.27
597.36	1682.85
597.51	1755.40
597.67	1685.19
597.83	1736.68
597.99	1811.57
598.14	1729.66
598.30	1827.96
598.46	1701.57
598.61	1830.30
598.77	1652.42
598.93	1708.59
599.09	1806.89
599.24	1837.32
599.40	1799.87
599.56	1762.42
599.71	1760.08
599.87	1757.74
600.03	1813.92
600.18	1788.17
600.34	1804.55
600.50	1842.00
600.65	1720.29
600.81	1804.55
600.97	1797.53
601.12	1797.53
601.28	1860.73
601.44	1797.53
601.59	1750.72
601.75	1722.63
601.91	1720.29
602.06	1760.08
602.22	1853.70
602.37	1750.72
602.53	1706.25
602.69	1832.64
602.84	1898.17
603.00	1888.81
603.16	1809.23
603.31	1811.57
603.47	1823.28
603.62	1727.32
603.78	1701.57
603.94	1806.89
604.09	1872.43
604.25	1811.57
604.40	1860.73
604.56	1753.06
604.71	1865.41
604.87	1729.66
605.03	1769.44
605.18	1729.66
605.34	1778.81
605.49	1736.68
605.65	1762.42
605.80	1811.57
605.96	1724.97
606.12	1727.32
606.27	1802.21
606.43	1760.08
606.58	1788.17
606.74	1699.23
606.89	1778.81
607.05	1893.49
607.20	1760.08
607.36	1799.87
607.51	1804.55
607.67	1734.34
607.82	1764.76
607.98	1891.15
608.13	1804.55
608.29	1792.85
608.44	1781.15
608.60	1830.30
608.75	1757.74
608.91	1797.53
609.06	1827.96
609.22	1851.36
609.37	1827.96
609.53	1827.96
609.68	1914.56
609.84	1834.98
609.99	1872.43
610.15	1914.56
610.30	2179.04
610.46	2172.02
610.61	2172.02
610.76	2403.73
610.92	2724.38
611.07	2693.96
611.23	2789.92
611.38	2607.36
611.54	2438.84
611.69	2284.36
611.84	2127.55
612.00	2071.37
612.15	1919.24
612.31	1909.88
612.46	1811.57
612.62	1937.96
612.77	1940.30
612.92	1912.22
613.08	1949.67
613.23	1912.22
613.39	1778.81
613.54	1687.53
613.69	1783.49
613.85	1682.85
614.00	1858.39
614.15	1813.92
614.31	1818.60
614.46	1811.57
614.62	1755.40
614.77	1781.15
614.92	1776.47
615.08	1706.25
615.23	1785.83
615.38	1696.89
615.54	1657.10
615.69	1600.93
615.84	1504.96
616.00	1631.35
616.15	1444.11
616.30	1591.56
616.46	1612.63
616.61	1511.99
616.76	1652.42
616.92	1397.30
617.07	1575.18
617.22	1645.40
617.37	1607.95
617.53	1528.37
617.68	1521.35
617.83	1563.48
617.99	1652.42
618.14	1643.06
618.29	1542.41
618.45	1593.90
618.60	1549.43
618.75	1561.14
618.90	1493.26
619.06	1593.90
619.21	1519.01
619.36	1565.82
619.51	1490.92
619.67	1570.50
619.82	1579.86
619.97	1554.12
620.12	1703.91
620.28	1549.43
620.43	1565.82
620.58	1591.56
620.73	1624.33
620.89	1633.69
621.04	1582.20
621.19	1514.33
621.34	1535.39
621.49	1568.16
621.65	1521.35
621.80	1483.90
621.95	1526.03
622.10	1486.24
622.25	1511.99
622.41	1497.94
622.56	1493.26
622.71	1554.12
622.86	1605.61
623.01	1472.20
623.16	1481.56
623.32	1540.07
623.47	1537.73
623.62	1483.90
623.77	1514.33
623.92	1460.49
624.07	1481.56
624.23	1504.96
624.38	1378.58
624.53	1519.01
624.68	1488.58
624.83	1572.84
624.98	1411.34
625.13	1324.74
625.29	1355.17
625.44	1390.28
625.59	1364.53
625.74	1383.26
625.89	1385.60
626.04	1413.68
626.19	1479.22
626.34	1526.03
626.49	1479.22
626.65	1462.83
626.80	1399.64
626.95	1420.71
627.10	1324.74
627.25	1423.05
627.40	1327.08
627.55	1226.44
627.70	1200.69
627.85	1167.93
628.00	1308.36
628.15	1327.08
628.30	1366.87
628.45	1320.06
628.60	1303.68
628.76	1336.45
628.91	1294.32
629.06	1327.08
629.21	1397.30
629.36	1401.98
629.51	1350.49
629.66	1320.06
629.81	1364.53
629.96	1327.08
630.11	1329.42
630.26	1343.47
630.41	1287.29
630.56	1509.65
630.71	1474.54
630.86	1413.68
631.01	1355.17
631.16	1460.49
631.31	1437.09
631.46	1357.51
631.61	1226.44
631.76	1233.46
631.91	1214.74
632.06	1287.29
632.21	1231.12
632.36	1409.00
632.51	1423.05
632.66	1296.66
632.81	1240.48
632.96	1313.04
633.10	1306.02
633.25	1373.89
633.40	1242.82
633.55	1350.49
633.70	1240.48
633.85	1284.95
634.00	1322.40
634.15	1287.29
634.30	1299.00
634.45	1256.87
634.60	1231.12
634.75	1308.36
634.90	1270.91
635.05	1233.46
635.19	1261.55
635.34	1240.48
635.49	1287.29
635.64	1322.40
635.79	1303.68
635.94	1266.23
636.09	1268.57
636.24	1266.23
636.39	1273.25
636.53	1406.66
636.68	1284.95
636.83	1205.38
636.98	1348.15
637.13	1219.42
637.28	1270.91
637.43	1188.99
637.57	1263.89
637.72	1348.15
637.87	1320.06
638.02	1224.10
638.17	1277.93
638.32	1348.15
638.46	1259.21
638.61	1336.45
638.76	1362.19
638.91	1228.78
639.06	1242.82
639.20	1275.59
639.35	1266.23
639.50	1200.69
639.65	1343.47
639.80	1224.10
639.94	1191.33
640.09	1266.23
640.24	1240.48
640.39	1345.81
640.54	1109.41
640.68	1214.74
640.83	1242.82
640.98	1088.35
641.13	1074.31
641.27	1177.29
641.42	1132.82
641.57	1224.10
641.72	1137.50
641.86	1170.27
642.01	1048.56
642.16	1186.65
642.31	1273.25
642.45	1219.42
642.60	1179.63
642.75	1191.33
642.90	1214.74
643.04	1074.31
643.19	1270.91
643.34	1139.84
643.48	1217.08
643.63	1123.46
643.78	1184.31
643.93	1172.61
644.07	1132.82
644.22	1135.16
644.37	1158.57
644.51	1226.44
644.66	1196.01
644.81	1156.22
644.95	1116.44
645.10	1083.67
645.25	1109.41
645.39	1210.06
645.54	1060.26
645.69	1116.44
645.83	1093.03
645.98	1207.72
646.13	1081.33
646.27	1078.99
646.42	1043.88
646.57	1116.44
646.71	1029.84
646.86	1055.58
647.00	1170.27
647.15	926.85
647.30	978.34
647.44	997.07
647.59	999.41
647.74	919.83
647.88	917.49
648.03	908.13
648.17	1006.43
648.32	896.43
648.47	917.49
648.61	1032.18
648.76	1053.24
648.90	997.07
649.05	884.72
649.20	957.28
649.34	964.30
649.49	990.05
649.63	1015.79
649.78	1020.47
649.92	1057.92
650.07	1107.07
650.21	1071.97
650.36	1109.41
650.51	1116.44
650.65	1053.24
650.80	1064.94
650.94	1025.15
651.09	1043.88
651.23	1018.13
651.38	950.26
651.52	919.83
651.67	929.19
651.81	915.15
651.96	1093.03
652.10	973.66
652.25	954.94
652.39	1078.99
652.54	1109.41
652.68	1039.20
652.83	1048.56
652.97	1067.28
653.12	1008.77
653.26	922.17
653.41	954.94
653.55	1015.79
653.70	1029.84
653.84	985.37
653.99	1097.71
654.13	999.41
654.27	954.94
654.42	997.07
654.56	1036.86
654.71	973.66
654.85	915.15
655.00	943.24
655.14	938.55
655.29	868.34
655.43	887.06
655.57	931.53
655.72	873.02
655.86	795.78
656.01	685.78
656.15	727.91
656.30	772.38
656.44	814.51
656.58	851.96
656.73	889.40
656.87	880.04
657.01	924.51
657.16	957.28
657.30	945.58
657.45	1013.45
657.59	980.68
657.73	976.00
657.88	1001.75
658.02	1027.50
658.16	1001.75
658.31	987.71
658.45	954.94
658.60	933.87
658.74	973.66
658.88	997.07
659.03	952.60
659.17	971.32
659.31	968.98
659.46	992.39
659.60	978.34
659.74	940.90
659.89	1046.22
660.03	961.96
660.17	973.66
660.32	1015.79
660.46	964.30
660.60	924.51
660.74	929.19
660.89	887.06
661.03	858.98
661.17	903.45
661.32	983.02
661.46	919.83
661.60	952.60
661.74	1048.56
661.89	1039.20
662.03	959.62
662.17	1027.50
662.31	1074.31
662.46	1090.69
662.60	1027.50
662.74	971.32
662.88	968.98
663.03	959.62
663.17	940.90
663.31	971.32
663.45	903.45
663.60	882.38
663.74	891.74
663.88	875.36
664.02	922.17
664.17	880.04
664.31	901.11
664.45	997.07
664.59	983.02
664.73	968.98
664.88	915.15
665.02	954.94
665.16	938.55
665.30	961.96
665.44	936.21
665.59	1036.86
665.73	980.68
665.87	992.39
666.01	912.81
666.15	966.64
666.29	898.77
666.44	961.96
666.58	1001.75
666.72	919.83
666.86	992.39
667.00	854.30
667.14	938.55
667.28	880.04
667.43	924.51
667.57	961.96
667.71	908.13
667.85	875.36
667.99	987.71
668.13	898.77
668.27	873.02
668.41	952.60
668.56	915.15
668.70	957.28
668.84	873.02
668.98	912.81
669.12	807.48
669.26	901.11
669.40	861.32
669.54	1008.77
669.68	898.77
669.82	835.57
669.96	844.93
670.10	748.97
670.25	961.96
670.39	873.02
670.53	882.38
670.67	849.61
670.81	814.51
670.95	849.61
671.09	819.19
671.23	814.51
671.37	915.15
671.51	866.00
671.65	847.27
671.79	770.04
671.93	901.11
672.07	938.55
672.21	861.32
672.35	819.19
672.49	816.85
672.63	807.48
672.77	842.59
672.91	873.02
673.05	880.04
673.19	884.72
673.33	730.25
673.47	917.49
673.61	826.21
673.75	767.70
673.89	856.64
674.03	917.49
674.17	798.12
674.31	894.08
674.45	821.53
674.59	805.14
674.73	751.31
674.87	802.80
675.01	861.32
675.15	896.43
675.29	798.12
675.43	847.27
675.56	847.27
675.70	870.68
675.84	830.89
675.98	777.06
676.12	793.44
676.26	802.80
676.40	802.80
676.54	809.83
676.68	753.65
676.82	777.06
676.96	758.33
677.10	772.38
677.23	819.19
677.37	784.08
677.51	755.99
677.65	800.46
677.79	793.44
677.93	748.97
678.07	816.85
678.21	730.25
678.34	786.42
678.48	699.82
678.62	765.36
678.76	692.80
678.90	723.23
679.04	681.10
679.18	615.56
679.31	699.82
679.45	709.18
679.59	678.76
679.73	685.78
679.87	777.06
680.00	770.04
680.14	777.06
680.28	678.76
680.42	697.48
680.56	730.25
680.70	718.54
680.83	741.95
680.97	744.29
681.11	727.91
681.25	734.93
681.39	622.58
681.52	746.63
681.66	716.20
681.80	751.31
681.94	561.73
682.07	702.16
682.21	704.50
682.35	617.90
682.49	702.16
682.62	660.03
682.76	734.93
682.90	653.01
683.04	758.33
683.17	688.12
683.31	748.97
683.45	650.67
683.59	671.73
683.72	592.16
683.86	578.11
684.00	599.18
684.13	678.76
684.27	690.46
684.41	676.41
684.55	641.31
684.68	615.56
684.82	589.82
684.96	599.18
685.09	657.69
685.23	566.41
685.37	601.52
685.50	669.39
685.64	678.76
685.78	587.47
685.91	716.20
686.05	711.52
686.19	566.41
686.32	645.99
686.46	650.67
686.60	589.82
686.73	521.94
686.87	500.87
687.01	463.43
687.14	327.68
687.28	437.68
687.42	369.80
687.55	475.13
687.69	458.74
687.82	472.79
687.96	517.26
688.10	554.71
688.23	547.69
688.37	606.20
688.50	566.41
688.64	533.64
688.78	444.70
688.91	472.79
689.05	491.51
689.18	437.68
689.32	463.43
689.46	454.06
689.59	505.56
689.73	526.62
689.86	463.43
690.00	521.94
690.13	472.79
690.27	535.98
690.41	489.17
690.54	543.00
690.68	507.90
690.81	500.87
690.95	575.77
691.08	585.13
691.22	454.06
691.35	482.15
691.49	535.98
691.62	528.96
691.76	458.74
691.89	566.41
692.03	472.79
692.16	458.74
692.30	435.34
692.43	482.15
692.57	447.04
692.70	461.09
692.84	512.58
692.97	435.34
693.11	395.55
693.24	477.47
693.38	496.19
693.51	489.17
693.65	486.83
693.78	421.30
693.92	334.70
694.05	421.30
694.19	346.40
694.32	425.98
694.45	421.30
694.59	442.36
694.72	386.19
694.86	430.66
694.99	416.62
695.13	423.64
695.26	449.38
695.39	440.02
695.53	425.98
695.66	416.62
695.80	503.22
695.93	365.12
696.07	409.59
696.20	475.13
696.33	393.21
696.47	468.11
696.60	358.10
696.73	475.13
696.87	493.85
697.00	578.11
697.14	524.28
697.27	510.24
697.40	512.58
697.54	404.91
697.67	507.90
697.80	444.70
697.94	493.85
698.07	411.93
698.21	496.19
698.34	447.04
698.47	404.91
698.61	411.93
698.74	337.04
698.87	425.98
699.01	358.10
699.14	418.96
699.27	393.21
699.40	442.36
699.54	372.15
699.67	362.78
699.80	397.89
699.94	376.83
700.07	374.49
700.20	353.42
700.34	320.65
700.47	414.27
700.60	376.83
700.73	355.76
700.87	433.00
701.00	388.53
701.13	362.78
701.26	442.36
701.40	376.83
701.53	409.59
701.66	461.09
701.79	353.42
701.93	353.42
702.06	447.04
702.19	365.12
702.32	397.89
702.46	386.19
702.59	416.62
702.72	372.15
702.85	418.96
702.99	395.55
703.12	416.62
703.25	435.34
703.38	376.83
703.51	475.13
703.65	390.87
703.78	374.49
703.91	374.49
704.04	458.74
704.17	339.38
704.31	376.83
704.44	369.80
704.57	334.70
704.70	348.74
704.83	362.78
704.96	468.11
705.10	423.64
705.23	404.91
>>>>>End Processed Spectral Data<<<<<
