SpectraSuite Data File
++++++++++++++++++++++++++++++++++++
Date: Fri Oct 04 11:41:56 GMT-05:00 2013
User: price-jones
Dark Spectrum Present: No
Reference Spectrum Present: No
Number of Sampled Component Spectra: 1
Spectrometers: USB2+H05261
Integration Time (usec): 100000 (USB2+H05261)
Spectra Averaged: 1 (USB2+H05261)
Boxcar Smoothing: 0 (USB2+H05261)
Correct for Electrical Dark: No (USB2+H05261)
Strobe/Lamp Enabled: No (USB2+H05261)
Correct for Detector Non-linearity: No (USB2+H05261)
Correct for Stray Light: No (USB2+H05261)
Number of Pixels in Processed Spectrum: 2048
>>>>>Begin Processed Spectral Data<<<<<
365.73	88.94
365.92	88.94
366.12	88.94
366.32	37.45
366.52	0.00
366.72	0.00
366.91	0.00
367.11	0.00
367.31	0.00
367.51	0.00
367.70	0.00
367.90	0.00
368.10	0.00
368.30	28.09
368.49	0.00
368.69	9.36
368.89	0.00
369.09	0.00
369.28	0.00
369.48	0.00
369.68	0.00
369.87	0.00
370.07	4.68
370.27	25.75
370.47	0.00
370.66	77.24
370.86	74.90
371.06	74.90
371.25	88.94
371.45	39.79
371.65	124.05
371.84	7.02
372.04	79.58
372.24	119.37
372.44	65.54
372.63	154.48
372.83	121.71
373.03	77.24
373.22	81.92
373.42	119.37
373.62	156.82
373.81	98.30
374.01	100.64
374.21	198.95
374.40	110.01
374.60	201.29
374.79	110.01
374.99	203.63
375.19	154.48
375.38	117.03
375.58	121.71
375.78	100.64
375.97	126.39
376.17	154.48
376.37	194.26
376.56	180.22
376.76	124.05
376.95	102.98
377.15	154.48
377.35	53.83
377.54	88.94
377.74	79.58
377.93	84.26
378.13	117.03
378.33	166.18
378.52	84.26
378.72	198.95
378.91	147.45
379.11	135.75
379.31	117.03
379.50	175.54
379.70	142.77
379.89	142.77
380.09	166.18
380.28	119.37
380.48	88.94
380.68	184.90
380.87	128.73
381.07	163.84
381.26	173.20
381.46	145.11
381.65	154.48
381.85	159.16
382.04	107.66
382.24	119.37
382.43	72.56
382.63	65.54
382.83	135.75
383.02	149.79
383.22	98.30
383.41	149.79
383.61	159.16
383.80	46.81
384.00	95.96
384.19	205.97
384.39	112.35
384.58	121.71
384.78	168.52
384.97	126.39
385.17	147.45
385.36	124.05
385.56	166.18
385.75	91.28
385.95	117.03
386.14	175.54
386.34	81.92
386.53	95.96
386.72	128.73
386.92	124.05
387.11	145.11
387.31	131.07
387.50	88.94
387.70	135.75
387.89	168.52
388.09	128.73
388.28	124.05
388.48	93.62
388.67	112.35
388.86	110.01
389.06	163.84
389.25	81.92
389.45	102.98
389.64	110.01
389.84	140.43
390.03	131.07
390.22	74.90
390.42	177.88
390.61	79.58
390.81	121.71
391.00	168.52
391.19	102.98
391.39	110.01
391.58	70.22
391.78	198.95
391.97	102.98
392.16	131.07
392.36	201.29
392.55	210.65
392.75	175.54
392.94	98.30
393.13	138.09
393.33	88.94
393.52	135.75
393.71	163.84
393.91	189.58
394.10	105.32
394.29	128.73
394.49	74.90
394.68	131.07
394.88	180.22
395.07	166.18
395.26	194.26
395.46	133.41
395.65	149.79
395.84	140.43
396.04	217.67
396.23	147.45
396.42	84.26
396.62	156.82
396.81	149.79
397.00	147.45
397.19	149.79
397.39	161.50
397.58	154.48
397.77	133.41
397.97	117.03
398.16	133.41
398.35	149.79
398.55	147.45
398.74	119.37
398.93	220.01
399.12	142.77
399.32	135.75
399.51	227.03
399.70	163.84
399.90	140.43
400.09	149.79
400.28	180.22
400.47	135.75
400.67	135.75
400.86	231.71
401.05	63.19
401.24	187.24
401.44	182.56
401.63	182.56
401.82	234.05
402.01	149.79
402.21	234.05
402.40	182.56
402.59	173.20
402.78	189.58
402.97	170.86
403.17	234.05
403.36	374.49
403.55	360.44
403.74	786.42
403.93	2167.34
404.13	5638.35
404.32	9818.55
404.51	10546.45
404.70	6939.69
404.89	2523.10
405.09	737.27
405.28	383.85
405.47	269.16
405.66	222.35
405.85	245.76
406.05	283.20
406.24	184.90
406.43	215.33
406.62	271.50
406.81	393.21
407.00	322.99
407.20	770.04
407.39	1111.75
407.58	1486.24
407.77	1200.69
407.96	664.71
408.15	327.68
408.34	224.69
408.54	189.58
408.73	227.03
408.92	163.84
409.11	198.95
409.30	236.39
409.49	229.37
409.68	215.33
409.87	184.90
410.07	210.65
410.26	215.33
410.45	175.54
410.64	271.50
410.83	229.37
411.02	259.80
411.21	241.08
411.40	222.35
411.59	250.44
411.78	234.05
411.98	168.52
412.17	238.73
412.36	238.73
412.55	271.50
412.74	311.29
412.93	222.35
413.12	227.03
413.31	212.99
413.50	184.90
413.69	231.71
413.88	355.76
414.07	283.20
414.26	339.38
414.45	273.84
414.64	313.63
414.83	245.76
415.02	306.61
415.22	280.86
415.41	353.42
415.60	276.18
415.79	287.89
415.98	330.02
416.17	283.20
416.36	308.95
416.55	262.14
416.74	351.08
416.93	367.46
417.12	290.23
417.31	227.03
417.50	348.74
417.69	337.04
417.88	330.02
418.07	231.71
418.26	269.16
418.45	257.46
418.64	341.72
418.83	224.69
419.02	299.59
419.21	252.78
419.39	292.57
419.58	238.73
419.77	273.84
419.96	369.80
420.15	358.10
420.34	339.38
420.53	390.87
420.72	299.59
420.91	299.59
421.10	341.72
421.29	344.06
421.48	315.97
421.67	325.33
421.86	306.61
422.05	362.78
422.24	414.27
422.43	388.53
422.61	308.95
422.80	280.86
422.99	348.74
423.18	386.19
423.37	414.27
423.56	397.89
423.75	395.55
423.94	330.02
424.13	348.74
424.32	386.19
424.50	358.10
424.69	409.59
424.88	498.53
425.07	362.78
425.26	379.17
425.45	414.27
425.64	416.62
425.83	475.13
426.01	365.12
426.20	360.44
426.39	447.04
426.58	278.52
426.77	346.40
426.96	430.66
427.15	479.81
427.33	360.44
427.52	414.27
427.71	451.72
427.90	449.38
428.09	409.59
428.28	456.40
428.46	402.57
428.65	425.98
428.84	451.72
429.03	433.00
429.22	437.68
429.40	386.19
429.59	470.45
429.78	383.85
429.97	440.02
430.16	491.51
430.34	486.83
430.53	528.96
430.72	430.66
430.91	521.94
431.10	421.30
431.28	482.15
431.47	528.96
431.66	500.87
431.85	468.11
432.03	552.37
432.22	568.75
432.41	493.85
432.60	631.94
432.79	582.79
432.97	517.26
433.16	620.24
433.35	741.95
433.54	828.55
433.72	926.85
433.91	896.43
434.10	908.13
434.28	1071.97
434.47	1287.29
434.66	1544.75
434.85	1797.53
435.03	3911.04
435.22	13912.14
435.41	35552.74
435.59	49970.44
435.78	39044.82
435.97	16830.79
436.16	6296.04
436.34	2101.80
436.53	1193.67
436.72	952.60
436.90	889.40
437.09	697.48
437.28	699.82
437.46	578.11
437.65	690.46
437.84	643.65
438.02	648.33
438.21	631.94
438.40	667.05
438.58	622.58
438.77	645.99
438.96	545.34
439.14	608.54
439.33	557.05
439.52	575.77
439.70	608.54
439.89	585.13
440.08	606.20
440.26	624.92
440.45	671.73
440.63	545.34
440.82	606.20
441.01	599.18
441.19	620.24
441.38	592.16
441.57	512.58
441.75	587.47
441.94	613.22
442.12	580.45
442.31	650.67
442.50	622.58
442.68	667.05
442.87	585.13
443.05	631.94
443.24	599.18
443.43	657.69
443.61	631.94
443.80	615.56
443.98	543.00
444.17	564.07
444.35	631.94
444.54	638.97
444.73	631.94
444.91	622.58
445.10	615.56
445.28	585.13
445.47	620.24
445.65	608.54
445.84	624.92
446.02	528.96
446.21	526.62
446.39	561.73
446.58	624.92
446.77	545.34
446.95	519.60
447.14	545.34
447.32	629.60
447.51	613.22
447.69	564.07
447.88	601.52
448.06	610.88
448.25	624.92
448.43	566.41
448.62	695.14
448.80	545.34
448.99	587.47
449.17	599.18
449.36	484.49
449.54	552.37
449.73	629.60
449.91	657.69
450.10	671.73
450.28	627.26
450.46	648.33
450.65	631.94
450.83	526.62
451.02	592.16
451.20	589.82
451.39	575.77
451.57	662.37
451.76	521.94
451.94	582.79
452.13	575.77
452.31	610.88
452.49	592.16
452.68	578.11
452.86	571.09
453.05	550.03
453.23	564.07
453.42	535.98
453.60	557.05
453.78	564.07
453.97	552.37
454.15	498.53
454.34	561.73
454.52	500.87
454.70	685.78
454.89	603.86
455.07	599.18
455.26	678.76
455.44	617.90
455.62	475.13
455.81	669.39
455.99	645.99
456.17	655.35
456.36	622.58
456.54	592.16
456.73	685.78
456.91	566.41
457.09	587.47
457.28	657.69
457.46	575.77
457.64	571.09
457.83	575.77
458.01	559.39
458.19	585.13
458.38	533.64
458.56	512.58
458.74	526.62
458.93	596.84
459.11	636.63
459.29	601.52
459.48	596.84
459.66	505.56
459.84	524.28
460.03	683.44
460.21	561.73
460.39	554.71
460.57	596.84
460.76	465.77
460.94	589.82
461.12	671.73
461.31	547.69
461.49	543.00
461.67	547.69
461.85	559.39
462.04	550.03
462.22	994.73
462.40	552.37
462.59	557.05
462.77	519.60
462.95	535.98
463.13	535.98
463.32	561.73
463.50	559.39
463.68	540.66
463.86	664.71
464.05	521.94
464.23	554.71
464.41	636.63
464.59	575.77
464.78	596.84
464.96	540.66
465.14	599.18
465.32	524.28
465.50	514.92
465.69	566.41
465.87	503.22
466.05	547.69
466.23	531.30
466.41	564.07
466.60	624.92
466.78	596.84
466.96	634.29
467.14	615.56
467.32	564.07
467.51	547.69
467.69	580.45
467.87	596.84
468.05	559.39
468.23	596.84
468.41	608.54
468.60	491.51
468.78	507.90
468.96	493.85
469.14	512.58
469.32	561.73
469.50	540.66
469.69	561.73
469.87	564.07
470.05	521.94
470.23	540.66
470.41	554.71
470.59	475.13
470.77	573.43
470.95	470.45
471.14	524.28
471.32	503.22
471.50	594.50
471.68	505.56
471.86	573.43
472.04	491.51
472.22	528.96
472.40	599.18
472.58	503.22
472.77	585.13
472.95	613.22
473.13	535.98
473.31	512.58
473.49	526.62
473.67	564.07
473.85	589.82
474.03	582.79
474.21	535.98
474.39	505.56
474.57	512.58
474.75	510.24
474.93	512.58
475.12	458.74
475.30	498.53
475.48	634.29
475.66	543.00
475.84	594.50
476.02	587.47
476.20	573.43
476.38	552.37
476.56	596.84
476.74	524.28
476.92	538.32
477.10	475.13
477.28	552.37
477.46	486.83
477.64	573.43
477.82	535.98
478.00	547.69
478.18	615.56
478.36	566.41
478.54	674.07
478.72	589.82
478.90	592.16
479.08	620.24
479.26	746.63
479.44	772.38
479.62	800.46
479.80	716.20
479.98	739.61
480.16	690.46
480.34	807.48
480.52	863.66
480.70	926.85
480.88	866.00
481.06	966.64
481.24	936.21
481.41	997.07
481.59	1210.06
481.77	1135.16
481.95	1221.76
482.13	1409.00
482.31	1357.51
482.49	1469.86
482.67	1596.25
482.85	1645.40
483.03	1949.67
483.21	1975.41
483.39	2122.87
483.57	2162.66
483.74	2293.72
483.92	2462.24
484.10	2511.39
484.28	2818.00
484.46	2946.73
484.64	3012.27
484.82	3180.79
485.00	3431.23
485.18	3602.08
485.35	3817.41
485.53	4042.11
485.71	4100.62
485.89	4325.31
486.07	4456.38
486.25	4512.55
486.43	4444.68
486.61	4709.16
486.78	4589.79
486.96	4585.11
487.14	4542.98
487.32	4503.19
487.50	4624.90
487.68	4442.34
487.85	4514.89
488.03	4334.67
488.21	4290.20
488.39	4177.86
488.57	4147.43
488.75	3978.91
488.92	4227.01
489.10	3786.99
489.28	3566.98
489.46	3590.38
489.64	3604.42
489.81	3637.19
489.99	3552.93
490.17	3435.91
490.35	3510.80
490.53	3393.78
490.70	3421.86
490.88	3382.07
491.06	3487.40
491.24	3681.66
491.41	3932.10
491.59	3754.22
491.77	3506.12
491.95	3353.99
492.13	3166.74
492.30	3150.36
492.48	2918.65
492.66	3026.31
492.84	3007.59
493.01	2902.26
493.19	2937.37
493.37	2881.20
493.54	2810.98
493.72	2700.98
493.90	2679.91
494.08	2616.72
494.25	2661.19
494.43	2506.71
494.61	2698.64
494.79	2511.39
494.96	2516.08
495.14	2452.88
495.32	2382.67
495.49	2422.45
495.67	2333.51
495.85	2296.07
496.02	2200.10
496.20	2232.87
496.38	2209.47
496.55	2120.53
496.73	2181.38
496.91	2073.71
497.09	2141.59
497.26	2115.84
497.44	2078.40
497.62	2008.18
497.79	1881.79
497.97	1874.77
498.14	1856.04
498.32	1849.02
498.50	1724.97
498.67	1666.46
498.85	1703.91
499.03	1528.37
499.20	1565.82
499.38	1563.48
499.56	1561.14
499.73	1530.71
499.91	1455.81
500.08	1406.66
500.26	1380.92
500.44	1359.85
500.61	1306.02
500.79	1249.85
500.97	1160.91
501.14	1273.25
501.32	1088.35
501.49	1165.59
501.67	1144.52
501.84	1132.82
502.02	896.43
502.20	1069.62
502.37	1083.67
502.55	990.05
502.72	877.70
502.90	863.66
503.07	849.61
503.25	870.68
503.43	861.32
503.60	809.83
503.78	819.19
503.95	781.74
504.13	847.27
504.30	709.18
504.48	716.20
504.65	842.59
504.83	727.91
505.01	723.23
505.18	727.91
505.36	697.48
505.53	648.33
505.71	657.69
505.88	671.73
506.06	603.86
506.23	685.78
506.41	617.90
506.58	636.63
506.76	528.96
506.93	613.22
507.11	692.80
507.28	660.03
507.46	547.69
507.63	561.73
507.81	587.47
507.98	552.37
508.16	538.32
508.33	592.16
508.50	512.58
508.68	571.09
508.85	674.07
509.03	615.56
509.20	636.63
509.38	613.22
509.55	617.90
509.73	573.43
509.90	641.31
510.08	566.41
510.25	601.52
510.42	512.58
510.60	561.73
510.77	552.37
510.95	550.03
511.12	533.64
511.30	456.40
511.47	629.60
511.64	638.97
511.82	545.34
511.99	444.70
512.17	552.37
512.34	493.85
512.51	477.47
512.69	610.88
512.86	615.56
513.04	564.07
513.21	533.64
513.38	505.56
513.56	559.39
513.73	472.79
513.90	519.60
514.08	517.26
514.25	444.70
514.43	435.34
514.60	458.74
514.77	414.27
514.95	435.34
515.12	447.04
515.29	458.74
515.47	479.81
515.64	519.60
515.81	440.02
515.99	505.56
516.16	535.98
516.33	505.56
516.51	386.19
516.68	456.40
516.85	503.22
517.03	428.32
517.20	400.23
517.37	397.89
517.54	334.70
517.72	430.66
517.89	414.27
518.06	425.98
518.24	486.83
518.41	482.15
518.58	489.17
518.75	400.23
518.93	428.32
519.10	423.64
519.27	475.13
519.45	510.24
519.62	477.47
519.79	390.87
519.96	376.83
520.14	414.27
520.31	374.49
520.48	409.59
520.65	447.04
520.83	512.58
521.00	437.68
521.17	503.22
521.34	442.36
521.52	400.23
521.69	430.66
521.86	444.70
522.03	444.70
522.20	496.19
522.38	433.00
522.55	470.45
522.72	416.62
522.89	393.21
523.07	418.96
523.24	416.62
523.41	447.04
523.58	421.30
523.75	503.22
523.92	383.85
524.10	465.77
524.27	470.45
524.44	416.62
524.61	496.19
524.78	484.49
524.96	454.06
525.13	475.13
525.30	461.09
525.47	528.96
525.64	512.58
525.81	514.92
525.98	568.75
526.16	531.30
526.33	484.49
526.50	538.32
526.67	454.06
526.84	465.77
527.01	428.32
527.18	564.07
527.36	638.97
527.53	643.65
527.70	592.16
527.87	540.66
528.04	543.00
528.21	524.28
528.38	568.75
528.55	550.03
528.72	528.96
528.89	657.69
529.07	561.73
529.24	547.69
529.41	589.82
529.58	662.37
529.75	645.99
529.92	601.52
530.09	587.47
530.26	566.41
530.43	660.03
530.60	667.05
530.77	695.14
530.94	758.33
531.11	866.00
531.28	760.67
531.46	716.20
531.63	772.38
531.80	828.55
531.97	894.08
532.14	1043.88
532.31	1289.64
532.48	1439.43
532.65	1739.02
532.82	1820.94
532.99	2193.08
533.16	2471.61
533.33	2719.70
533.50	2656.51
533.67	2263.30
533.84	1867.75
534.01	1633.69
534.18	1556.46
534.35	1556.46
534.52	1533.05
534.69	1575.18
534.86	1563.48
535.03	1743.70
535.20	1820.94
535.37	1853.70
535.54	2050.31
535.71	2099.46
535.88	2148.61
536.05	2312.45
536.22	2471.61
536.38	2708.00
536.55	2967.80
536.72	3311.86
536.89	3618.47
537.06	3812.73
537.23	4671.71
537.40	5139.82
537.57	5439.40
537.74	5659.42
537.91	5760.06
538.08	6104.12
538.25	6097.10
538.42	6148.59
538.59	6399.02
538.75	6415.41
538.92	6850.75
539.09	7482.69
539.26	8177.83
539.43	9329.38
539.60	10848.38
539.77	11939.07
539.94	13617.24
540.11	14656.43
540.28	16297.15
540.44	18251.50
540.61	20058.39
540.78	22888.10
540.95	27075.32
541.12	33092.83
541.29	37469.64
541.46	40601.27
541.62	39323.34
541.79	38115.62
541.96	35864.03
542.13	32882.19
542.30	30452.71
542.47	28924.34
542.63	27349.16
542.80	26546.36
542.97	25895.69
543.14	25668.66
543.31	26054.84
543.48	26008.03
543.64	26588.49
543.81	26356.77
543.98	26141.44
544.15	26871.69
544.32	27267.24
544.48	27585.55
544.65	26717.22
544.82	26426.99
544.99	26295.92
545.16	26663.38
545.32	28350.91
545.49	40512.33
545.66	60474.76
545.83	65535.00
546.00	65535.00
546.16	62908.92
546.33	46588.36
546.50	35585.50
546.67	27618.32
546.83	24348.59
547.00	23477.91
547.17	22469.14
547.34	21200.57
547.50	20634.16
547.67	19585.60
547.84	18867.06
548.00	18106.38
548.17	17411.25
548.34	16709.08
548.51	15955.43
548.67	15487.32
548.84	14452.81
549.01	13933.21
549.18	13357.44
549.34	12587.40
549.51	12009.29
549.68	11749.49
549.84	11021.58
550.01	10991.16
550.18	10422.41
550.34	9940.26
550.51	9275.54
550.68	8786.37
550.84	8248.05
551.01	7932.08
551.18	7485.03
551.34	7255.66
551.51	6890.54
551.68	6600.31
551.84	6413.07
552.01	6132.20
552.18	6008.16
552.34	5717.93
552.51	5472.17
552.68	5095.35
552.84	4802.78
553.01	4823.84
553.18	4660.01
553.34	4503.19
553.51	4355.74
553.67	4329.99
553.84	4112.32
554.01	3885.29
554.17	3517.83
554.34	3225.26
554.51	3180.79
554.67	3009.93
554.84	2771.19
555.00	2605.02
555.17	2408.41
555.33	2399.05
555.50	2237.55
555.67	2310.11
555.83	2125.21
556.00	1970.73
556.16	2022.22
556.33	1844.34
556.50	1713.27
556.66	1767.10
556.83	1666.46
556.99	1715.61
557.16	1640.72
557.32	1593.90
557.49	1425.39
557.65	1451.13
557.82	1376.24
557.98	1359.85
558.15	1299.00
558.32	1317.72
558.48	1240.48
558.65	1181.97
558.81	1205.38
558.98	1200.69
559.14	1245.16
559.31	1174.95
559.47	1144.52
559.64	1191.33
559.80	1128.14
559.97	1156.22
560.13	1100.05
560.30	1121.12
560.46	997.07
560.63	1102.39
560.79	1067.28
560.96	1081.33
561.12	994.73
561.29	1050.90
561.45	1015.79
561.61	1093.03
561.78	1102.39
561.94	1032.18
562.11	1001.75
562.27	1050.90
562.44	985.37
562.60	1090.69
562.77	1006.43
562.93	985.37
563.10	980.68
563.26	915.15
563.42	966.64
563.59	922.17
563.75	875.36
563.92	968.98
564.08	901.11
564.24	882.38
564.41	894.08
564.57	849.61
564.74	884.72
564.90	842.59
565.07	898.77
565.23	814.51
565.39	760.67
565.56	720.88
565.72	814.51
565.88	758.33
566.05	734.93
566.21	755.99
566.38	812.17
566.54	816.85
566.70	727.91
566.87	795.78
567.03	788.76
567.19	814.51
567.36	835.57
567.52	786.42
567.68	739.61
567.85	744.29
568.01	798.12
568.17	835.57
568.34	809.83
568.50	924.51
568.66	816.85
568.83	898.77
568.99	753.65
569.15	748.97
569.32	755.99
569.48	650.67
569.64	732.59
569.81	641.31
569.97	674.07
570.13	655.35
570.30	662.37
570.46	601.52
570.62	540.66
570.78	615.56
570.95	585.13
571.11	613.22
571.27	620.24
571.43	578.11
571.60	599.18
571.76	582.79
571.92	631.94
572.09	578.11
572.25	599.18
572.41	617.90
572.57	540.66
572.74	622.58
572.90	650.67
573.06	681.10
573.22	578.11
573.38	645.99
573.55	667.05
573.71	669.39
573.87	662.37
574.03	636.63
574.20	730.25
574.36	671.73
574.52	737.27
574.68	760.67
574.84	805.14
575.01	809.83
575.17	809.83
575.33	800.46
575.49	1015.79
575.65	1053.24
575.82	1008.77
575.98	1256.87
576.14	1371.55
576.30	2429.48
576.46	7368.01
576.62	15087.09
576.79	23257.90
576.95	16046.71
577.11	9177.24
577.27	6106.46
577.43	4154.45
577.59	2630.76
577.75	2024.56
577.92	1919.24
578.08	1881.79
578.24	1923.92
578.40	2623.74
578.56	6981.82
578.72	14618.99
578.88	21474.42
579.04	15108.16
579.21	9039.15
579.37	6523.07
579.53	4947.89
579.69	4299.56
579.85	5451.11
580.01	6937.35
580.17	7213.53
580.33	6019.86
580.49	4947.89
580.65	4219.99
580.82	3868.91
580.98	3618.47
581.14	3808.05
581.30	4081.89
581.46	4332.33
581.62	4617.88
581.78	5135.14
581.94	5404.30
582.10	5921.56
582.26	5996.45
582.42	6169.65
582.58	6574.56
582.74	6555.84
582.90	6693.93
583.06	6927.99
583.22	6740.74
583.38	6750.10
583.54	6675.21
583.70	6782.87
583.86	6717.34
584.02	6207.10
584.18	6274.98
584.34	6289.02
584.50	6244.55
584.66	6132.20
584.82	6270.30
584.98	6132.20
585.14	5867.72
585.30	5638.35
585.46	5392.59
585.62	5467.49
585.78	5476.85
585.94	5528.35
586.10	5661.76
586.26	6038.58
586.42	6537.12
586.58	7765.90
586.74	9596.20
586.90	11878.22
587.06	13460.42
587.22	13568.09
587.38	12351.01
587.54	10438.79
587.70	8779.35
587.86	7194.81
588.02	6265.61
588.18	5514.30
588.34	4894.06
588.49	4411.91
588.65	4339.35
588.81	4212.96
588.97	3894.65
589.13	3681.66
589.29	3815.07
589.45	3679.32
589.61	3716.77
589.77	3681.66
589.93	3763.58
590.08	3775.28
590.24	3934.44
590.40	4081.89
590.56	4194.24
590.72	4255.09
590.88	4355.74
591.04	4484.47
591.20	4652.98
591.35	4873.00
591.51	5090.67
591.67	5308.34
591.83	5598.56
591.99	6108.80
592.15	6483.28
592.31	7183.10
592.46	7901.65
592.62	8564.02
592.78	9132.77
592.94	9593.86
593.10	9523.64
593.26	9273.20
593.41	8416.57
593.57	7606.74
593.73	6757.13
593.89	5909.85
594.05	5235.78
594.20	4531.28
594.36	4278.50
594.52	4025.72
594.68	3726.13
594.84	3487.40
594.99	3412.50
595.15	3384.41
595.31	3318.88
595.47	3295.47
595.62	3283.77
595.78	3337.60
595.94	3325.90
596.10	3300.16
596.25	3405.48
596.41	3389.10
596.57	3421.86
596.73	3396.12
596.88	3337.60
597.04	3342.28
597.20	3274.41
597.36	3447.61
597.51	3410.16
597.67	3742.52
597.83	3803.37
597.99	3948.48
598.14	4198.92
598.30	4440.00
598.46	4718.52
598.61	5263.86
598.77	5322.38
598.93	5277.91
599.09	5542.39
599.24	5731.97
599.40	5666.44
599.56	5558.77
599.71	5373.87
599.87	4980.66
600.03	4777.03
600.18	4521.92
600.34	4063.17
600.50	3918.06
600.65	3637.19
600.81	3447.61
600.97	3194.83
601.12	2935.03
601.28	2916.31
601.44	2738.43
601.59	2605.02
601.75	2401.39
601.91	2431.82
602.06	2293.72
602.22	2244.57
602.37	2122.87
602.53	2176.70
602.69	2136.91
602.84	2120.53
603.00	2202.44
603.16	2214.15
603.31	2179.04
603.47	2237.55
603.62	2363.94
603.78	2317.13
603.94	2307.77
604.09	2417.77
604.25	2464.58
604.40	2544.16
604.56	2600.34
604.71	2534.80
604.87	2567.57
605.03	2691.62
605.18	2682.25
605.34	2771.19
605.49	2607.36
605.65	2867.16
605.80	2829.71
605.96	3021.63
606.12	3133.98
606.27	3332.92
606.43	3428.88
606.58	3627.83
606.74	3808.05
606.89	3948.48
607.05	4189.56
607.20	4416.59
607.36	4613.20
607.51	4732.56
607.67	5217.05
607.82	5434.72
607.98	5949.64
608.13	6455.20
608.29	6853.09
608.44	7555.25
608.60	8086.55
608.75	8858.93
608.91	9806.84
609.06	10473.90
609.22	11934.39
609.37	13139.77
609.53	14726.65
609.68	16669.30
609.84	19662.84
609.99	22155.51
610.15	26190.59
610.30	32720.69
610.46	39997.41
610.61	50447.91
610.76	58321.47
610.92	63941.10
611.07	65535.00
611.23	65535.00
611.38	65535.00
611.54	64228.98
611.69	59889.63
611.84	54504.06
612.00	48458.45
612.15	41926.02
612.31	36320.43
612.46	31845.33
612.62	29947.15
612.77	28591.98
612.92	27040.21
613.08	25158.42
613.23	24231.57
613.39	23293.01
613.54	22382.54
613.69	21804.43
613.85	21493.14
614.00	21301.22
614.15	21621.87
614.31	21315.26
614.46	20966.52
614.62	19978.81
614.77	18923.23
614.92	17942.55
615.08	16500.78
615.23	15220.50
615.38	13816.18
615.54	12585.06
615.69	11934.39
615.84	10565.18
616.00	9994.09
616.15	9376.19
616.30	8535.93
616.46	8018.68
616.61	7454.61
616.76	7225.23
616.92	6597.97
617.07	6375.62
617.22	6052.63
617.37	5757.72
617.53	5554.09
617.68	5254.50
617.83	5046.20
617.99	4966.62
618.14	4765.33
618.29	4737.24
618.45	4566.39
618.60	4451.70
618.75	4500.85
618.90	4360.42
619.06	4250.41
619.21	4266.80
619.36	4372.12
619.51	4269.14
619.67	4322.97
619.82	4348.72
619.97	4374.46
620.12	4444.68
620.28	4528.94
620.43	4589.79
620.58	4732.56
620.73	4599.15
620.89	4809.80
621.04	4638.94
621.19	4683.41
621.34	4526.60
621.49	4517.23
621.65	4557.02
621.80	4329.99
621.95	4510.21
622.10	4585.11
622.25	4449.36
622.41	4402.55
622.56	4479.79
622.71	4751.29
622.86	4751.29
623.01	4884.70
623.16	5011.09
623.32	5167.90
623.47	5130.45
623.62	5144.50
623.77	5158.54
623.92	4954.91
624.07	5142.16
624.23	5240.46
624.38	4978.32
624.53	5181.95
624.68	5245.14
624.83	5128.11
624.98	5125.77
625.13	5128.11
625.29	5205.35
625.44	5320.04
625.59	5193.65
625.74	5254.50
625.89	5329.40
626.04	5247.48
626.19	5207.69
626.34	5142.16
626.49	5142.16
626.65	5247.48
626.80	5020.45
626.95	5025.13
627.10	5013.43
627.25	4716.18
627.40	4784.06
627.55	4751.29
627.70	4634.26
627.85	4699.80
628.00	4620.22
628.15	4575.75
628.30	4603.83
628.45	4786.40
628.60	4664.69
628.76	4610.86
628.91	4610.86
629.06	4753.63
629.21	4748.95
629.36	4861.29
629.51	4968.96
629.66	5305.99
629.81	5654.73
629.96	6118.16
630.11	6787.55
630.26	7386.73
630.41	8526.57
630.56	9200.65
630.71	10120.48
630.86	10303.04
631.01	10171.97
631.16	9308.31
631.31	8587.43
631.46	7389.07
631.61	6134.54
631.76	5170.24
631.91	4297.22
632.06	3644.21
632.21	3150.36
632.36	2757.15
632.51	2480.97
632.66	2289.04
632.81	1954.35
632.96	1853.70
633.10	1811.57
633.25	1734.34
633.40	1706.25
633.55	1621.99
633.70	1572.84
633.85	1385.60
634.00	1385.60
634.15	1425.39
634.30	1369.21
634.45	1336.45
634.60	1409.00
634.75	1369.21
634.90	1266.23
635.05	1198.35
635.19	1317.72
635.34	1207.72
635.49	1188.99
635.64	1179.63
635.79	1198.35
635.94	1149.20
636.09	1212.40
636.24	1149.20
636.39	1114.10
636.53	1053.24
636.68	1067.28
636.83	1008.77
636.98	1123.46
637.13	1050.90
637.28	983.02
637.43	1071.97
637.57	1029.84
637.72	1020.47
637.87	938.55
638.02	835.57
638.17	943.24
638.32	947.92
638.46	1004.09
638.61	896.43
638.76	884.72
638.91	858.98
639.06	844.93
639.20	940.90
639.35	882.38
639.50	847.27
639.65	898.77
639.80	856.64
639.94	823.87
640.09	873.02
640.24	849.61
640.39	823.87
640.54	891.74
640.68	844.93
640.83	828.55
640.98	821.53
641.13	814.51
641.27	901.11
641.42	784.08
641.57	851.96
641.72	800.46
641.86	854.30
642.01	844.93
642.16	877.70
642.31	837.91
642.45	954.94
642.60	863.66
642.75	800.46
642.90	873.02
643.04	798.12
643.19	833.23
643.34	854.30
643.48	858.98
643.63	779.40
643.78	847.27
643.93	891.74
644.07	858.98
644.22	898.77
644.37	816.85
644.51	847.27
644.66	898.77
644.81	779.40
644.95	894.08
645.10	847.27
645.25	821.53
645.39	863.66
645.54	779.40
645.69	840.25
645.83	758.33
645.98	819.19
646.13	786.42
646.27	751.31
646.42	709.18
646.57	866.00
646.71	767.70
646.86	772.38
647.00	741.95
647.15	786.42
647.30	765.36
647.44	753.65
647.59	748.97
647.74	784.08
647.88	774.72
648.03	720.88
648.17	765.36
648.32	868.34
648.47	800.46
648.61	877.70
648.76	828.55
648.90	987.71
649.05	943.24
649.20	973.66
649.34	1123.46
649.49	1203.04
649.63	1306.02
649.78	1514.33
649.92	1884.13
650.07	2165.00
650.21	2541.82
650.36	2806.30
650.51	2595.65
650.65	2656.51
650.80	2410.75
650.94	2167.34
651.09	1867.75
651.23	1675.82
651.38	1514.33
651.52	1324.74
651.67	1268.57
651.81	1200.69
651.96	1104.73
652.10	1055.58
652.25	971.32
652.39	1107.07
652.54	1196.01
652.68	1184.31
652.83	1277.93
652.97	1263.89
653.12	1322.40
653.26	1299.00
653.41	1231.12
653.55	1219.42
653.70	1093.03
653.84	1029.84
653.99	997.07
654.13	990.05
654.27	931.53
654.42	788.76
654.56	840.25
654.71	877.70
654.85	840.25
655.00	798.12
655.14	788.76
655.29	723.23
655.43	786.42
655.57	746.63
655.72	737.27
655.86	709.18
656.01	793.44
656.15	678.76
656.30	755.99
656.44	704.50
656.58	718.54
656.73	741.95
656.87	746.63
657.01	772.38
657.16	795.78
657.30	849.61
657.45	887.06
657.59	884.72
657.73	868.34
657.88	1020.47
658.02	1008.77
658.16	901.11
658.31	854.30
658.45	730.25
658.60	779.40
658.74	667.05
658.88	643.65
659.03	608.54
659.17	596.84
659.31	561.73
659.46	564.07
659.60	533.64
659.74	554.71
659.89	571.09
660.03	617.90
660.17	610.88
660.32	627.26
660.46	631.94
660.60	498.53
660.74	561.73
660.89	582.79
661.03	624.92
661.17	585.13
661.32	690.46
661.46	725.57
661.60	908.13
661.74	1109.41
661.89	1380.92
662.03	1476.88
662.17	1629.01
662.31	1605.61
662.46	1694.55
662.60	1509.65
662.74	1373.89
662.88	1228.78
663.03	1076.65
663.17	1027.50
663.31	968.98
663.45	866.00
663.60	784.08
663.74	856.64
663.88	697.48
664.02	699.82
664.17	655.35
664.31	741.95
664.45	627.26
664.59	671.73
664.73	606.20
664.88	571.09
665.02	491.51
665.16	489.17
665.30	547.69
665.44	571.09
665.59	564.07
665.73	528.96
665.87	493.85
666.01	564.07
666.15	575.77
666.29	535.98
666.44	507.90
666.58	543.00
666.72	540.66
666.86	580.45
667.00	538.32
667.14	575.77
667.28	582.79
667.43	512.58
667.57	559.39
667.71	561.73
667.85	538.32
667.99	589.82
668.13	589.82
668.27	547.69
668.41	514.92
668.56	503.22
668.70	524.28
668.84	535.98
668.98	510.24
669.12	512.58
669.26	465.77
669.40	507.90
669.54	526.62
669.68	528.96
669.82	400.23
669.96	528.96
670.10	550.03
670.25	564.07
670.39	505.56
670.53	484.49
670.67	461.09
670.81	503.22
670.95	517.26
671.09	489.17
671.23	512.58
671.37	463.43
671.51	552.37
671.65	564.07
671.79	451.72
671.93	435.34
672.07	463.43
672.21	458.74
672.35	433.00
672.49	353.42
672.63	468.11
672.77	507.90
672.91	458.74
673.05	454.06
673.19	444.70
673.33	351.08
673.47	416.62
673.61	440.02
673.75	390.87
673.89	437.68
674.03	526.62
674.17	383.85
674.31	463.43
674.45	486.83
674.59	465.77
674.73	383.85
674.87	383.85
675.01	414.27
675.15	416.62
675.29	449.38
675.43	454.06
675.56	414.27
675.70	404.91
675.84	346.40
675.98	379.17
676.12	397.89
676.26	379.17
676.40	402.57
676.54	395.55
676.68	362.78
676.82	358.10
676.96	358.10
677.10	341.72
677.23	376.83
677.37	341.72
677.51	367.46
677.65	444.70
677.79	334.70
677.93	440.02
678.07	367.46
678.21	379.17
678.34	313.63
678.48	351.08
678.62	383.85
678.76	388.53
678.90	456.40
679.04	388.53
679.18	322.99
679.31	416.62
679.45	395.55
679.59	332.36
679.73	447.04
679.87	386.19
680.00	404.91
680.14	409.59
680.28	461.09
680.42	379.17
680.56	468.11
680.70	341.72
680.83	409.59
680.97	325.33
681.11	531.30
681.25	397.89
681.39	458.74
681.52	456.40
681.66	451.72
681.80	374.49
681.94	400.23
682.07	411.93
682.21	346.40
682.35	313.63
682.49	416.62
682.62	416.62
682.76	301.93
682.90	341.72
683.04	367.46
683.17	404.91
683.31	395.55
683.45	383.85
683.59	433.00
683.72	430.66
683.86	397.89
684.00	320.65
684.13	283.20
684.27	390.87
684.41	376.83
684.55	393.21
684.68	360.44
684.82	353.42
684.96	367.46
685.09	341.72
685.23	369.80
685.37	442.36
685.50	397.89
685.64	437.68
685.78	440.02
685.91	472.79
686.05	484.49
686.19	507.90
686.32	543.00
686.46	606.20
686.60	613.22
686.73	596.84
686.87	755.99
687.01	734.93
687.14	821.53
687.28	887.06
687.42	994.73
687.55	875.36
687.69	961.96
687.82	959.62
687.96	1025.15
688.10	1001.75
688.23	880.04
688.37	880.04
688.50	795.78
688.64	711.52
688.78	554.71
688.91	561.73
689.05	421.30
689.18	571.09
689.32	486.83
689.46	411.93
689.59	449.38
689.73	383.85
689.86	264.48
690.00	365.12
690.13	299.59
690.27	306.61
690.41	388.53
690.54	451.72
690.68	449.38
690.81	409.59
690.95	325.33
691.08	301.93
691.22	395.55
691.35	320.65
691.49	360.44
691.62	252.78
691.76	220.01
691.89	231.71
692.03	243.42
692.16	248.10
692.30	231.71
692.43	276.18
692.57	308.95
692.70	308.95
692.84	341.72
692.97	297.25
693.11	355.76
693.24	528.96
693.38	547.69
693.51	716.20
693.65	800.46
693.78	866.00
693.92	748.97
694.05	772.38
694.19	624.92
694.32	524.28
694.45	510.24
694.59	456.40
694.72	383.85
694.86	290.23
694.99	304.27
695.13	224.69
695.26	241.08
695.39	201.29
695.53	311.29
695.66	250.44
695.80	245.76
695.93	177.88
696.07	306.61
696.20	348.74
696.33	344.06
696.47	315.97
696.60	250.44
696.73	224.69
696.87	203.63
697.00	229.37
697.14	168.52
697.27	182.56
697.40	241.08
697.54	194.26
697.67	222.35
697.80	182.56
697.94	220.01
698.07	187.24
698.21	212.99
698.34	170.86
698.47	191.92
698.61	257.46
698.74	187.24
698.87	217.67
699.01	194.26
699.14	182.56
699.27	203.63
699.40	365.12
699.54	276.18
699.67	175.54
699.80	166.18
699.94	205.97
700.07	201.29
700.20	220.01
700.34	187.24
700.47	173.20
700.60	210.65
700.73	238.73
700.87	245.76
701.00	224.69
701.13	229.37
701.26	194.26
701.40	257.46
701.53	161.50
701.66	227.03
701.79	271.50
701.93	198.95
702.06	220.01
702.19	231.71
702.32	315.97
702.46	264.48
702.59	259.80
702.72	159.16
702.85	208.31
702.99	280.86
703.12	290.23
703.25	224.69
703.38	217.67
703.51	276.18
703.65	252.78
703.78	332.36
703.91	372.15
704.04	397.89
704.17	414.27
704.31	367.46
704.44	346.40
704.57	294.91
704.70	386.19
704.83	322.99
704.96	379.17
705.10	374.49
705.23	383.85
>>>>>End Processed Spectral Data<<<<<
