SpectraSuite Data File
++++++++++++++++++++++++++++++++++++
Date: Fri Oct 04 11:44:27 GMT-05:00 2013
User: price-jones
Dark Spectrum Present: No
Reference Spectrum Present: No
Number of Sampled Component Spectra: 1
Spectrometers: USB2+H05261
Integration Time (usec): 100000 (USB2+H05261)
Spectra Averaged: 1 (USB2+H05261)
Boxcar Smoothing: 0 (USB2+H05261)
Correct for Electrical Dark: No (USB2+H05261)
Strobe/Lamp Enabled: No (USB2+H05261)
Correct for Detector Non-linearity: No (USB2+H05261)
Correct for Stray Light: No (USB2+H05261)
Number of Pixels in Processed Spectrum: 2048
>>>>>Begin Processed Spectral Data<<<<<
365.73	25.75
365.92	25.75
366.12	25.75
366.32	0.00
366.52	0.00
366.72	0.00
366.91	0.00
367.11	0.00
367.31	0.00
367.51	0.00
367.70	0.00
367.90	0.00
368.10	0.00
368.30	0.00
368.49	0.00
368.69	0.00
368.89	0.00
369.09	0.00
369.28	0.00
369.48	0.00
369.68	0.00
369.87	0.00
370.07	2.34
370.27	2.34
370.47	65.54
370.66	318.31
370.86	411.93
371.06	421.30
371.25	493.85
371.45	395.55
371.65	404.91
371.84	344.06
372.04	245.76
372.24	414.27
372.44	421.30
372.63	484.49
372.83	449.38
373.03	379.17
373.22	372.15
373.42	294.91
373.62	379.17
373.81	454.06
374.01	475.13
374.21	440.02
374.40	463.43
374.60	512.58
374.79	519.60
374.99	489.17
375.19	545.34
375.38	461.09
375.58	500.87
375.78	533.64
375.97	507.90
376.17	528.96
376.37	557.05
376.56	540.66
376.76	491.51
376.95	550.03
377.15	582.79
377.35	568.75
377.54	526.62
377.74	617.90
377.93	629.60
378.13	660.03
378.33	589.82
378.52	594.50
378.72	568.75
378.91	517.26
379.11	479.81
379.31	416.62
379.50	484.49
379.70	575.77
379.89	596.84
380.09	636.63
380.28	634.29
380.48	662.37
380.68	620.24
380.87	526.62
381.07	587.47
381.26	540.66
381.46	482.15
381.65	496.19
381.85	491.51
382.04	421.30
382.24	484.49
382.43	418.96
382.63	440.02
382.83	409.59
383.02	456.40
383.22	482.15
383.41	428.32
383.61	451.72
383.80	566.41
384.00	449.38
384.19	552.37
384.39	603.86
384.58	713.86
384.78	578.11
384.97	580.45
385.17	526.62
385.36	517.26
385.56	531.30
385.75	475.13
385.95	627.26
386.14	662.37
386.34	624.92
386.53	608.54
386.72	535.98
386.92	519.60
387.11	622.58
387.31	568.75
387.50	533.64
387.70	580.45
387.89	543.00
388.09	596.84
388.28	554.71
388.48	505.56
388.67	690.46
388.86	653.01
389.06	748.97
389.25	819.19
389.45	674.07
389.64	716.20
389.84	767.70
390.03	737.27
390.22	786.42
390.42	730.25
390.61	851.96
390.81	870.68
391.00	870.68
391.19	868.34
391.39	791.10
391.58	753.65
391.78	781.74
391.97	755.99
392.16	692.80
392.36	695.14
392.55	601.52
392.75	468.11
392.94	376.83
393.13	358.10
393.33	440.02
393.52	528.96
393.71	641.31
393.91	732.59
394.10	685.78
394.29	772.38
394.49	770.04
394.68	851.96
394.88	877.70
395.07	889.40
395.26	863.66
395.46	835.57
395.65	830.89
395.84	676.41
396.04	711.52
396.23	575.77
396.42	489.17
396.62	533.64
396.81	566.41
397.00	615.56
397.19	795.78
397.39	875.36
397.58	1011.11
397.77	1039.20
397.97	1078.99
398.16	1111.75
398.35	1069.62
398.55	1104.73
398.74	1109.41
398.93	1242.82
399.12	1167.93
399.32	1139.84
399.51	1069.62
399.70	1219.42
399.90	1137.50
400.09	1303.68
400.28	1282.61
400.47	1315.38
400.67	1282.61
400.86	1203.04
401.05	1394.96
401.24	1299.00
401.44	1289.64
401.63	1324.74
401.82	1474.54
402.01	1308.36
402.21	1399.64
402.40	1350.49
402.59	1219.42
402.78	1369.21
402.97	1132.82
403.17	1233.46
403.36	1266.23
403.55	1378.58
403.74	1446.45
403.93	1383.26
404.13	1420.71
404.32	1362.19
404.51	1378.58
404.70	1385.60
404.89	1287.29
405.09	1341.13
405.28	1385.60
405.47	1252.19
405.66	1413.68
405.85	1268.57
406.05	1217.08
406.24	1369.21
406.43	1299.00
406.62	1282.61
406.81	1434.75
407.00	1380.92
407.20	1287.29
407.39	1345.81
407.58	1345.81
407.77	1364.53
407.96	1404.32
408.15	1493.26
408.34	1516.67
408.54	1526.03
408.73	1495.60
408.92	1523.69
409.11	1504.96
409.30	1467.52
409.49	1287.29
409.68	1158.57
409.87	1214.74
410.07	1203.04
410.26	1373.89
410.45	1371.55
410.64	1448.79
410.83	1488.58
411.02	1483.90
411.21	1617.31
411.40	1603.27
411.59	1654.76
411.78	1479.22
411.98	1596.25
412.17	1586.88
412.36	1535.39
412.55	1455.81
412.74	1434.75
412.93	1514.33
413.12	1593.90
413.31	1582.20
413.50	1554.12
413.69	1680.50
413.88	1659.44
414.07	1554.12
414.26	1657.10
414.45	1659.44
414.64	1603.27
414.83	1640.72
415.02	1743.70
415.22	1687.53
415.41	1610.29
415.60	1708.59
415.79	1813.92
415.98	1860.73
416.17	1844.34
416.36	1720.29
416.55	1680.50
416.74	1682.85
416.93	1696.89
417.12	1671.14
417.31	1708.59
417.50	1701.57
417.69	1724.97
417.88	1746.04
418.07	1746.04
418.26	1687.53
418.45	1687.53
418.64	1769.44
418.83	1757.74
419.02	1724.97
419.21	1771.79
419.39	1703.91
419.58	1638.38
419.77	1563.48
419.96	1715.61
420.15	1757.74
420.34	1767.10
420.53	1851.36
420.72	1926.26
420.91	1820.94
421.10	1895.83
421.29	1851.36
421.48	1816.26
421.67	1867.75
421.86	1863.07
422.05	1680.50
422.24	1629.01
422.43	1666.46
422.61	1696.89
422.80	1846.68
422.99	1732.00
423.18	1781.15
423.37	1827.96
423.56	1792.85
423.75	1734.34
423.94	1706.25
424.13	1755.40
424.32	1750.72
424.50	1823.28
424.69	1799.87
424.88	1774.13
425.07	1736.68
425.26	1724.97
425.45	1694.55
425.64	1750.72
425.83	1739.02
426.01	1708.59
426.20	1760.08
426.39	1739.02
426.58	1762.42
426.77	1603.27
426.96	1596.25
427.15	1668.80
427.33	1708.59
427.52	1830.30
427.71	1760.08
427.90	1675.82
428.09	1652.42
428.28	1633.69
428.46	1645.40
428.65	1617.31
428.84	1661.78
429.03	1675.82
429.22	1575.18
429.40	1533.05
429.59	1390.28
429.78	1303.68
429.97	1256.87
430.16	1240.48
430.34	1196.01
430.53	1294.32
430.72	1303.68
430.91	1378.58
431.10	1593.90
431.28	1729.66
431.47	2015.20
431.66	2094.78
431.85	1856.04
432.03	1764.76
432.22	1708.59
432.41	1755.40
432.60	1825.62
432.79	1893.49
432.97	2008.18
433.16	1905.20
433.35	1741.36
433.54	1722.63
433.72	1619.65
433.91	1633.69
434.10	1729.66
434.28	1839.66
434.47	1907.54
434.66	1930.94
434.85	1909.88
435.03	2022.22
435.22	2190.74
435.41	2647.15
435.59	2499.69
435.78	2434.16
435.97	2331.17
436.16	2228.19
436.34	2052.65
436.53	1998.82
436.72	2085.42
436.90	1968.39
437.09	1952.01
437.28	1849.02
437.46	1865.41
437.65	1987.11
437.84	1870.09
438.02	1724.97
438.21	1776.47
438.40	1680.50
438.58	1937.96
438.77	2040.95
438.96	1933.28
439.14	1935.62
439.33	2050.31
439.52	2106.48
439.70	2108.82
439.89	2010.52
440.08	1949.67
440.26	1961.37
440.45	2106.48
440.63	2214.15
440.82	2202.44
441.01	2296.07
441.19	2216.49
441.38	2289.04
441.57	2314.79
441.75	2380.32
441.94	2237.55
442.12	2370.96
442.31	2377.98
442.50	2331.17
442.68	2289.04
442.87	2279.68
443.05	2352.24
443.24	2324.15
443.43	2389.69
443.61	2569.91
443.80	2314.79
443.98	2352.24
444.17	2370.96
444.35	2434.16
444.54	2399.05
444.73	2363.94
444.91	2385.01
445.10	2193.08
445.28	2253.94
445.47	2001.16
445.65	2101.80
445.84	2155.63
446.02	2244.57
446.21	2324.15
446.39	2195.42
446.58	2342.88
446.77	2385.01
446.95	2387.35
447.14	2520.76
447.32	2565.23
447.51	2380.32
447.69	2338.20
447.88	2263.30
448.06	2312.45
448.25	2401.39
448.43	2363.94
448.62	2385.01
448.80	2413.09
448.99	2396.71
449.17	2403.73
449.36	2338.20
449.54	2555.86
449.73	2541.82
449.91	2518.42
450.10	2677.57
450.28	2619.06
450.46	2724.38
450.65	2679.91
450.83	2663.53
451.02	2633.10
451.20	2338.20
451.39	2567.57
451.57	2583.95
451.76	2471.61
451.94	2457.56
452.13	2487.99
452.31	2354.58
452.49	2368.62
452.68	2312.45
452.86	2347.56
453.05	2359.26
453.23	2289.04
453.42	2366.28
453.60	2469.27
453.78	2553.52
453.97	2448.20
454.15	2567.57
454.34	2464.58
454.52	2417.77
454.70	2504.37
454.89	2448.20
455.07	2429.48
455.26	2429.48
455.44	2616.72
455.62	2724.38
455.81	2677.57
455.99	2551.18
456.17	2497.35
456.36	2534.80
456.54	2555.86
456.73	2600.34
456.91	2630.76
457.09	2740.77
457.28	2715.02
457.46	2579.27
457.64	2544.16
457.83	2527.78
458.01	2424.80
458.19	2478.63
458.38	2387.35
458.56	2562.89
458.74	2733.75
458.93	2562.89
459.11	2499.69
459.29	2539.48
459.48	2473.95
459.66	2588.63
459.84	2668.21
460.03	2672.89
460.21	2649.49
460.39	2614.38
460.57	2649.49
460.76	2637.78
460.94	2752.47
461.12	2675.23
461.31	2663.53
461.49	2628.42
461.67	2677.57
461.85	2843.75
462.04	2630.76
462.22	3178.45
462.40	2715.02
462.59	2736.09
462.77	2764.17
462.95	2658.85
463.13	2672.89
463.32	2679.91
463.50	2693.96
463.68	2647.15
463.86	2607.36
464.05	2665.87
464.23	2595.65
464.41	2621.40
464.59	2483.31
464.78	2572.25
464.96	2703.32
465.14	2708.00
465.32	2626.08
465.50	2780.56
465.69	2766.51
465.87	2686.94
466.05	2722.04
466.23	2586.29
466.41	2469.27
466.60	2544.16
466.78	2541.82
466.96	2527.78
467.14	2614.38
467.32	2560.55
467.51	2602.68
467.69	2532.46
467.87	2649.49
468.05	2696.30
468.23	2726.72
468.41	2656.51
468.60	2717.36
468.78	2616.72
468.96	2567.57
469.14	2649.49
469.32	2703.32
469.50	2499.69
469.69	2712.68
469.87	2560.55
470.05	2520.76
470.23	2511.39
470.41	2602.68
470.59	2541.82
470.77	2513.74
470.95	2602.68
471.14	2822.69
471.32	2602.68
471.50	2808.64
471.68	2916.31
471.86	2801.62
472.04	2885.88
472.22	2897.58
472.40	2717.36
472.58	2715.02
472.77	2677.57
472.95	2764.17
473.13	2810.98
473.31	2780.56
473.49	2696.30
473.67	2799.28
473.85	2843.75
474.03	3019.29
474.21	2972.48
474.39	2944.39
474.57	2906.95
474.75	2916.31
474.93	2925.67
475.12	2871.84
475.30	2766.51
475.48	2923.33
475.66	2951.42
475.84	2818.00
476.02	2785.24
476.20	2843.75
476.38	2733.75
476.56	2993.55
476.74	3000.57
476.92	2956.10
477.10	3084.83
477.28	3215.90
477.46	3068.44
477.64	3131.64
477.82	3199.51
478.00	3143.34
478.18	3159.72
478.36	3080.14
478.54	3059.08
478.72	3204.19
478.90	3145.68
479.08	3262.71
479.26	3283.77
479.44	3393.78
479.62	3253.34
479.80	3293.13
479.98	3183.13
480.16	3339.94
480.34	3321.22
480.52	3316.54
480.70	3269.73
480.88	3220.58
481.06	3384.41
481.24	3478.04
481.41	3485.06
481.59	3599.74
481.77	3662.94
481.95	3461.65
482.13	3463.99
482.31	3461.65
482.49	3503.78
482.67	3648.90
482.85	3513.14
483.03	3632.51
483.21	3667.62
483.39	3674.64
483.57	3559.95
483.74	3625.49
483.92	3658.26
484.10	3564.64
484.28	3747.20
484.46	3810.39
484.64	3892.31
484.82	3660.60
485.00	3569.32
485.18	3562.30
485.35	3499.10
485.53	3204.19
485.71	3028.65
485.89	2890.56
486.07	3073.12
486.25	3344.63
486.43	3597.40
486.61	3599.74
486.78	3651.24
486.96	3574.00
487.14	3749.54
487.32	3665.28
487.50	3871.25
487.68	4119.34
487.85	4201.26
488.03	4093.60
488.21	4077.21
488.39	3943.80
488.57	3819.75
488.75	3871.25
488.92	4187.22
489.10	4093.60
489.28	4358.08
489.46	4421.27
489.64	4491.49
489.81	4379.14
489.99	4318.29
490.17	4521.92
490.35	4390.84
490.53	4456.38
490.70	4236.37
490.88	4325.31
491.06	4517.23
491.24	4257.43
491.41	4461.06
491.59	4138.07
491.77	3953.16
491.95	4107.64
492.13	4299.56
492.30	4304.25
492.48	4517.23
492.66	4447.02
492.84	4620.22
493.01	4585.11
493.19	4592.13
493.37	4489.15
493.54	4416.59
493.72	4526.60
493.90	4638.94
494.08	4903.42
494.25	4807.46
494.43	4844.91
494.61	4903.42
494.79	4858.95
494.96	4898.74
495.14	4835.55
495.32	4472.76
495.49	4617.88
495.67	4627.24
495.85	4873.00
496.02	5020.45
496.20	4985.34
496.38	4922.15
496.55	4943.21
496.73	4971.30
496.91	4966.62
497.09	5121.09
497.26	4891.72
497.44	5064.92
497.62	5013.43
497.79	4816.82
497.97	4580.43
498.14	4702.14
498.32	4894.06
498.50	4980.66
498.67	5203.01
498.85	4950.23
499.03	5011.09
499.20	5006.41
499.38	5177.26
499.56	5137.48
499.73	4980.66
499.91	4924.49
500.08	4851.93
500.26	4915.12
500.44	4741.93
500.61	4793.42
500.79	4835.55
500.97	4877.68
501.14	4849.59
501.32	4718.52
501.49	4713.84
501.67	4582.77
501.84	4863.63
502.02	4868.31
502.20	5006.41
502.37	4964.28
502.55	4865.97
502.72	4975.98
502.90	4999.38
503.07	4945.55
503.25	4880.02
503.43	4704.48
503.60	4645.96
503.78	4386.16
503.95	4507.87
504.13	4744.27
504.30	4959.60
504.48	4922.15
504.65	5050.88
504.83	4830.87
505.01	5046.20
505.18	5018.11
505.36	5256.84
505.53	5053.22
505.71	5245.14
505.88	5114.07
506.06	5289.61
506.23	5184.29
506.41	5158.54
506.58	5062.58
506.76	5114.07
506.93	5036.83
507.11	5111.73
507.28	4973.64
507.46	4983.00
507.63	4891.72
507.81	4826.18
507.98	4863.63
508.16	4985.34
508.33	4961.94
508.50	5224.08
508.68	5172.58
508.85	5252.16
509.03	5371.53
509.20	5284.93
509.38	5310.68
509.55	5078.96
509.73	5025.13
509.90	5308.34
510.08	5385.57
510.25	5228.76
510.42	4952.57
510.60	5245.14
510.77	5226.42
510.95	5324.72
511.12	5535.37
511.30	5392.59
511.47	5706.23
511.64	5643.03
511.82	5540.05
511.99	5336.42
512.17	5322.38
512.34	5088.32
512.51	5205.35
512.69	5338.76
512.86	5107.05
513.04	5259.18
513.21	5472.17
513.38	5151.52
513.56	5327.06
513.73	5102.37
513.90	5144.50
514.08	5067.26
514.25	5203.01
514.43	5156.20
514.60	5303.65
514.77	5214.71
514.95	5200.67
515.12	5291.95
515.29	5252.16
515.47	5593.88
515.64	5284.93
515.81	5392.59
515.99	5383.23
516.16	5032.15
516.33	4711.50
516.51	4397.87
516.68	4369.78
516.85	4201.26
517.03	4315.95
517.20	4819.16
517.37	4997.04
517.54	5270.89
517.72	5203.01
517.89	4840.23
518.06	4552.34
518.24	4690.43
518.41	4894.06
518.58	4929.17
518.75	4971.30
518.93	5259.18
519.10	5083.64
519.27	5076.62
519.45	5111.73
519.62	5282.59
519.79	5369.19
519.96	5561.11
520.14	5219.39
520.31	5109.39
520.48	5125.77
520.65	5186.63
520.83	5439.40
521.00	5303.65
521.17	5401.96
521.34	5275.57
521.52	5369.19
521.69	5666.44
521.86	5572.82
522.03	5472.17
522.20	5200.67
522.38	5034.49
522.55	4961.94
522.72	5322.38
522.89	5153.86
523.07	5256.84
523.24	5364.51
523.41	5526.00
523.58	5551.75
523.75	5511.96
523.92	5371.53
524.10	5465.15
524.27	5659.42
524.44	5504.94
524.61	5652.39
524.78	5610.26
524.96	5383.23
525.13	5472.17
525.30	5526.00
525.47	5582.18
525.64	5502.60
525.81	5514.30
525.98	5451.11
526.16	4952.57
526.33	4851.93
526.50	4652.98
526.67	4596.81
526.84	4706.82
527.01	5006.41
527.18	4952.57
527.36	5205.35
527.53	5376.21
527.70	5460.47
527.87	5504.94
528.04	5238.12
528.21	5437.06
528.38	5500.26
528.55	5673.46
528.72	5746.02
528.89	5680.48
529.07	5729.63
529.24	5820.91
529.41	5528.35
529.58	5107.05
529.75	5268.55
529.92	5476.85
530.09	5540.05
530.26	5423.02
530.43	5493.24
530.60	5792.83
530.77	5706.23
530.94	5701.54
531.11	5617.29
531.28	5565.79
531.46	5343.44
531.63	5612.60
531.80	5509.62
531.97	5430.04
532.14	5394.93
532.31	5111.73
532.48	4957.25
532.65	5060.24
532.82	5114.07
532.99	5142.16
533.16	5313.02
533.33	5638.35
533.50	5401.96
533.67	5348.12
533.84	5378.55
534.01	5458.13
534.18	5378.55
534.35	5355.15
534.52	5479.19
534.69	5418.34
534.86	5563.45
535.03	5582.18
535.20	5394.93
535.37	5713.25
535.54	5734.31
535.71	5619.63
535.88	5694.52
536.05	5624.31
536.22	5547.07
536.38	5399.62
536.55	5305.99
536.72	5273.23
536.89	5146.84
537.06	5238.12
537.23	5481.53
537.40	5561.11
537.57	5514.30
537.74	5610.26
537.91	5521.32
538.08	5549.41
538.25	5345.78
538.42	5631.33
538.59	5577.50
538.75	5476.85
538.92	5298.97
539.09	5369.19
539.26	5430.04
539.43	5444.09
539.60	5366.85
539.77	5301.31
539.94	5416.00
540.11	5350.46
540.28	5172.58
540.44	5238.12
540.61	5090.67
540.78	5352.81
540.95	5411.32
541.12	5607.92
541.29	5647.71
541.46	5921.56
541.62	5966.03
541.79	5659.42
541.96	5598.56
542.13	5507.28
542.30	5643.03
542.47	5654.73
542.63	5682.82
542.80	5659.42
542.97	5696.86
543.14	5600.90
543.31	5579.84
543.48	5694.52
543.64	5781.12
543.81	5891.13
543.98	5851.34
544.15	5715.59
544.32	5591.54
544.48	5619.63
544.65	5767.08
544.82	5710.91
544.99	5570.48
545.16	5692.18
545.32	5430.04
545.49	6061.99
545.66	6684.57
545.83	6747.76
546.00	6452.86
546.16	5940.28
546.33	5851.34
546.50	5659.42
546.67	5692.18
546.83	5502.60
547.00	5593.88
547.17	5469.83
547.34	5345.78
547.50	5406.64
547.67	5369.19
547.84	5378.55
548.00	5322.38
548.17	5596.22
548.34	5483.88
548.51	5631.33
548.67	5423.02
548.84	5544.73
549.01	5404.30
549.18	5310.68
549.34	5605.58
549.51	5493.24
549.68	5228.76
549.84	5408.98
550.01	5334.08
550.18	5413.66
550.34	5387.91
550.51	5404.30
550.68	5294.29
550.84	5186.63
551.01	5327.06
551.18	5238.12
551.34	5310.68
551.51	5490.90
551.68	5572.82
551.84	5355.15
552.01	5348.12
552.18	5268.55
552.34	5228.76
552.51	5076.62
552.68	5046.20
552.84	5224.08
553.01	5224.08
553.18	5254.50
553.34	5221.74
553.51	5416.00
553.67	5331.74
553.84	5329.40
554.01	5378.55
554.17	5153.86
554.34	5195.99
554.51	5329.40
554.67	5493.24
554.84	5088.32
555.00	5224.08
555.17	5263.86
555.33	5214.71
555.50	5277.91
555.67	5238.12
555.83	5153.86
556.00	5158.54
556.16	5341.10
556.33	5205.35
556.50	5181.95
556.66	5076.62
556.83	4889.38
556.99	5060.24
557.16	5053.22
557.32	5123.43
557.49	5109.39
557.65	4870.65
557.82	4975.98
557.98	5104.71
558.15	4933.85
558.32	4645.96
558.48	4755.97
558.65	4765.33
558.81	4926.83
558.98	4798.10
559.14	4805.12
559.31	4755.97
559.47	5004.07
559.64	4772.35
559.80	4894.06
559.97	4725.54
560.13	4802.78
560.30	5069.60
560.46	4961.94
560.63	5149.18
560.79	5001.72
560.96	5245.14
561.12	4903.42
561.29	4812.14
561.45	4683.41
561.61	4767.67
561.78	4858.95
561.94	4943.21
562.11	4894.06
562.27	4816.82
562.44	4711.50
562.60	4851.93
562.77	4954.91
562.93	4973.64
563.10	4964.28
563.26	4983.00
563.42	4915.12
563.59	4786.40
563.75	4777.03
563.92	4741.93
564.08	4898.74
564.24	5013.43
564.41	4830.87
564.57	4894.06
564.74	4950.23
564.90	4933.85
565.07	4884.70
565.23	4772.35
565.39	4500.85
565.56	4585.11
565.72	4582.77
565.88	4514.89
566.05	4791.08
566.21	4730.22
566.38	4571.07
566.54	4648.30
566.70	4737.24
566.87	4903.42
567.03	4695.11
567.19	4751.29
567.36	4816.82
567.52	4669.37
567.68	4599.15
567.85	4629.58
568.01	4334.67
568.17	4290.20
568.34	4395.53
568.50	4395.53
568.66	4212.96
568.83	4362.76
568.99	4390.84
569.15	4524.26
569.32	4468.08
569.48	4325.31
569.64	4447.02
569.81	4358.08
569.97	4273.82
570.13	4362.76
570.30	4418.93
570.46	4276.16
570.62	4210.62
570.78	4067.85
570.95	4224.67
571.11	4255.09
571.27	4400.21
571.43	4219.99
571.60	4484.47
571.76	4325.31
571.92	4456.38
572.09	4435.32
572.25	4442.34
572.41	4547.66
572.57	4493.83
572.74	4407.23
572.90	4381.48
573.06	4454.04
573.22	4547.66
573.38	4395.53
573.55	4430.63
573.71	4468.08
573.87	4493.83
574.03	4231.69
574.20	4355.74
574.36	4329.99
574.52	4273.82
574.68	4236.37
574.84	4140.41
575.01	4065.51
575.17	4156.79
575.33	4191.90
575.49	4259.78
575.65	4287.86
575.82	4219.99
575.98	4238.71
576.14	4212.96
576.30	4369.78
576.46	4451.70
576.62	4507.87
576.79	4491.49
576.95	4353.40
577.11	4297.22
577.27	4346.37
577.43	4241.05
577.59	4271.48
577.75	4243.39
577.92	3988.27
578.08	4049.13
578.24	4079.55
578.40	4105.30
578.56	4365.10
578.72	4468.08
578.88	4449.36
579.04	4461.06
579.21	4369.78
579.37	4578.09
579.53	4372.12
579.69	4337.01
579.85	4280.84
580.01	4475.10
580.17	4447.02
580.33	4390.84
580.49	4255.09
580.65	4283.18
580.82	4437.66
580.98	4327.65
581.14	4315.95
581.30	4367.44
581.46	4409.57
581.62	4299.56
581.78	4208.28
581.94	4402.55
582.10	4482.13
582.26	4514.89
582.42	4479.79
582.58	4489.15
582.74	4362.76
582.90	4404.89
583.06	4301.90
583.22	4449.36
583.38	4346.37
583.54	4428.29
583.70	4465.74
583.86	4325.31
584.02	4400.21
584.18	4430.63
584.34	4416.59
584.50	4482.13
584.66	4203.60
584.82	4301.90
584.98	4147.43
585.14	4285.52
585.30	4114.66
585.46	4039.76
585.62	4147.43
585.78	4177.86
585.94	4072.53
586.10	4016.36
586.26	4067.85
586.42	4219.99
586.58	4131.05
586.74	4135.73
586.90	4152.11
587.06	4287.86
587.22	4149.77
587.38	4009.34
587.54	3990.61
587.70	4119.34
587.86	3721.45
588.02	3583.36
588.18	3595.06
588.34	3555.27
588.49	3150.36
588.65	3000.57
588.81	2965.46
588.97	3000.57
589.13	3063.76
589.29	2963.12
589.45	3070.78
589.61	3077.80
589.77	3136.32
589.93	3309.52
590.08	3279.09
590.24	3520.17
590.40	3468.67
590.56	3375.05
590.72	3585.70
590.88	3548.25
591.04	3421.86
591.20	3393.78
591.35	3552.93
591.51	3410.16
591.67	3316.54
591.83	3361.01
591.99	3344.63
592.15	3445.27
592.31	3559.95
592.46	3508.46
592.62	3737.84
592.78	3726.13
592.94	3602.08
593.10	3667.62
593.26	3630.17
593.41	3815.07
593.57	3569.32
593.73	3585.70
593.89	3332.92
594.05	3288.45
594.20	3258.03
594.36	3274.41
594.52	3098.87
594.68	3281.43
594.84	3318.88
594.99	3396.12
595.15	3471.01
595.31	3576.34
595.47	3531.87
595.62	3571.66
595.78	3637.19
595.94	3555.27
596.10	3571.66
596.25	3585.70
596.41	3480.38
596.57	3543.57
596.73	3417.18
596.88	3595.06
597.04	3660.60
597.20	3545.91
597.36	3442.93
597.51	3555.27
597.67	3555.27
597.83	3611.45
597.99	3625.49
598.14	3527.19
598.30	3531.87
598.46	3566.98
598.61	3550.59
598.77	3737.84
598.93	3550.59
599.09	3698.05
599.24	3779.97
599.40	3754.22
599.56	3606.77
599.71	3705.07
599.87	3655.92
600.03	3770.60
600.18	3648.90
600.34	3646.55
600.50	3627.83
600.65	3660.60
600.81	3765.92
600.97	3665.28
601.12	3595.06
601.28	3768.26
601.44	3686.34
601.59	3688.68
601.75	3564.64
601.91	3578.68
602.06	3705.07
602.22	3716.77
602.37	3669.96
602.53	3728.47
602.69	3723.79
602.84	3742.52
603.00	3602.08
603.16	3798.69
603.31	3765.92
603.47	3772.94
603.62	3700.39
603.78	3817.41
603.94	3744.86
604.09	3805.71
604.25	3786.99
604.40	3651.24
604.56	3798.69
604.71	3740.18
604.87	3744.86
605.03	3611.45
605.18	3742.52
605.34	3707.41
605.49	3646.55
605.65	3674.64
605.80	3487.40
605.96	3585.70
606.12	3531.87
606.27	3641.87
606.43	3571.66
606.58	3709.75
606.74	3782.31
606.89	3599.74
607.05	3686.34
607.20	3599.74
607.36	3623.15
607.51	3681.66
607.67	3691.02
607.82	3618.47
607.98	3604.42
608.13	3719.11
608.29	3648.90
608.44	3616.13
608.60	3611.45
608.75	3592.72
608.91	3623.15
609.06	3592.72
609.22	3726.13
609.37	3712.09
609.53	3744.86
609.68	3758.90
609.84	3742.52
609.99	3651.24
610.15	3843.16
610.30	3953.16
610.46	3915.72
610.61	4353.40
610.76	4493.83
610.92	4791.08
611.07	4730.22
611.23	4957.25
611.38	4823.84
611.54	4449.36
611.69	4217.65
611.84	4166.15
612.00	4060.83
612.15	3922.74
612.31	3873.59
612.46	3861.88
612.62	3761.24
612.77	3765.92
612.92	3815.07
613.08	3871.25
613.23	3585.70
613.39	3609.11
613.54	3414.84
613.69	3623.15
613.85	3478.04
614.00	3529.53
614.15	3536.55
614.31	3679.32
614.46	3705.07
614.62	3648.90
614.77	3719.11
614.92	3552.93
615.08	3644.21
615.23	3442.93
615.38	3433.57
615.54	3258.03
615.69	3283.77
615.84	3131.64
616.00	3187.81
616.15	3164.40
616.30	3178.45
616.46	3211.22
616.61	3199.51
616.76	3248.66
616.92	3314.20
617.07	3243.98
617.22	3283.77
617.37	3288.45
617.53	3201.85
617.68	3267.39
617.83	3255.69
617.99	3258.03
618.14	3276.75
618.29	3361.01
618.45	3375.05
618.60	3190.15
618.75	3197.17
618.90	3141.00
619.06	3122.27
619.21	3176.11
619.36	3215.90
619.51	3234.62
619.67	3232.28
619.82	3164.40
619.97	3384.41
620.12	3239.30
620.28	3435.91
620.43	3318.88
620.58	3314.20
620.73	3288.45
620.89	3276.75
621.04	3180.79
621.19	3236.96
621.34	3199.51
621.49	3145.68
621.65	3117.59
621.80	3087.17
621.95	3169.09
622.10	3171.43
622.25	3019.29
622.41	3061.42
622.56	3033.33
622.71	3056.74
622.86	3014.61
623.01	3126.96
623.16	3082.49
623.32	2925.67
623.47	3038.02
623.62	3035.67
623.77	3054.40
623.92	2972.48
624.07	3007.59
624.23	3038.02
624.38	2974.82
624.53	3108.23
624.68	2878.86
624.83	3000.57
624.98	2878.86
625.13	2883.54
625.29	2839.07
625.44	2881.20
625.59	2897.58
625.74	2871.84
625.89	2920.99
626.04	2928.01
626.19	2939.71
626.34	2918.65
626.49	2970.14
626.65	2916.31
626.80	2944.39
626.95	2944.39
627.10	2871.84
627.25	2846.09
627.40	2764.17
627.55	2551.18
627.70	2555.86
627.85	2689.28
628.00	2612.04
628.15	2597.99
628.30	2773.53
628.45	2485.65
628.60	2789.92
628.76	2654.17
628.91	2705.66
629.06	2731.41
629.21	2633.10
629.36	2693.96
629.51	2581.61
629.66	2581.61
629.81	2649.49
629.96	2710.34
630.11	2757.15
630.26	2731.41
630.41	2843.75
630.56	2801.62
630.71	2818.00
630.86	2761.83
631.01	2825.03
631.16	2761.83
631.31	2691.62
631.46	2675.23
631.61	2616.72
631.76	2567.57
631.91	2546.50
632.06	2649.49
632.21	2621.40
632.36	2715.02
632.51	2640.12
632.66	2691.62
632.81	2757.15
632.96	2766.51
633.10	2761.83
633.25	2705.66
633.40	2679.91
633.55	2520.76
633.70	2520.76
633.85	2455.22
634.00	2600.34
634.15	2537.14
634.30	2516.08
634.45	2597.99
634.60	2616.72
634.75	2572.25
634.90	2544.16
635.05	2700.98
635.19	2630.76
635.34	2675.23
635.49	2656.51
635.64	2600.34
635.79	2602.68
635.94	2558.21
636.09	2553.52
636.24	2597.99
636.39	2609.70
636.53	2490.33
636.68	2689.28
636.83	2665.87
636.98	2626.08
637.13	2689.28
637.28	2612.04
637.43	2605.02
637.57	2654.17
637.72	2609.70
637.87	2630.76
638.02	2576.93
638.17	2637.78
638.32	2548.84
638.46	2612.04
638.61	2609.70
638.76	2600.34
638.91	2593.31
639.06	2590.97
639.20	2593.31
639.35	2555.86
639.50	2612.04
639.65	2523.10
639.80	2532.46
639.94	2471.61
640.09	2602.68
640.24	2457.56
640.39	2387.35
640.54	2363.94
640.68	2469.27
640.83	2530.12
640.98	2396.71
641.13	2368.62
641.27	2459.90
641.42	2558.21
641.57	2548.84
641.72	2424.80
641.86	2497.35
642.01	2413.09
642.16	2487.99
642.31	2518.42
642.45	2525.44
642.60	2487.99
642.75	2443.52
642.90	2354.58
643.04	2366.28
643.19	2438.84
643.34	2366.28
643.48	2490.33
643.63	2504.37
643.78	2539.48
643.93	2424.80
644.07	2424.80
644.22	2459.90
644.37	2420.11
644.51	2396.71
644.66	2490.33
644.81	2366.28
644.95	2310.11
645.10	2403.73
645.25	2228.19
645.39	2284.36
645.54	2267.98
645.69	2356.92
645.83	2338.20
645.98	2230.53
646.13	2209.47
646.27	2207.13
646.42	2106.48
646.57	2099.46
646.71	2129.89
646.86	2097.12
647.00	2289.04
647.15	2003.50
647.30	1977.75
647.44	2064.35
647.59	2085.42
647.74	1881.79
647.88	1944.99
648.03	1998.82
648.17	1977.75
648.32	2005.84
648.47	2106.48
648.61	2043.29
648.76	1982.43
648.90	2043.29
649.05	1940.30
649.20	1959.03
649.34	1912.22
649.49	1970.73
649.63	2059.67
649.78	2106.48
649.92	2275.00
650.07	2197.76
650.21	2237.55
650.36	2251.60
650.51	2249.25
650.65	2293.72
650.80	2263.30
650.94	2160.31
651.09	2059.67
651.23	2073.71
651.38	1888.81
651.52	1902.86
651.67	1860.73
651.81	1935.62
651.96	2005.84
652.10	1973.07
652.25	2024.56
652.39	2209.47
652.54	2174.36
652.68	2186.06
652.83	2038.61
652.97	1984.77
653.12	2062.01
653.26	1980.09
653.41	2050.31
653.55	2092.44
653.70	2176.70
653.84	2157.97
653.99	2059.67
654.13	2062.01
654.27	2045.63
654.42	1959.03
654.56	2001.16
654.71	1963.71
654.85	1947.33
655.00	1893.49
655.14	1933.28
655.29	1912.22
655.43	1853.70
655.57	1867.75
655.72	1717.95
655.86	1689.87
656.01	1582.20
656.15	1446.45
656.30	1603.27
656.44	1640.72
656.58	1701.57
656.73	1820.94
656.87	1816.26
657.01	1891.15
657.16	1921.58
657.30	1963.71
657.45	1944.99
657.59	1933.28
657.73	1984.77
657.88	2010.52
658.02	2022.22
658.16	1968.39
658.31	2036.27
658.45	2033.93
658.60	2036.27
658.74	2005.84
658.88	1991.80
659.03	1991.80
659.17	2038.61
659.31	1956.69
659.46	2076.06
659.60	2120.53
659.74	2026.90
659.89	1987.11
660.03	1942.64
660.17	2040.95
660.32	1987.11
660.46	1977.75
660.60	2008.18
660.74	1952.01
660.89	1982.43
661.03	1944.99
661.17	1952.01
661.32	2092.44
661.46	2073.71
661.60	1975.41
661.74	2193.08
661.89	1928.60
662.03	2150.95
662.17	2090.10
662.31	2071.37
662.46	1991.80
662.60	2083.08
662.74	1973.07
662.88	2038.61
663.03	1930.94
663.17	2008.18
663.31	1872.43
663.45	1928.60
663.60	1907.54
663.74	1970.73
663.88	2050.31
664.02	1982.43
664.17	2008.18
664.31	1839.66
664.45	1870.09
664.59	1987.11
664.73	2097.12
664.88	1998.82
665.02	1907.54
665.16	1977.75
665.30	2036.27
665.44	2008.18
665.59	1916.90
665.73	1884.13
665.87	1870.09
666.01	1916.90
666.15	1888.81
666.29	1893.49
666.44	1944.99
666.58	1825.62
666.72	1926.26
666.86	1853.70
667.00	1916.90
667.14	1928.60
667.28	1886.47
667.43	1827.96
667.57	1753.06
667.71	1879.45
667.85	1813.92
667.99	1799.87
668.13	1851.36
668.27	1956.69
668.41	1856.04
668.56	1778.81
668.70	1909.88
668.84	1891.15
668.98	1839.66
669.12	1870.09
669.26	1806.89
669.40	1919.24
669.54	1783.49
669.68	1785.83
669.82	1825.62
669.96	1909.88
670.10	1837.32
670.25	1818.60
670.39	1792.85
670.53	1781.15
670.67	1717.95
670.81	1685.19
670.95	1895.83
671.09	1806.89
671.23	1715.61
671.37	1809.23
671.51	1706.25
671.65	1741.36
671.79	1640.72
671.93	1659.44
672.07	1724.97
672.21	1753.06
672.35	1710.93
672.49	1715.61
672.63	1790.51
672.77	1626.67
672.91	1783.49
673.05	1797.53
673.19	1706.25
673.33	1647.74
673.47	1872.43
673.61	1762.42
673.75	1687.53
673.89	1692.21
674.03	1692.21
674.17	1689.87
674.31	1607.95
674.45	1671.14
674.59	1631.35
674.73	1680.50
674.87	1645.40
675.01	1727.32
675.15	1612.63
675.29	1666.46
675.43	1687.53
675.56	1661.78
675.70	1732.00
675.84	1586.88
675.98	1589.22
676.12	1612.63
676.26	1664.12
676.40	1558.80
676.54	1577.52
676.68	1474.54
676.82	1582.20
676.96	1577.52
677.10	1596.25
677.23	1596.25
677.37	1577.52
677.51	1507.30
677.65	1682.85
677.79	1607.95
677.93	1504.96
678.07	1533.05
678.21	1549.43
678.34	1490.92
678.48	1434.75
678.62	1540.07
678.76	1502.62
678.90	1624.33
679.04	1514.33
679.18	1572.84
679.31	1425.39
679.45	1535.39
679.59	1458.15
679.73	1432.41
679.87	1544.75
680.00	1504.96
680.14	1427.73
680.28	1434.75
680.42	1411.34
680.56	1495.60
680.70	1462.83
680.83	1448.79
680.97	1404.32
681.11	1521.35
681.25	1387.94
681.39	1540.07
681.52	1411.34
681.66	1341.13
681.80	1483.90
681.94	1394.96
682.07	1291.98
682.21	1380.92
682.35	1317.72
682.49	1320.06
682.62	1378.58
682.76	1343.47
682.90	1280.27
683.04	1362.19
683.17	1425.39
683.31	1423.05
683.45	1425.39
683.59	1425.39
683.72	1308.36
683.86	1301.34
684.00	1228.78
684.13	1299.00
684.27	1320.06
684.41	1322.40
684.55	1320.06
684.68	1266.23
684.82	1256.87
684.96	1256.87
685.09	1334.11
685.23	1256.87
685.37	1336.45
685.50	1238.14
685.64	1240.48
685.78	1179.63
685.91	1275.59
686.05	1294.32
686.19	1226.44
686.32	1163.25
686.46	1064.94
686.60	905.79
686.73	947.92
686.87	748.97
687.01	770.04
687.14	730.25
687.28	772.38
687.42	688.12
687.55	791.10
687.69	933.87
687.82	968.98
687.96	933.87
688.10	1116.44
688.23	1074.31
688.37	1088.35
688.50	1062.60
688.64	1004.09
688.78	933.87
688.91	875.36
689.05	854.30
689.18	870.68
689.32	835.57
689.46	880.04
689.59	887.06
689.73	971.32
689.86	947.92
690.00	959.62
690.13	861.32
690.27	947.92
690.41	971.32
690.54	936.21
690.68	959.62
690.81	943.24
690.95	957.28
691.08	931.53
691.22	952.60
691.35	936.21
691.49	919.83
691.62	905.79
691.76	1057.92
691.89	816.85
692.03	870.68
692.16	908.13
692.30	889.40
692.43	908.13
692.57	826.21
692.70	840.25
692.84	844.93
692.97	798.12
693.11	835.57
693.24	807.48
693.38	847.27
693.51	798.12
693.65	779.40
693.78	681.10
693.92	681.10
694.05	739.61
694.19	723.23
694.32	819.19
694.45	753.65
694.59	854.30
694.72	753.65
694.86	784.08
694.99	779.40
695.13	730.25
695.26	763.01
695.39	807.48
695.53	816.85
695.66	795.78
695.80	723.23
695.93	718.54
696.07	854.30
696.20	835.57
696.33	826.21
696.47	917.49
696.60	898.77
696.73	870.68
696.87	823.87
697.00	976.00
697.14	908.13
697.27	880.04
697.40	933.87
697.54	842.59
697.67	947.92
697.80	849.61
697.94	807.48
698.07	788.76
698.21	807.48
698.34	779.40
698.47	716.20
698.61	748.97
698.74	704.50
698.87	669.39
699.01	753.65
699.14	695.14
699.27	697.48
699.40	833.23
699.54	746.63
699.67	725.57
699.80	657.69
699.94	718.54
700.07	678.76
700.20	648.33
700.34	685.78
700.47	645.99
700.60	638.97
700.73	737.27
700.87	650.67
701.00	638.97
701.13	638.97
701.26	620.24
701.40	732.59
701.53	685.78
701.66	629.60
701.79	671.73
701.93	655.35
702.06	744.29
702.19	648.33
702.32	664.71
702.46	610.88
702.59	645.99
702.72	629.60
702.85	596.84
702.99	606.20
703.12	676.41
703.25	620.24
703.38	681.10
703.51	678.76
703.65	564.07
703.78	643.65
703.91	636.63
704.04	648.33
704.17	727.91
704.31	688.12
704.44	678.76
704.57	667.05
704.70	695.14
704.83	624.92
704.96	664.71
705.10	645.99
705.23	662.37
>>>>>End Processed Spectral Data<<<<<
