SpectraSuite Data File
++++++++++++++++++++++++++++++++++++
Date: Fri Oct 04 11:47:06 GMT-05:00 2013
User: price-jones
Dark Spectrum Present: No
Reference Spectrum Present: No
Number of Sampled Component Spectra: 1
Spectrometers: USB2+H05261
Integration Time (usec): 100000 (USB2+H05261)
Spectra Averaged: 1 (USB2+H05261)
Boxcar Smoothing: 0 (USB2+H05261)
Correct for Electrical Dark: No (USB2+H05261)
Strobe/Lamp Enabled: No (USB2+H05261)
Correct for Detector Non-linearity: No (USB2+H05261)
Correct for Stray Light: No (USB2+H05261)
Number of Pixels in Processed Spectrum: 2048
>>>>>Begin Processed Spectral Data<<<<<
365.73	14.04
365.92	14.04
366.12	14.04
366.32	0.00
366.52	0.00
366.72	0.00
366.91	0.00
367.11	0.00
367.31	0.00
367.51	0.00
367.70	0.00
367.90	0.00
368.10	0.00
368.30	0.00
368.49	0.00
368.69	0.00
368.89	0.00
369.09	0.00
369.28	0.00
369.48	0.00
369.68	0.00
369.87	0.00
370.07	0.00
370.27	56.17
370.47	0.00
370.66	0.00
370.86	30.43
371.06	95.96
371.25	39.79
371.45	21.06
371.65	95.96
371.84	39.79
372.04	49.15
372.24	25.75
372.44	32.77
372.63	65.54
372.83	63.19
373.03	121.71
373.22	56.17
373.42	124.05
373.62	88.94
373.81	42.13
374.01	100.64
374.21	149.79
374.40	49.15
374.60	156.82
374.79	133.41
374.99	65.54
375.19	124.05
375.38	117.03
375.58	187.24
375.78	133.41
375.97	133.41
376.17	198.95
376.37	86.60
376.56	72.56
376.76	51.49
376.95	88.94
377.15	124.05
377.35	93.62
377.54	124.05
377.74	105.32
377.93	79.58
378.13	135.75
378.33	140.43
378.52	117.03
378.72	138.09
378.91	210.65
379.11	51.49
379.31	4.68
379.50	37.45
379.70	191.92
379.89	79.58
380.09	110.01
380.28	100.64
380.48	81.92
380.68	81.92
380.87	91.28
381.07	100.64
381.26	135.75
381.46	98.30
381.65	131.07
381.85	46.81
382.04	39.79
382.24	44.47
382.43	16.38
382.63	154.48
382.83	58.51
383.02	95.96
383.22	98.30
383.41	128.73
383.61	133.41
383.80	110.01
384.00	56.17
384.19	105.32
384.39	117.03
384.58	74.90
384.78	131.07
384.97	91.28
385.17	60.85
385.36	44.47
385.56	93.62
385.75	63.19
385.95	126.39
386.14	72.56
386.34	37.45
386.53	135.75
386.72	7.02
386.92	79.58
387.11	110.01
387.31	84.26
387.50	18.72
387.70	21.06
387.89	105.32
388.09	49.15
388.28	28.09
388.48	67.88
388.67	77.24
388.86	77.24
389.06	119.37
389.25	65.54
389.45	84.26
389.64	112.35
389.84	93.62
390.03	93.62
390.22	91.28
390.42	4.68
390.61	117.03
390.81	65.54
391.00	58.51
391.19	159.16
391.39	166.18
391.58	91.28
391.78	119.37
391.97	133.41
392.16	88.94
392.36	140.43
392.55	187.24
392.75	102.98
392.94	147.45
393.13	147.45
393.33	74.90
393.52	131.07
393.71	86.60
393.91	74.90
394.10	67.88
394.29	56.17
394.49	91.28
394.68	135.75
394.88	142.77
395.07	102.98
395.26	95.96
395.46	67.88
395.65	70.22
395.84	91.28
396.04	154.48
396.23	70.22
396.42	140.43
396.62	102.98
396.81	18.72
397.00	23.41
397.19	140.43
397.39	74.90
397.58	161.50
397.77	25.75
397.97	138.09
398.16	56.17
398.35	86.60
398.55	58.51
398.74	91.28
398.93	142.77
399.12	152.13
399.32	70.22
399.51	60.85
399.70	187.24
399.90	46.81
400.09	81.92
400.28	117.03
400.47	51.49
400.67	145.11
400.86	79.58
401.05	142.77
401.24	58.51
401.44	145.11
401.63	163.84
401.82	77.24
402.01	124.05
402.21	77.24
402.40	63.19
402.59	79.58
402.78	147.45
402.97	65.54
403.17	37.45
403.36	65.54
403.55	119.37
403.74	133.41
403.93	114.69
404.13	208.31
404.32	95.96
404.51	126.39
404.70	163.84
404.89	121.71
405.09	196.60
405.28	112.35
405.47	154.48
405.66	81.92
405.85	86.60
406.05	128.73
406.24	53.83
406.43	44.47
406.62	112.35
406.81	163.84
407.00	128.73
407.20	117.03
407.39	74.90
407.58	117.03
407.77	88.94
407.96	112.35
408.15	72.56
408.34	124.05
408.54	74.90
408.73	117.03
408.92	145.11
409.11	128.73
409.30	63.19
409.49	135.75
409.68	128.73
409.87	86.60
410.07	77.24
410.26	159.16
410.45	77.24
410.64	86.60
410.83	67.88
411.02	98.30
411.21	65.54
411.40	154.48
411.59	42.13
411.78	65.54
411.98	110.01
412.17	147.45
412.36	44.47
412.55	133.41
412.74	112.35
412.93	166.18
413.12	67.88
413.31	107.66
413.50	166.18
413.69	98.30
413.88	102.98
414.07	95.96
414.26	74.90
414.45	74.90
414.64	156.82
414.83	184.90
415.02	142.77
415.22	147.45
415.41	124.05
415.60	112.35
415.79	147.45
415.98	159.16
416.17	100.64
416.36	117.03
416.55	98.30
416.74	145.11
416.93	140.43
417.12	133.41
417.31	117.03
417.50	177.88
417.69	149.79
417.88	126.39
418.07	149.79
418.26	222.35
418.45	177.88
418.64	163.84
418.83	138.09
419.02	220.01
419.21	161.50
419.39	142.77
419.58	173.20
419.77	114.69
419.96	184.90
420.15	187.24
420.34	107.66
420.53	126.39
420.72	149.79
420.91	131.07
421.10	131.07
421.29	0.00
421.48	126.39
421.67	177.88
421.86	86.60
422.05	166.18
422.24	131.07
422.43	32.77
422.61	117.03
422.80	86.60
422.99	142.77
423.18	117.03
423.37	84.26
423.56	159.16
423.75	163.84
423.94	98.30
424.13	110.01
424.32	46.81
424.50	32.77
424.69	112.35
424.88	184.90
425.07	102.98
425.26	203.63
425.45	252.78
425.64	241.08
425.83	220.01
426.01	208.31
426.20	121.71
426.39	168.52
426.58	187.24
426.77	161.50
426.96	128.73
427.15	131.07
427.33	77.24
427.52	100.64
427.71	86.60
427.90	107.66
428.09	81.92
428.28	142.77
428.46	105.32
428.65	93.62
428.84	86.60
429.03	170.86
429.22	44.47
429.40	112.35
429.59	102.98
429.78	161.50
429.97	79.58
430.16	126.39
430.34	114.69
430.53	126.39
430.72	105.32
430.91	191.92
431.10	67.88
431.28	95.96
431.47	105.32
431.66	105.32
431.85	107.66
432.03	149.79
432.22	159.16
432.41	140.43
432.60	133.41
432.79	168.52
432.97	189.58
433.16	259.80
433.35	252.78
433.54	210.65
433.72	126.39
433.91	196.60
434.10	117.03
434.28	166.18
434.47	147.45
434.66	159.16
434.85	149.79
435.03	110.01
435.22	126.39
435.41	131.07
435.59	189.58
435.78	86.60
435.97	170.86
436.16	95.96
436.34	138.09
436.53	107.66
436.72	154.48
436.90	110.01
437.09	119.37
437.28	131.07
437.46	117.03
437.65	154.48
437.84	191.92
438.02	117.03
438.21	121.71
438.40	79.58
438.58	149.79
438.77	161.50
438.96	93.62
439.14	60.85
439.33	191.92
439.52	138.09
439.70	114.69
439.89	184.90
440.08	135.75
440.26	102.98
440.45	163.84
440.63	147.45
440.82	149.79
441.01	102.98
441.19	159.16
441.38	210.65
441.57	163.84
441.75	175.54
441.94	163.84
442.12	138.09
442.31	86.60
442.50	121.71
442.68	196.60
442.87	142.77
443.05	102.98
443.24	114.69
443.43	133.41
443.61	170.86
443.80	131.07
443.98	86.60
444.17	138.09
444.35	102.98
444.54	53.83
444.73	180.22
444.91	187.24
445.10	140.43
445.28	110.01
445.47	128.73
445.65	114.69
445.84	140.43
446.02	133.41
446.21	128.73
446.39	135.75
446.58	145.11
446.77	72.56
446.95	98.30
447.14	156.82
447.32	138.09
447.51	145.11
447.69	121.71
447.88	124.05
448.06	124.05
448.25	102.98
448.43	147.45
448.62	180.22
448.80	159.16
448.99	112.35
449.17	124.05
449.36	84.26
449.54	152.13
449.73	88.94
449.91	182.56
450.10	159.16
450.28	187.24
450.46	168.52
450.65	133.41
450.83	133.41
451.02	133.41
451.20	102.98
451.39	140.43
451.57	119.37
451.76	81.92
451.94	28.09
452.13	152.13
452.31	163.84
452.49	145.11
452.68	105.32
452.86	149.79
453.05	170.86
453.23	163.84
453.42	105.32
453.60	163.84
453.78	117.03
453.97	95.96
454.15	102.98
454.34	102.98
454.52	18.72
454.70	138.09
454.89	161.50
455.07	156.82
455.26	177.88
455.44	133.41
455.62	93.62
455.81	149.79
455.99	138.09
456.17	88.94
456.36	128.73
456.54	60.85
456.73	147.45
456.91	161.50
457.09	102.98
457.28	241.08
457.46	163.84
457.64	121.71
457.83	128.73
458.01	161.50
458.19	154.48
458.38	163.84
458.56	182.56
458.74	67.88
458.93	110.01
459.11	159.16
459.29	126.39
459.48	166.18
459.66	107.66
459.84	262.14
460.03	212.99
460.21	203.63
460.39	154.48
460.57	149.79
460.76	163.84
460.94	46.81
461.12	156.82
461.31	102.98
461.49	140.43
461.67	126.39
461.85	72.56
462.04	140.43
462.22	535.98
462.40	147.45
462.59	191.92
462.77	149.79
462.95	152.13
463.13	124.05
463.32	163.84
463.50	154.48
463.68	93.62
463.86	135.75
464.05	140.43
464.23	126.39
464.41	93.62
464.59	140.43
464.78	133.41
464.96	102.98
465.14	121.71
465.32	79.58
465.50	189.58
465.69	180.22
465.87	79.58
466.05	212.99
466.23	86.60
466.41	51.49
466.60	166.18
466.78	105.32
466.96	156.82
467.14	102.98
467.32	133.41
467.51	107.66
467.69	194.26
467.87	184.90
468.05	112.35
468.23	182.56
468.41	110.01
468.60	131.07
468.78	147.45
468.96	203.63
469.14	93.62
469.32	140.43
469.50	131.07
469.69	163.84
469.87	180.22
470.05	147.45
470.23	93.62
470.41	110.01
470.59	168.52
470.77	154.48
470.95	124.05
471.14	112.35
471.32	84.26
471.50	126.39
471.68	191.92
471.86	163.84
472.04	121.71
472.22	138.09
472.40	72.56
472.58	93.62
472.77	189.58
472.95	159.16
473.13	212.99
473.31	177.88
473.49	65.54
473.67	138.09
473.85	161.50
474.03	105.32
474.21	191.92
474.39	154.48
474.57	121.71
474.75	46.81
474.93	124.05
475.12	110.01
475.30	98.30
475.48	114.69
475.66	124.05
475.84	133.41
476.02	117.03
476.20	173.20
476.38	37.45
476.56	234.05
476.74	212.99
476.92	161.50
477.10	159.16
477.28	114.69
477.46	156.82
477.64	217.67
477.82	114.69
478.00	191.92
478.18	133.41
478.36	131.07
478.54	170.86
478.72	126.39
478.90	194.26
479.08	152.13
479.26	119.37
479.44	124.05
479.62	124.05
479.80	133.41
479.98	191.92
480.16	114.69
480.34	133.41
480.52	154.48
480.70	84.26
480.88	156.82
481.06	140.43
481.24	154.48
481.41	173.20
481.59	168.52
481.77	149.79
481.95	194.26
482.13	114.69
482.31	124.05
482.49	154.48
482.67	161.50
482.85	229.37
483.03	95.96
483.21	145.11
483.39	88.94
483.57	142.77
483.74	184.90
483.92	170.86
484.10	140.43
484.28	159.16
484.46	245.76
484.64	124.05
484.82	191.92
485.00	145.11
485.18	117.03
485.35	243.42
485.53	147.45
485.71	152.13
485.89	161.50
486.07	149.79
486.25	184.90
486.43	159.16
486.61	175.54
486.78	135.75
486.96	159.16
487.14	189.58
487.32	86.60
487.50	182.56
487.68	147.45
487.85	159.16
488.03	189.58
488.21	142.77
488.39	133.41
488.57	126.39
488.75	154.48
488.92	484.49
489.10	210.65
489.28	234.05
489.46	177.88
489.64	149.79
489.81	112.35
489.99	201.29
490.17	196.60
490.35	149.79
490.53	133.41
490.70	194.26
490.88	142.77
491.06	95.96
491.24	170.86
491.41	138.09
491.59	124.05
491.77	112.35
491.95	124.05
492.13	70.22
492.30	166.18
492.48	170.86
492.66	152.13
492.84	133.41
493.01	184.90
493.19	149.79
493.37	248.10
493.54	227.03
493.72	194.26
493.90	154.48
494.08	147.45
494.25	194.26
494.43	133.41
494.61	215.33
494.79	159.16
494.96	184.90
495.14	250.44
495.32	159.16
495.49	182.56
495.67	184.90
495.85	168.52
496.02	154.48
496.20	241.08
496.38	196.60
496.55	166.18
496.73	191.92
496.91	142.77
497.09	203.63
497.26	241.08
497.44	100.64
497.62	173.20
497.79	124.05
497.97	175.54
498.14	215.33
498.32	117.03
498.50	184.90
498.67	205.97
498.85	231.71
499.03	224.69
499.20	212.99
499.38	208.31
499.56	159.16
499.73	236.39
499.91	212.99
500.08	278.52
500.26	163.84
500.44	124.05
500.61	212.99
500.79	220.01
500.97	208.31
501.14	163.84
501.32	159.16
501.49	250.44
501.67	126.39
501.84	180.22
502.02	159.16
502.20	215.33
502.37	182.56
502.55	177.88
502.72	215.33
502.90	212.99
503.07	177.88
503.25	184.90
503.43	203.63
503.60	208.31
503.78	159.16
503.95	194.26
504.13	149.79
504.30	154.48
504.48	215.33
504.65	285.55
504.83	117.03
505.01	159.16
505.18	210.65
505.36	229.37
505.53	229.37
505.71	168.52
505.88	201.29
506.06	156.82
506.23	163.84
506.41	227.03
506.58	56.17
506.76	159.16
506.93	105.32
507.11	187.24
507.28	140.43
507.46	234.05
507.63	257.46
507.81	187.24
507.98	250.44
508.16	191.92
508.33	212.99
508.50	126.39
508.68	147.45
508.85	124.05
509.03	187.24
509.20	238.73
509.38	220.01
509.55	182.56
509.73	229.37
509.90	208.31
510.08	145.11
510.25	145.11
510.42	187.24
510.60	145.11
510.77	280.86
510.95	205.97
511.12	166.18
511.30	301.93
511.47	257.46
511.64	227.03
511.82	227.03
511.99	201.29
512.17	154.48
512.34	147.45
512.51	121.71
512.69	156.82
512.86	163.84
513.04	173.20
513.21	166.18
513.38	212.99
513.56	159.16
513.73	168.52
513.90	110.01
514.08	163.84
514.25	220.01
514.43	243.42
514.60	170.86
514.77	266.82
514.95	220.01
515.12	170.86
515.29	208.31
515.47	112.35
515.64	262.14
515.81	215.33
515.99	231.71
516.16	205.97
516.33	245.76
516.51	182.56
516.68	128.73
516.85	156.82
517.03	154.48
517.20	154.48
517.37	154.48
517.54	205.97
517.72	208.31
517.89	140.43
518.06	147.45
518.24	231.71
518.41	252.78
518.58	238.73
518.75	173.20
518.93	203.63
519.10	304.27
519.27	196.60
519.45	229.37
519.62	112.35
519.79	236.39
519.96	201.29
520.14	170.86
520.31	255.12
520.48	238.73
520.65	285.55
520.83	264.48
521.00	308.95
521.17	180.22
521.34	205.97
521.52	215.33
521.69	205.97
521.86	170.86
522.03	210.65
522.20	252.78
522.38	140.43
522.55	210.65
522.72	180.22
522.89	217.67
523.07	262.14
523.24	269.16
523.41	208.31
523.58	264.48
523.75	198.95
523.92	187.24
524.10	215.33
524.27	243.42
524.44	257.46
524.61	194.26
524.78	161.50
524.96	205.97
525.13	236.39
525.30	243.42
525.47	196.60
525.64	217.67
525.81	255.12
525.98	205.97
526.16	156.82
526.33	110.01
526.50	168.52
526.67	173.20
526.84	147.45
527.01	196.60
527.18	175.54
527.36	245.76
527.53	227.03
527.70	280.86
527.87	177.88
528.04	191.92
528.21	168.52
528.38	243.42
528.55	236.39
528.72	304.27
528.89	217.67
529.07	222.35
529.24	241.08
529.41	238.73
529.58	259.80
529.75	203.63
529.92	210.65
530.09	184.90
530.26	236.39
530.43	194.26
530.60	142.77
530.77	234.05
530.94	252.78
531.11	259.80
531.28	126.39
531.46	231.71
531.63	187.24
531.80	241.08
531.97	168.52
532.14	170.86
532.31	201.29
532.48	201.29
532.65	285.55
532.82	306.61
532.99	341.72
533.16	318.31
533.33	259.80
533.50	196.60
533.67	292.57
533.84	315.97
534.01	379.17
534.18	273.84
534.35	266.82
534.52	229.37
534.69	280.86
534.86	238.73
535.03	217.67
535.20	189.58
535.37	198.95
535.54	259.80
535.71	187.24
535.88	217.67
536.05	290.23
536.22	184.90
536.38	154.48
536.55	238.73
536.72	152.13
536.89	194.26
537.06	182.56
537.23	215.33
537.40	140.43
537.57	177.88
537.74	252.78
537.91	191.92
538.08	163.84
538.25	189.58
538.42	194.26
538.59	252.78
538.75	203.63
538.92	198.95
539.09	191.92
539.26	250.44
539.43	418.96
539.60	1001.75
539.77	1558.80
539.94	1586.88
540.11	1069.62
540.28	606.20
540.44	463.43
540.61	255.12
540.78	250.44
540.95	212.99
541.12	215.33
541.29	264.48
541.46	229.37
541.62	290.23
541.79	196.60
541.96	196.60
542.13	222.35
542.30	175.54
542.47	222.35
542.63	161.50
542.80	262.14
542.97	168.52
543.14	187.24
543.31	203.63
543.48	191.92
543.64	187.24
543.81	198.95
543.98	198.95
544.15	175.54
544.32	184.90
544.48	196.60
544.65	189.58
544.82	166.18
544.99	149.79
545.16	243.42
545.32	173.20
545.49	189.58
545.66	168.52
545.83	212.99
546.00	227.03
546.16	201.29
546.33	271.50
546.50	161.50
546.67	290.23
546.83	208.31
547.00	212.99
547.17	205.97
547.34	238.73
547.50	173.20
547.67	229.37
547.84	128.73
548.00	203.63
548.17	145.11
548.34	147.45
548.51	259.80
548.67	259.80
548.84	124.05
549.01	255.12
549.18	201.29
549.34	262.14
549.51	194.26
549.68	297.25
549.84	168.52
550.01	128.73
550.18	262.14
550.34	283.20
550.51	224.69
550.68	290.23
550.84	264.48
551.01	266.82
551.18	173.20
551.34	257.46
551.51	203.63
551.68	184.90
551.84	217.67
552.01	285.55
552.18	203.63
552.34	163.84
552.51	194.26
552.68	220.01
552.84	205.97
553.01	285.55
553.18	280.86
553.34	147.45
553.51	173.20
553.67	170.86
553.84	297.25
554.01	220.01
554.17	180.22
554.34	191.92
554.51	241.08
554.67	180.22
554.84	189.58
555.00	175.54
555.17	210.65
555.33	215.33
555.50	283.20
555.67	241.08
555.83	252.78
556.00	142.77
556.16	320.65
556.33	201.29
556.50	222.35
556.66	189.58
556.83	264.48
556.99	184.90
557.16	145.11
557.32	227.03
557.49	147.45
557.65	191.92
557.82	152.13
557.98	131.07
558.15	189.58
558.32	159.16
558.48	166.18
558.65	220.01
558.81	229.37
558.98	210.65
559.14	224.69
559.31	187.24
559.47	131.07
559.64	182.56
559.80	215.33
559.97	238.73
560.13	205.97
560.30	257.46
560.46	156.82
560.63	175.54
560.79	252.78
560.96	273.84
561.12	152.13
561.29	255.12
561.45	194.26
561.61	194.26
561.78	241.08
561.94	189.58
562.11	210.65
562.27	208.31
562.44	152.13
562.60	168.52
562.77	168.52
562.93	241.08
563.10	220.01
563.26	220.01
563.42	229.37
563.59	217.67
563.75	224.69
563.92	262.14
564.08	152.13
564.24	205.97
564.41	266.82
564.57	189.58
564.74	161.50
564.90	217.67
565.07	182.56
565.23	269.16
565.39	290.23
565.56	290.23
565.72	187.24
565.88	198.95
566.05	231.71
566.21	201.29
566.38	255.12
566.54	229.37
566.70	170.86
566.87	196.60
567.03	93.62
567.19	156.82
567.36	227.03
567.52	215.33
567.68	119.37
567.85	203.63
568.01	135.75
568.17	208.31
568.34	159.16
568.50	138.09
568.66	147.45
568.83	337.04
568.99	264.48
569.15	264.48
569.32	163.84
569.48	222.35
569.64	131.07
569.81	250.44
569.97	217.67
570.13	201.29
570.30	182.56
570.46	217.67
570.62	147.45
570.78	234.05
570.95	149.79
571.11	276.18
571.27	283.20
571.43	234.05
571.60	243.42
571.76	161.50
571.92	152.13
572.09	224.69
572.25	166.18
572.41	208.31
572.57	163.84
572.74	266.82
572.90	182.56
573.06	161.50
573.22	304.27
573.38	220.01
573.55	236.39
573.71	198.95
573.87	222.35
574.03	86.60
574.20	222.35
574.36	208.31
574.52	250.44
574.68	334.70
574.84	273.84
575.01	243.42
575.17	243.42
575.33	173.20
575.49	255.12
575.65	220.01
575.82	245.76
575.98	517.26
576.14	734.93
576.30	685.78
576.46	535.98
576.62	367.46
576.79	325.33
576.95	320.65
577.11	210.65
577.27	208.31
577.43	191.92
577.59	362.78
577.75	224.69
577.92	227.03
578.08	292.57
578.24	292.57
578.40	220.01
578.56	269.16
578.72	245.76
578.88	208.31
579.04	255.12
579.21	341.72
579.37	245.76
579.53	262.14
579.69	308.95
579.85	252.78
580.01	334.70
580.17	327.68
580.33	299.59
580.49	322.99
580.65	313.63
580.82	322.99
580.98	337.04
581.14	285.55
581.30	372.15
581.46	411.93
581.62	557.05
581.78	669.39
581.94	554.71
582.10	477.47
582.26	454.06
582.42	367.46
582.58	388.53
582.74	409.59
582.90	318.31
583.06	472.79
583.22	404.91
583.38	496.19
583.54	526.62
583.70	510.24
583.86	557.05
584.02	730.25
584.18	983.02
584.34	1296.66
584.50	3290.79
584.66	25305.87
584.82	57059.92
584.98	65535.00
585.14	63505.76
585.30	49801.92
585.46	30382.49
585.62	18530.02
585.78	8561.68
585.94	3323.56
586.10	1603.27
586.26	919.83
586.42	807.48
586.58	732.59
586.74	594.50
586.90	615.56
587.06	631.94
587.22	507.90
587.38	538.32
587.54	1231.12
587.70	3571.66
587.86	5872.40
588.02	6815.64
588.18	4697.46
588.34	2991.20
588.49	1891.15
588.65	1235.80
588.81	599.18
588.97	346.40
589.13	276.18
589.29	311.29
589.45	250.44
589.61	313.63
589.77	379.17
589.93	395.55
590.08	402.57
590.24	482.15
590.40	475.13
590.56	454.06
590.72	346.40
590.88	248.10
591.04	210.65
591.20	308.95
591.35	355.76
591.51	322.99
591.67	273.84
591.83	238.73
591.99	276.18
592.15	250.44
592.31	259.80
592.46	297.25
592.62	290.23
592.78	248.10
592.94	224.69
593.10	290.23
593.26	322.99
593.41	376.83
593.57	322.99
593.73	524.28
593.89	2928.01
594.05	7447.58
594.20	11342.24
594.36	10696.25
594.52	7035.65
594.68	4334.67
594.84	2827.37
594.99	1596.25
595.15	650.67
595.31	418.96
595.47	264.48
595.62	262.14
595.78	238.73
595.94	271.50
596.10	243.42
596.25	269.16
596.41	299.59
596.57	259.80
596.73	266.82
596.88	533.64
597.04	1416.02
597.20	2387.35
597.36	2668.21
597.51	2073.71
597.67	1488.58
597.83	908.13
597.99	699.82
598.14	433.00
598.30	348.74
598.46	287.89
598.61	287.89
598.77	306.61
598.93	318.31
599.09	224.69
599.24	189.58
599.40	234.05
599.56	205.97
599.71	196.60
599.87	245.76
600.03	140.43
600.18	191.92
600.34	229.37
600.50	175.54
600.65	266.82
600.81	334.70
600.97	191.92
601.12	222.35
601.28	210.65
601.44	222.35
601.59	166.18
601.75	231.71
601.91	245.76
602.06	175.54
602.22	318.31
602.37	816.85
602.53	1748.38
602.69	2715.02
602.84	2906.95
603.00	1961.37
603.16	1397.30
603.31	1057.92
603.47	620.24
603.62	372.15
603.78	325.33
603.94	262.14
604.09	257.46
604.25	194.26
604.40	339.38
604.56	238.73
604.71	280.86
604.87	145.11
605.03	276.18
605.18	210.65
605.34	332.36
605.49	238.73
605.65	180.22
605.80	262.14
605.96	287.89
606.12	266.82
606.27	344.06
606.43	276.18
606.58	318.31
606.74	952.60
606.89	3517.83
607.05	7300.13
607.20	9668.75
607.36	7777.60
607.51	5186.63
607.67	3520.17
607.82	2312.45
607.98	1303.68
608.13	540.66
608.29	482.15
608.44	407.25
608.60	358.10
608.75	512.58
608.91	1142.18
609.06	5603.24
609.22	12287.81
609.37	16652.91
609.53	14647.07
609.68	9722.59
609.84	6164.97
609.99	4138.07
610.15	2167.34
610.30	1015.79
610.46	528.96
610.61	411.93
610.76	388.53
610.92	388.53
611.07	304.27
611.23	341.72
611.38	306.61
611.54	266.82
611.69	266.82
611.84	297.25
612.00	271.50
612.15	306.61
612.31	482.15
612.46	575.77
612.62	748.97
612.77	648.33
612.92	617.90
613.08	552.37
613.23	447.04
613.39	482.15
613.54	847.27
613.69	5420.68
613.85	15398.38
614.00	25039.05
614.15	27154.90
614.31	18562.79
614.46	12208.23
614.62	8039.74
614.77	4793.42
614.92	2122.87
615.08	1001.75
615.23	589.82
615.38	503.22
615.54	447.04
615.69	1057.92
615.84	3070.78
616.00	5191.31
616.15	6850.75
616.30	5626.65
616.46	3716.77
616.61	2590.97
616.76	1717.95
616.92	856.64
617.07	475.13
617.22	346.40
617.37	332.36
617.53	297.25
617.68	290.23
617.83	252.78
617.99	234.05
618.14	276.18
618.29	266.82
618.45	264.48
618.60	290.23
618.75	161.50
618.90	205.97
619.06	304.27
619.21	224.69
619.36	222.35
619.51	180.22
619.67	236.39
619.82	168.52
619.97	245.76
620.12	168.52
620.28	257.46
620.43	243.42
620.58	222.35
620.73	217.67
620.89	252.78
621.04	543.00
621.19	1661.78
621.34	2932.69
621.49	4053.81
621.65	3595.06
621.80	2476.29
621.95	1650.08
622.10	1121.12
622.25	692.80
622.41	346.40
622.56	222.35
622.71	257.46
622.86	229.37
623.01	255.12
623.16	217.67
623.32	238.73
623.47	280.86
623.62	224.69
623.77	252.78
623.92	196.60
624.07	257.46
624.23	231.71
624.38	135.75
624.53	191.92
624.68	194.26
624.83	243.42
624.98	280.86
625.13	229.37
625.29	255.12
625.44	229.37
625.59	301.93
625.74	372.15
625.89	585.13
626.04	2661.19
626.19	7482.69
626.34	12353.35
626.49	13790.44
626.65	10246.87
626.80	6799.26
626.95	4559.36
627.10	2658.85
627.25	1430.07
627.40	643.65
627.55	440.02
627.70	348.74
627.85	255.12
628.00	297.25
628.15	149.79
628.30	170.86
628.45	205.97
628.60	220.01
628.76	184.90
628.91	152.13
629.06	229.37
629.21	243.42
629.36	243.42
629.51	287.89
629.66	184.90
629.81	493.85
629.96	1380.92
630.11	2686.94
630.26	3438.25
630.41	3080.14
630.56	2193.08
630.71	1563.48
630.86	1050.90
631.01	653.01
631.16	454.06
631.31	358.10
631.46	266.82
631.61	250.44
631.76	280.86
631.91	210.65
632.06	280.86
632.21	264.48
632.36	339.38
632.51	318.31
632.66	402.57
632.81	1254.53
632.96	4234.03
633.10	7613.76
633.25	9507.26
633.40	7730.79
633.55	5350.46
633.70	3609.11
633.85	2216.49
634.00	1268.57
634.15	667.05
634.30	409.59
634.45	299.59
634.60	229.37
634.75	266.82
634.90	245.76
635.05	273.84
635.19	245.76
635.34	245.76
635.49	252.78
635.64	304.27
635.79	252.78
635.94	229.37
636.09	264.48
636.24	191.92
636.39	215.33
636.53	182.56
636.68	273.84
636.83	194.26
636.98	243.42
637.13	280.86
637.28	315.97
637.43	351.08
637.57	681.10
637.72	3712.09
637.87	9928.55
638.02	15857.13
638.17	17717.86
638.32	12805.07
638.46	8589.77
638.61	5879.43
638.76	3466.33
638.91	1746.04
639.06	961.96
639.20	631.94
639.35	573.43
639.50	961.96
639.65	5603.24
639.80	15513.07
639.94	25228.63
640.09	28156.64
640.24	20720.76
640.39	13907.46
640.54	9092.98
640.68	5425.36
640.83	2647.15
640.98	1259.21
641.13	643.65
641.27	468.11
641.42	393.21
641.57	311.29
641.72	276.18
641.86	262.14
642.01	287.89
642.16	301.93
642.31	271.50
642.45	243.42
642.60	245.76
642.75	262.14
642.90	297.25
643.04	187.24
643.19	114.69
643.34	217.67
643.48	224.69
643.63	252.78
643.78	250.44
643.93	278.52
644.07	243.42
644.22	191.92
644.37	156.82
644.51	205.97
644.66	201.29
644.81	147.45
644.95	252.78
645.10	163.84
645.25	173.20
645.39	191.92
645.54	128.73
645.69	236.39
645.83	208.31
645.98	154.48
646.13	208.31
646.27	140.43
646.42	170.86
646.57	201.29
646.71	138.09
646.86	241.08
647.00	189.58
647.15	203.63
647.30	105.32
647.44	161.50
647.59	231.71
647.74	231.71
647.88	250.44
648.03	236.39
648.17	243.42
648.32	227.03
648.47	170.86
648.61	163.84
648.76	180.22
648.90	138.09
649.05	133.41
649.20	243.42
649.34	205.97
649.49	173.20
649.63	229.37
649.78	248.10
649.92	397.89
650.07	2106.48
650.21	6684.57
650.36	11852.47
650.51	14387.27
650.65	11440.54
650.80	8264.43
650.94	5352.81
651.09	3346.97
651.23	1671.14
651.38	917.49
651.52	444.70
651.67	266.82
651.81	220.01
651.96	259.80
652.10	287.89
652.25	227.03
652.39	269.16
652.54	273.84
652.68	667.05
652.83	2125.21
652.97	3857.20
653.12	5102.37
653.26	4402.55
653.41	3143.34
653.55	2286.70
653.70	1287.29
653.84	770.04
653.99	447.04
654.13	334.70
654.27	266.82
654.42	191.92
654.56	220.01
654.71	203.63
654.85	163.84
655.00	217.67
655.14	182.56
655.29	154.48
655.43	156.82
655.57	154.48
655.72	187.24
655.86	149.79
656.01	156.82
656.15	168.52
656.30	217.67
656.44	140.43
656.58	138.09
656.73	114.69
656.87	114.69
657.01	224.69
657.16	203.63
657.30	189.58
657.45	168.52
657.59	110.01
657.73	189.58
657.88	189.58
658.02	215.33
658.16	191.92
658.31	142.77
658.45	187.24
658.60	156.82
658.74	177.88
658.88	163.84
659.03	175.54
659.17	224.69
659.31	903.45
659.46	2918.65
659.60	5352.81
659.74	6883.52
659.89	5998.79
660.03	4486.81
660.17	3112.91
660.32	1898.17
660.46	1011.11
660.60	627.26
660.74	414.27
660.89	224.69
661.03	184.90
661.17	163.84
661.32	86.60
661.46	170.86
661.60	191.92
661.74	161.50
661.89	177.88
662.03	135.75
662.17	163.84
662.31	180.22
662.46	224.69
662.60	212.99
662.74	180.22
662.88	187.24
663.03	182.56
663.17	161.50
663.31	191.92
663.45	241.08
663.60	135.75
663.74	147.45
663.88	152.13
664.02	210.65
664.17	191.92
664.31	161.50
664.45	177.88
664.59	126.39
664.73	173.20
664.88	194.26
665.02	180.22
665.16	177.88
665.30	227.03
665.44	168.52
665.59	180.22
665.73	227.03
665.87	184.90
666.01	180.22
666.15	180.22
666.29	161.50
666.44	224.69
666.58	259.80
666.72	264.48
666.86	248.10
667.00	325.33
667.14	428.32
667.28	1921.58
667.43	5710.91
667.57	9743.65
667.71	12107.59
667.85	10258.57
667.99	7459.29
668.13	4791.08
668.27	2761.83
668.41	1591.56
668.56	821.53
668.70	535.98
668.84	355.76
668.98	318.31
669.12	177.88
669.26	301.93
669.40	334.70
669.54	227.03
669.68	255.12
669.82	170.86
669.96	170.86
670.10	201.29
670.25	201.29
670.39	212.99
670.53	238.73
670.67	250.44
670.81	203.63
670.95	257.46
671.09	540.66
671.23	2083.08
671.37	4706.82
671.51	6970.12
671.65	7309.49
671.79	5753.04
671.93	3978.91
672.07	2373.30
672.21	1371.55
672.35	870.68
672.49	535.98
672.63	304.27
672.77	245.76
672.91	177.88
673.05	166.18
673.19	173.20
673.33	222.35
673.47	198.95
673.61	156.82
673.75	203.63
673.89	124.05
674.03	191.92
674.17	224.69
674.31	131.07
674.45	189.58
674.59	203.63
674.73	147.45
674.87	196.60
675.01	184.90
675.15	231.71
675.29	266.82
675.43	252.78
675.56	248.10
675.70	285.55
675.84	135.75
675.98	156.82
676.12	114.69
676.26	161.50
676.40	112.35
676.54	121.71
676.68	198.95
676.82	180.22
676.96	128.73
677.10	161.50
677.23	149.79
677.37	145.11
677.51	170.86
677.65	205.97
677.79	156.82
677.93	168.52
678.07	140.43
678.21	105.32
678.34	105.32
678.48	77.24
678.62	119.37
678.76	74.90
678.90	138.09
679.04	159.16
679.18	187.24
679.31	91.28
679.45	124.05
679.59	98.30
679.73	173.20
679.87	133.41
680.00	187.24
680.14	173.20
680.28	72.56
680.42	121.71
680.56	163.84
680.70	131.07
680.83	152.13
680.97	91.28
681.11	121.71
681.25	152.13
681.39	105.32
681.52	161.50
681.66	205.97
681.80	121.71
681.94	163.84
682.07	121.71
682.21	63.19
682.35	133.41
682.49	60.85
682.62	196.60
682.76	81.92
682.90	173.20
683.04	107.66
683.17	138.09
683.31	166.18
683.45	163.84
683.59	191.92
683.72	161.50
683.86	102.98
684.00	138.09
684.13	147.45
684.27	110.01
684.41	126.39
684.55	74.90
684.68	126.39
684.82	149.79
684.96	124.05
685.09	231.71
685.23	170.86
685.37	140.43
685.50	145.11
685.64	42.13
685.78	86.60
685.91	84.26
686.05	124.05
686.19	147.45
686.32	166.18
686.46	91.28
686.60	124.05
686.73	194.26
686.87	227.03
687.01	170.86
687.14	138.09
687.28	205.97
687.42	147.45
687.55	114.69
687.69	163.84
687.82	184.90
687.96	140.43
688.10	177.88
688.23	133.41
688.37	173.20
688.50	140.43
688.64	215.33
688.78	39.79
688.91	131.07
689.05	119.37
689.18	142.77
689.32	93.62
689.46	154.48
689.59	156.82
689.73	166.18
689.86	131.07
690.00	128.73
690.13	70.22
690.27	42.13
690.41	117.03
690.54	149.79
690.68	60.85
690.81	128.73
690.95	140.43
691.08	128.73
691.22	112.35
691.35	79.58
691.49	112.35
691.62	93.62
691.76	126.39
691.89	142.77
692.03	70.22
692.16	191.92
692.30	191.92
692.43	727.91
692.57	2293.72
692.70	4133.39
692.84	5142.16
692.97	4851.93
693.11	3478.04
693.24	2724.38
693.38	1708.59
693.51	1109.41
693.65	753.65
693.78	484.49
693.92	369.80
694.05	243.42
694.19	161.50
694.32	138.09
694.45	168.52
694.59	117.03
694.72	191.92
694.86	74.90
694.99	170.86
695.13	119.37
695.26	95.96
695.39	194.26
695.53	241.08
695.66	147.45
695.80	175.54
695.93	128.73
696.07	175.54
696.20	315.97
696.33	383.85
696.47	505.56
696.60	381.51
696.73	287.89
696.87	210.65
697.00	252.78
697.14	184.90
697.27	124.05
697.40	238.73
697.54	163.84
697.67	77.24
697.80	74.90
697.94	95.96
698.07	84.26
698.21	51.49
698.34	138.09
698.47	102.98
698.61	131.07
698.74	102.98
698.87	177.88
699.01	84.26
699.14	72.56
699.27	138.09
699.40	234.05
699.54	187.24
699.67	119.37
699.80	81.92
699.94	119.37
700.07	95.96
700.20	140.43
700.34	131.07
700.47	196.60
700.60	102.98
700.73	177.88
700.87	135.75
701.00	170.86
701.13	126.39
701.26	135.75
701.40	152.13
701.53	145.11
701.66	128.73
701.79	124.05
701.93	100.64
702.06	313.63
702.19	311.29
702.32	435.34
702.46	386.19
702.59	444.70
702.72	884.72
702.85	3236.96
702.99	6647.12
703.12	9476.83
703.25	10785.19
703.38	9247.46
703.51	7162.04
703.65	5387.91
703.78	3735.50
703.91	2471.61
704.04	1514.33
704.17	961.96
704.31	692.80
704.44	393.21
704.57	320.65
704.70	245.76
704.83	215.33
704.96	231.71
705.10	182.56
705.23	128.73
>>>>>End Processed Spectral Data<<<<<
