SpectraSuite Data File
++++++++++++++++++++++++++++++++++++
Date: Fri Oct 04 11:33:44 GMT-05:00 2013
User: price-jones
Dark Spectrum Present: No
Reference Spectrum Present: No
Number of Sampled Component Spectra: 1
Spectrometers: USB2+H05261
Integration Time (usec): 100000 (USB2+H05261)
Spectra Averaged: 1 (USB2+H05261)
Boxcar Smoothing: 0 (USB2+H05261)
Correct for Electrical Dark: No (USB2+H05261)
Strobe/Lamp Enabled: No (USB2+H05261)
Correct for Detector Non-linearity: No (USB2+H05261)
Correct for Stray Light: No (USB2+H05261)
Number of Pixels in Processed Spectrum: 2048
>>>>>Begin Processed Spectral Data<<<<<
365.73	163.84
365.92	163.84
366.12	163.84
366.32	4.68
366.52	4.68
366.72	18.72
366.91	70.22
367.11	0.00
367.31	0.00
367.51	0.00
367.70	0.00
367.90	0.00
368.10	0.00
368.30	0.00
368.49	0.00
368.69	0.00
368.89	0.00
369.09	4.68
369.28	14.04
369.48	42.13
369.68	39.79
369.87	37.45
370.07	16.38
370.27	135.75
370.47	11.70
370.66	18.72
370.86	72.56
371.06	138.09
371.25	194.26
371.45	95.96
371.65	149.79
371.84	156.82
372.04	170.86
372.24	110.01
372.44	138.09
372.63	93.62
372.83	161.50
373.03	142.77
373.22	117.03
373.42	194.26
373.62	117.03
373.81	154.48
374.01	191.92
374.21	145.11
374.40	138.09
374.60	180.22
374.79	177.88
374.99	135.75
375.19	114.69
375.38	184.90
375.58	217.67
375.78	173.20
375.97	156.82
376.17	208.31
376.37	105.32
376.56	166.18
376.76	128.73
376.95	156.82
377.15	119.37
377.35	128.73
377.54	135.75
377.74	105.32
377.93	163.84
378.13	107.66
378.33	168.52
378.52	117.03
378.72	205.97
378.91	128.73
379.11	100.64
379.31	107.66
379.50	147.45
379.70	105.32
379.89	168.52
380.09	124.05
380.28	95.96
380.48	124.05
380.68	124.05
380.87	142.77
381.07	100.64
381.26	166.18
381.46	159.16
381.65	114.69
381.85	182.56
382.04	138.09
382.24	191.92
382.43	198.95
382.63	102.98
382.83	56.17
383.02	145.11
383.22	198.95
383.41	194.26
383.61	100.64
383.80	154.48
384.00	159.16
384.19	117.03
384.39	177.88
384.58	180.22
384.78	215.33
384.97	184.90
385.17	184.90
385.36	133.41
385.56	133.41
385.75	84.26
385.95	149.79
386.14	149.79
386.34	175.54
386.53	217.67
386.72	95.96
386.92	140.43
387.11	159.16
387.31	159.16
387.50	170.86
387.70	152.13
387.89	215.33
388.09	159.16
388.28	110.01
388.48	159.16
388.67	168.52
388.86	154.48
389.06	152.13
389.25	205.97
389.45	93.62
389.64	182.56
389.84	203.63
390.03	154.48
390.22	198.95
390.42	124.05
390.61	152.13
390.81	140.43
391.00	166.18
391.19	105.32
391.39	95.96
391.58	145.11
391.78	112.35
391.97	142.77
392.16	128.73
392.36	168.52
392.55	119.37
392.75	112.35
392.94	126.39
393.13	128.73
393.33	187.24
393.52	182.56
393.71	175.54
393.91	107.66
394.10	142.77
394.29	191.92
394.49	163.84
394.68	245.76
394.88	236.39
395.07	131.07
395.26	145.11
395.46	142.77
395.65	173.20
395.84	154.48
396.04	187.24
396.23	149.79
396.42	121.71
396.62	184.90
396.81	163.84
397.00	229.37
397.19	135.75
397.39	149.79
397.58	147.45
397.77	135.75
397.97	163.84
398.16	126.39
398.35	72.56
398.55	86.60
398.74	201.29
398.93	198.95
399.12	135.75
399.32	196.60
399.51	110.01
399.70	117.03
399.90	163.84
400.09	126.39
400.28	166.18
400.47	170.86
400.67	133.41
400.86	191.92
401.05	159.16
401.24	86.60
401.44	166.18
401.63	166.18
401.82	177.88
402.01	182.56
402.21	163.84
402.40	175.54
402.59	138.09
402.78	126.39
402.97	117.03
403.17	138.09
403.36	163.84
403.55	149.79
403.74	205.97
403.93	243.42
404.13	210.65
404.32	168.52
404.51	112.35
404.70	140.43
404.89	173.20
405.09	201.29
405.28	142.77
405.47	128.73
405.66	217.67
405.85	177.88
406.05	156.82
406.24	152.13
406.43	149.79
406.62	210.65
406.81	184.90
407.00	196.60
407.20	187.24
407.39	117.03
407.58	37.45
407.77	121.71
407.96	161.50
408.15	236.39
408.34	156.82
408.54	159.16
408.73	93.62
408.92	142.77
409.11	180.22
409.30	196.60
409.49	126.39
409.68	147.45
409.87	208.31
410.07	154.48
410.26	133.41
410.45	119.37
410.64	222.35
410.83	166.18
411.02	145.11
411.21	166.18
411.40	198.95
411.59	149.79
411.78	140.43
411.98	152.13
412.17	119.37
412.36	145.11
412.55	201.29
412.74	198.95
412.93	238.73
413.12	173.20
413.31	180.22
413.50	175.54
413.69	187.24
413.88	259.80
414.07	126.39
414.26	166.18
414.45	198.95
414.64	182.56
414.83	205.97
415.02	227.03
415.22	248.10
415.41	147.45
415.60	187.24
415.79	98.30
415.98	173.20
416.17	194.26
416.36	152.13
416.55	46.81
416.74	166.18
416.93	198.95
417.12	170.86
417.31	180.22
417.50	208.31
417.69	255.12
417.88	245.76
418.07	128.73
418.26	140.43
418.45	187.24
418.64	269.16
418.83	301.93
419.02	229.37
419.21	196.60
419.39	227.03
419.58	201.29
419.77	205.97
419.96	140.43
420.15	201.29
420.34	177.88
420.53	184.90
420.72	194.26
420.91	177.88
421.10	159.16
421.29	224.69
421.48	187.24
421.67	182.56
421.86	182.56
422.05	184.90
422.24	187.24
422.43	217.67
422.61	147.45
422.80	159.16
422.99	189.58
423.18	124.05
423.37	189.58
423.56	145.11
423.75	187.24
423.94	135.75
424.13	177.88
424.32	145.11
424.50	201.29
424.69	163.84
424.88	175.54
425.07	224.69
425.26	173.20
425.45	191.92
425.64	280.86
425.83	252.78
426.01	259.80
426.20	229.37
426.39	191.92
426.58	124.05
426.77	110.01
426.96	283.20
427.15	201.29
427.33	205.97
427.52	227.03
427.71	184.90
427.90	191.92
428.09	93.62
428.28	147.45
428.46	110.01
428.65	234.05
428.84	215.33
429.03	203.63
429.22	170.86
429.40	121.71
429.59	154.48
429.78	194.26
429.97	124.05
430.16	154.48
430.34	117.03
430.53	194.26
430.72	191.92
430.91	208.31
431.10	210.65
431.28	220.01
431.47	177.88
431.66	224.69
431.85	161.50
432.03	182.56
432.22	187.24
432.41	128.73
432.60	208.31
432.79	220.01
432.97	257.46
433.16	245.76
433.35	215.33
433.54	198.95
433.72	149.79
433.91	215.33
434.10	191.92
434.28	276.18
434.47	208.31
434.66	154.48
434.85	147.45
435.03	175.54
435.22	297.25
435.41	383.85
435.59	355.76
435.78	362.78
435.97	243.42
436.16	173.20
436.34	173.20
436.53	138.09
436.72	163.84
436.90	182.56
437.09	159.16
437.28	145.11
437.46	205.97
437.65	198.95
437.84	220.01
438.02	201.29
438.21	236.39
438.40	142.77
438.58	124.05
438.77	222.35
438.96	194.26
439.14	184.90
439.33	215.33
439.52	140.43
439.70	170.86
439.89	266.82
440.08	166.18
440.26	234.05
440.45	292.57
440.63	170.86
440.82	168.52
441.01	196.60
441.19	154.48
441.38	250.44
441.57	142.77
441.75	201.29
441.94	177.88
442.12	184.90
442.31	196.60
442.50	166.18
442.68	154.48
442.87	187.24
443.05	166.18
443.24	170.86
443.43	177.88
443.61	203.63
443.80	241.08
443.98	227.03
444.17	63.19
444.35	236.39
444.54	198.95
444.73	126.39
444.91	278.52
445.10	163.84
445.28	215.33
445.47	156.82
445.65	236.39
445.84	159.16
446.02	180.22
446.21	180.22
446.39	161.50
446.58	231.71
446.77	166.18
446.95	191.92
447.14	224.69
447.32	198.95
447.51	191.92
447.69	220.01
447.88	187.24
448.06	210.65
448.25	222.35
448.43	184.90
448.62	159.16
448.80	166.18
448.99	196.60
449.17	177.88
449.36	133.41
449.54	175.54
449.73	173.20
449.91	161.50
450.10	166.18
450.28	217.67
450.46	231.71
450.65	189.58
450.83	236.39
451.02	241.08
451.20	149.79
451.39	124.05
451.57	173.20
451.76	227.03
451.94	161.50
452.13	231.71
452.31	220.01
452.49	231.71
452.68	159.16
452.86	140.43
453.05	210.65
453.23	264.48
453.42	140.43
453.60	152.13
453.78	175.54
453.97	187.24
454.15	222.35
454.34	205.97
454.52	156.82
454.70	248.10
454.89	241.08
455.07	210.65
455.26	217.67
455.44	222.35
455.62	194.26
455.81	187.24
455.99	189.58
456.17	124.05
456.36	140.43
456.54	142.77
456.73	191.92
456.91	210.65
457.09	135.75
457.28	271.50
457.46	166.18
457.64	156.82
457.83	72.56
458.01	175.54
458.19	177.88
458.38	222.35
458.56	241.08
458.74	191.92
458.93	236.39
459.11	152.13
459.29	201.29
459.48	229.37
459.66	262.14
459.84	250.44
460.03	362.78
460.21	269.16
460.39	152.13
460.57	205.97
460.76	215.33
460.94	184.90
461.12	243.42
461.31	198.95
461.49	152.13
461.67	191.92
461.85	231.71
462.04	196.60
462.22	585.13
462.40	191.92
462.59	194.26
462.77	177.88
462.95	196.60
463.13	177.88
463.32	212.99
463.50	215.33
463.68	220.01
463.86	252.78
464.05	245.76
464.23	238.73
464.41	166.18
464.59	133.41
464.78	145.11
464.96	142.77
465.14	203.63
465.32	147.45
465.50	208.31
465.69	217.67
465.87	117.03
466.05	241.08
466.23	95.96
466.41	117.03
466.60	152.13
466.78	196.60
466.96	229.37
467.14	170.86
467.32	203.63
467.51	229.37
467.69	189.58
467.87	231.71
468.05	229.37
468.23	248.10
468.41	224.69
468.60	117.03
468.78	217.67
468.96	147.45
469.14	147.45
469.32	196.60
469.50	145.11
469.69	184.90
469.87	212.99
470.05	212.99
470.23	166.18
470.41	159.16
470.59	170.86
470.77	175.54
470.95	215.33
471.14	269.16
471.32	184.90
471.50	227.03
471.68	133.41
471.86	220.01
472.04	224.69
472.22	245.76
472.40	184.90
472.58	175.54
472.77	182.56
472.95	168.52
473.13	255.12
473.31	210.65
473.49	180.22
473.67	159.16
473.85	163.84
474.03	243.42
474.21	234.05
474.39	280.86
474.57	208.31
474.75	159.16
474.93	88.94
475.12	201.29
475.30	128.73
475.48	133.41
475.66	170.86
475.84	241.08
476.02	201.29
476.20	201.29
476.38	203.63
476.56	294.91
476.74	222.35
476.92	194.26
477.10	229.37
477.28	243.42
477.46	229.37
477.64	208.31
477.82	229.37
478.00	262.14
478.18	245.76
478.36	212.99
478.54	220.01
478.72	243.42
478.90	212.99
479.08	231.71
479.26	222.35
479.44	182.56
479.62	208.31
479.80	196.60
479.98	220.01
480.16	184.90
480.34	255.12
480.52	191.92
480.70	215.33
480.88	201.29
481.06	248.10
481.24	203.63
481.41	168.52
481.59	182.56
481.77	262.14
481.95	182.56
482.13	203.63
482.31	217.67
482.49	259.80
482.67	163.84
482.85	217.67
483.03	276.18
483.21	205.97
483.39	231.71
483.57	231.71
483.74	212.99
483.92	205.97
484.10	208.31
484.28	187.24
484.46	248.10
484.64	236.39
484.82	248.10
485.00	222.35
485.18	273.84
485.35	234.05
485.53	128.73
485.71	203.63
485.89	234.05
486.07	191.92
486.25	262.14
486.43	227.03
486.61	315.97
486.78	241.08
486.96	262.14
487.14	231.71
487.32	280.86
487.50	205.97
487.68	210.65
487.85	208.31
488.03	266.82
488.21	292.57
488.39	252.78
488.57	203.63
488.75	187.24
488.92	531.30
489.10	215.33
489.28	259.80
489.46	168.52
489.64	212.99
489.81	290.23
489.99	205.97
490.17	250.44
490.35	248.10
490.53	252.78
490.70	135.75
490.88	346.40
491.06	224.69
491.24	262.14
491.41	269.16
491.59	241.08
491.77	262.14
491.95	205.97
492.13	252.78
492.30	170.86
492.48	301.93
492.66	224.69
492.84	285.55
493.01	252.78
493.19	140.43
493.37	294.91
493.54	332.36
493.72	198.95
493.90	276.18
494.08	168.52
494.25	271.50
494.43	327.68
494.61	159.16
494.79	248.10
494.96	191.92
495.14	285.55
495.32	283.20
495.49	308.95
495.67	198.95
495.85	191.92
496.02	191.92
496.20	238.73
496.38	269.16
496.55	173.20
496.73	292.57
496.91	210.65
497.09	278.52
497.26	287.89
497.44	299.59
497.62	224.69
497.79	234.05
497.97	285.55
498.14	255.12
498.32	297.25
498.50	280.86
498.67	224.69
498.85	259.80
499.03	163.84
499.20	212.99
499.38	271.50
499.56	271.50
499.73	308.95
499.91	224.69
500.08	234.05
500.26	212.99
500.44	215.33
500.61	236.39
500.79	191.92
500.97	191.92
501.14	238.73
501.32	264.48
501.49	266.82
501.67	259.80
501.84	238.73
502.02	203.63
502.20	266.82
502.37	231.71
502.55	252.78
502.72	287.89
502.90	229.37
503.07	280.86
503.25	215.33
503.43	285.55
503.60	276.18
503.78	252.78
503.95	280.86
504.13	208.31
504.30	266.82
504.48	241.08
504.65	238.73
504.83	241.08
505.01	271.50
505.18	250.44
505.36	280.86
505.53	222.35
505.71	269.16
505.88	259.80
506.06	220.01
506.23	180.22
506.41	205.97
506.58	255.12
506.76	208.31
506.93	227.03
507.11	301.93
507.28	177.88
507.46	241.08
507.63	273.84
507.81	292.57
507.98	294.91
508.16	234.05
508.33	184.90
508.50	259.80
508.68	283.20
508.85	313.63
509.03	229.37
509.20	287.89
509.38	285.55
509.55	257.46
509.73	231.71
509.90	297.25
510.08	184.90
510.25	250.44
510.42	301.93
510.60	252.78
510.77	255.12
510.95	229.37
511.12	318.31
511.30	334.70
511.47	280.86
511.64	376.83
511.82	273.84
511.99	273.84
512.17	189.58
512.34	191.92
512.51	252.78
512.69	257.46
512.86	346.40
513.04	250.44
513.21	257.46
513.38	182.56
513.56	259.80
513.73	184.90
513.90	276.18
514.08	311.29
514.25	276.18
514.43	372.15
514.60	264.48
514.77	243.42
514.95	273.84
515.12	283.20
515.29	327.68
515.47	255.12
515.64	283.20
515.81	285.55
515.99	304.27
516.16	299.59
516.33	259.80
516.51	266.82
516.68	243.42
516.85	191.92
517.03	149.79
517.20	212.99
517.37	220.01
517.54	238.73
517.72	252.78
517.89	224.69
518.06	184.90
518.24	227.03
518.41	304.27
518.58	241.08
518.75	182.56
518.93	280.86
519.10	243.42
519.27	250.44
519.45	278.52
519.62	262.14
519.79	224.69
519.96	271.50
520.14	276.18
520.31	299.59
520.48	222.35
520.65	297.25
520.83	234.05
521.00	322.99
521.17	271.50
521.34	325.33
521.52	231.71
521.69	278.52
521.86	327.68
522.03	283.20
522.20	259.80
522.38	273.84
522.55	198.95
522.72	212.99
522.89	318.31
523.07	315.97
523.24	292.57
523.41	182.56
523.58	250.44
523.75	290.23
523.92	257.46
524.10	255.12
524.27	248.10
524.44	297.25
524.61	234.05
524.78	283.20
524.96	353.42
525.13	227.03
525.30	301.93
525.47	280.86
525.64	276.18
525.81	344.06
525.98	283.20
526.16	313.63
526.33	166.18
526.50	245.76
526.67	201.29
526.84	194.26
527.01	311.29
527.18	313.63
527.36	205.97
527.53	217.67
527.70	264.48
527.87	278.52
528.04	313.63
528.21	280.86
528.38	248.10
528.55	341.72
528.72	344.06
528.89	294.91
529.07	346.40
529.24	156.82
529.41	297.25
529.58	287.89
529.75	297.25
529.92	269.16
530.09	332.36
530.26	322.99
530.43	287.89
530.60	297.25
530.77	205.97
530.94	299.59
531.11	327.68
531.28	287.89
531.46	299.59
531.63	327.68
531.80	245.76
531.97	259.80
532.14	241.08
532.31	287.89
532.48	269.16
532.65	344.06
532.82	458.74
532.99	362.78
533.16	353.42
533.33	231.71
533.50	231.71
533.67	313.63
533.84	388.53
534.01	451.72
534.18	411.93
534.35	301.93
534.52	241.08
534.69	386.19
534.86	313.63
535.03	327.68
535.20	278.52
535.37	264.48
535.54	266.82
535.71	283.20
535.88	332.36
536.05	294.91
536.22	311.29
536.38	212.99
536.55	308.95
536.72	287.89
536.89	283.20
537.06	341.72
537.23	304.27
537.40	311.29
537.57	271.50
537.74	379.17
537.91	294.91
538.08	311.29
538.25	294.91
538.42	252.78
538.59	273.84
538.75	271.50
538.92	365.12
539.09	337.04
539.26	362.78
539.43	510.24
539.60	987.71
539.77	1584.54
539.94	1640.72
540.11	1184.31
540.28	781.74
540.44	678.76
540.61	458.74
540.78	430.66
540.95	430.66
541.12	505.56
541.29	472.79
541.46	545.34
541.62	505.56
541.79	500.87
541.96	463.43
542.13	470.45
542.30	454.06
542.47	472.79
542.63	407.25
542.80	500.87
542.97	477.47
543.14	454.06
543.31	428.32
543.48	423.64
543.64	416.62
543.81	449.38
543.98	402.57
544.15	510.24
544.32	449.38
544.48	414.27
544.65	409.59
544.82	454.06
544.99	514.92
545.16	479.81
545.32	409.59
545.49	498.53
545.66	709.18
545.83	851.96
546.00	697.48
546.16	615.56
546.33	512.58
546.50	362.78
546.67	463.43
546.83	428.32
547.00	337.04
547.17	383.85
547.34	374.49
547.50	348.74
547.67	404.91
547.84	369.80
548.00	421.30
548.17	313.63
548.34	332.36
548.51	458.74
548.67	404.91
548.84	362.78
549.01	369.80
549.18	372.15
549.34	285.55
549.51	346.40
549.68	299.59
549.84	365.12
550.01	271.50
550.18	369.80
550.34	360.44
550.51	245.76
550.68	227.03
550.84	362.78
551.01	379.17
551.18	262.14
551.34	315.97
551.51	234.05
551.68	308.95
551.84	330.02
552.01	278.52
552.18	243.42
552.34	339.38
552.51	287.89
552.68	304.27
552.84	337.04
553.01	348.74
553.18	341.72
553.34	273.84
553.51	184.90
553.67	196.60
553.84	318.31
554.01	220.01
554.17	297.25
554.34	297.25
554.51	355.76
554.67	287.89
554.84	341.72
555.00	327.68
555.17	227.03
555.33	325.33
555.50	301.93
555.67	283.20
555.83	271.50
556.00	313.63
556.16	484.49
556.33	299.59
556.50	301.93
556.66	250.44
556.83	297.25
556.99	252.78
557.16	334.70
557.32	262.14
557.49	273.84
557.65	297.25
557.82	320.65
557.98	248.10
558.15	266.82
558.32	262.14
558.48	313.63
558.65	250.44
558.81	255.12
558.98	315.97
559.14	163.84
559.31	294.91
559.47	212.99
559.64	266.82
559.80	266.82
559.97	177.88
560.13	208.31
560.30	243.42
560.46	346.40
560.63	266.82
560.79	339.38
560.96	269.16
561.12	215.33
561.29	238.73
561.45	297.25
561.61	262.14
561.78	330.02
561.94	250.44
562.11	285.55
562.27	245.76
562.44	252.78
562.60	266.82
562.77	271.50
562.93	271.50
563.10	220.01
563.26	276.18
563.42	315.97
563.59	327.68
563.75	294.91
563.92	255.12
564.08	315.97
564.24	292.57
564.41	332.36
564.57	262.14
564.74	257.46
564.90	327.68
565.07	330.02
565.23	285.55
565.39	322.99
565.56	287.89
565.72	334.70
565.88	224.69
566.05	180.22
566.21	224.69
566.38	304.27
566.54	358.10
566.70	294.91
566.87	276.18
567.03	322.99
567.19	243.42
567.36	262.14
567.52	212.99
567.68	320.65
567.85	238.73
568.01	210.65
568.17	255.12
568.34	273.84
568.50	299.59
568.66	308.95
568.83	367.46
568.99	315.97
569.15	259.80
569.32	231.71
569.48	208.31
569.64	220.01
569.81	217.67
569.97	273.84
570.13	299.59
570.30	238.73
570.46	283.20
570.62	306.61
570.78	273.84
570.95	224.69
571.11	285.55
571.27	273.84
571.43	231.71
571.60	266.82
571.76	337.04
571.92	252.78
572.09	280.86
572.25	278.52
572.41	252.78
572.57	322.99
572.74	320.65
572.90	255.12
573.06	313.63
573.22	248.10
573.38	241.08
573.55	234.05
573.71	311.29
573.87	264.48
574.03	273.84
574.20	334.70
574.36	374.49
574.52	372.15
574.68	395.55
574.84	400.23
575.01	325.33
575.17	285.55
575.33	243.42
575.49	297.25
575.65	313.63
575.82	330.02
575.98	575.77
576.14	784.08
576.30	725.57
576.46	704.50
576.62	491.51
576.79	505.56
576.95	425.98
577.11	348.74
577.27	278.52
577.43	294.91
577.59	318.31
577.75	297.25
577.92	306.61
578.08	299.59
578.24	320.65
578.40	304.27
578.56	297.25
578.72	416.62
578.88	447.04
579.04	292.57
579.21	404.91
579.37	400.23
579.53	290.23
579.69	383.85
579.85	407.25
580.01	442.36
580.17	414.27
580.33	411.93
580.49	395.55
580.65	348.74
580.82	381.51
580.98	355.76
581.14	435.34
581.30	461.09
581.46	477.47
581.62	678.76
581.78	648.33
581.94	645.99
582.10	554.71
582.26	550.03
582.42	468.11
582.58	430.66
582.74	496.19
582.90	470.45
583.06	451.72
583.22	440.02
583.38	517.26
583.54	575.77
583.70	655.35
583.86	784.08
584.02	863.66
584.18	1032.18
584.34	1261.55
584.50	3021.63
584.66	22424.67
584.82	55543.25
584.98	65312.65
585.14	62791.89
585.30	48924.22
585.46	29797.36
585.62	18284.26
585.78	8517.21
585.94	3218.24
586.10	1652.42
586.26	1116.44
586.42	954.94
586.58	727.91
586.74	636.63
586.90	737.27
587.06	662.37
587.22	702.16
587.38	650.67
587.54	1207.72
587.70	3342.28
587.86	5694.52
588.02	6415.41
588.18	4465.74
588.34	2986.52
588.49	1895.83
588.65	1200.69
588.81	730.25
588.97	444.70
589.13	400.23
589.29	407.25
589.45	437.68
589.61	383.85
589.77	458.74
589.93	468.11
590.08	468.11
590.24	550.03
590.40	526.62
590.56	416.62
590.72	442.36
590.88	334.70
591.04	402.57
591.20	372.15
591.35	468.11
591.51	423.64
591.67	351.08
591.83	376.83
591.99	386.19
592.15	365.12
592.31	369.80
592.46	395.55
592.62	437.68
592.78	386.19
592.94	386.19
593.10	341.72
593.26	414.27
593.41	449.38
593.57	365.12
593.73	594.50
593.89	2686.94
594.05	7000.54
594.20	10698.59
594.36	10356.87
594.52	6899.90
594.68	4131.05
594.84	2888.22
594.99	1568.16
595.15	772.38
595.31	486.83
595.47	365.12
595.62	327.68
595.78	339.38
595.94	369.80
596.10	428.32
596.25	440.02
596.41	386.19
596.57	248.10
596.73	414.27
596.88	622.58
597.04	1369.21
597.20	2289.04
597.36	2724.38
597.51	2052.65
597.67	1416.02
597.83	990.05
597.99	699.82
598.14	444.70
598.30	440.02
598.46	386.19
598.61	425.98
598.77	376.83
598.93	390.87
599.09	332.36
599.24	320.65
599.40	367.46
599.56	327.68
599.71	266.82
599.87	339.38
600.03	341.72
600.18	325.33
600.34	269.16
600.50	330.02
600.65	327.68
600.81	346.40
600.97	266.82
601.12	283.20
601.28	341.72
601.44	376.83
601.59	250.44
601.75	273.84
601.91	376.83
602.06	252.78
602.22	416.62
602.37	716.20
602.53	1706.25
602.69	2717.36
602.84	2949.08
603.00	2118.18
603.16	1469.86
603.31	933.87
603.47	746.63
603.62	458.74
603.78	393.21
603.94	367.46
604.09	369.80
604.25	395.55
604.40	301.93
604.56	280.86
604.71	353.42
604.87	360.44
605.03	409.59
605.18	278.52
605.34	381.51
605.49	322.99
605.65	383.85
605.80	367.46
605.96	411.93
606.12	372.15
606.27	395.55
606.43	367.46
606.58	388.53
606.74	763.01
606.89	3141.00
607.05	6588.61
607.20	9174.90
607.36	7698.02
607.51	5078.96
607.67	3300.16
607.82	2200.10
607.98	1334.11
608.13	739.61
608.29	507.90
608.44	507.90
608.60	479.81
608.75	564.07
608.91	1102.39
609.06	5046.20
609.22	11480.33
609.37	15854.79
609.53	14141.52
609.68	9324.69
609.84	6097.10
609.99	4191.90
610.15	2305.43
610.30	1336.45
610.46	891.74
610.61	788.76
610.76	877.70
610.92	926.85
611.07	903.45
611.23	978.34
611.38	1018.13
611.54	851.96
611.69	805.14
611.84	737.27
612.00	603.86
612.15	564.07
612.31	716.20
612.46	800.46
612.62	884.72
612.77	936.21
612.92	734.93
613.08	706.84
613.23	739.61
613.39	699.82
613.54	994.73
613.69	4582.77
613.85	13961.30
614.00	23501.32
614.15	25422.90
614.31	17720.20
614.46	11812.68
614.62	7719.09
614.77	4566.39
614.92	2153.29
615.08	1170.27
615.23	784.08
615.38	634.29
615.54	493.85
615.69	978.34
615.84	2848.43
616.00	5221.74
616.15	6572.22
616.30	5261.52
616.46	3765.92
616.61	2546.50
616.76	1750.72
616.92	1022.81
617.07	678.76
617.22	463.43
617.37	348.74
617.53	400.23
617.68	369.80
617.83	332.36
617.99	402.57
618.14	355.76
618.29	383.85
618.45	332.36
618.60	360.44
618.75	332.36
618.90	229.37
619.06	346.40
619.21	355.76
619.36	301.93
619.51	348.74
619.67	255.12
619.82	250.44
619.97	250.44
620.12	367.46
620.28	344.06
620.43	355.76
620.58	404.91
620.73	318.31
620.89	294.91
621.04	552.37
621.19	1493.26
621.34	2885.88
621.49	3962.53
621.65	3639.53
621.80	2471.61
621.95	1797.53
622.10	1275.59
622.25	805.14
622.41	404.91
622.56	351.08
622.71	353.42
622.86	425.98
623.01	294.91
623.16	318.31
623.32	327.68
623.47	369.80
623.62	297.25
623.77	355.76
623.92	313.63
624.07	325.33
624.23	416.62
624.38	264.48
624.53	290.23
624.68	374.49
624.83	395.55
624.98	332.36
625.13	227.03
625.29	276.18
625.44	376.83
625.59	355.76
625.74	388.53
625.89	592.16
626.04	2282.02
626.19	6843.73
626.34	11445.22
626.49	13341.05
626.65	10043.24
626.80	6665.85
626.95	4458.72
627.10	2801.62
627.25	1486.24
627.40	793.44
627.55	465.77
627.70	390.87
627.85	416.62
628.00	315.97
628.15	322.99
628.30	299.59
628.45	311.29
628.60	271.50
628.76	365.12
628.91	304.27
629.06	297.25
629.21	334.70
629.36	339.38
629.51	290.23
629.66	287.89
629.81	519.60
629.96	1348.15
630.11	2551.18
630.26	3321.22
630.41	3117.59
630.56	2218.83
630.71	1664.12
630.86	1221.76
631.01	744.29
631.16	442.36
631.31	433.00
631.46	374.49
631.61	311.29
631.76	353.42
631.91	301.93
632.06	290.23
632.21	276.18
632.36	306.61
632.51	416.62
632.66	430.66
632.81	1163.25
632.96	3871.25
633.10	7077.78
633.25	8985.32
633.40	7283.75
633.55	5273.23
633.70	3496.76
633.85	2385.01
634.00	1270.91
634.15	690.46
634.30	400.23
634.45	411.93
634.60	425.98
634.75	313.63
634.90	266.82
635.05	255.12
635.19	299.59
635.34	278.52
635.49	337.04
635.64	224.69
635.79	388.53
635.94	294.91
636.09	243.42
636.24	315.97
636.39	273.84
636.53	301.93
636.68	308.95
636.83	320.65
636.98	308.95
637.13	290.23
637.28	365.12
637.43	503.22
637.57	650.67
637.72	3197.17
637.87	9135.11
638.02	15084.75
638.17	16910.37
638.32	12320.58
638.46	8372.10
638.61	5912.19
638.76	3517.83
638.91	1732.00
639.06	1036.86
639.20	765.36
639.35	685.78
639.50	971.32
639.65	4489.15
639.80	13874.70
639.94	22820.22
640.09	25532.90
640.24	18504.28
640.39	12613.15
640.54	8264.43
640.68	5018.11
640.83	2459.90
640.98	1160.91
641.13	688.12
641.27	489.17
641.42	418.96
641.57	416.62
641.72	461.09
641.86	339.38
642.01	341.72
642.16	315.97
642.31	327.68
642.45	339.38
642.60	369.80
642.75	262.14
642.90	269.16
643.04	294.91
643.19	332.36
643.34	259.80
643.48	245.76
643.63	224.69
643.78	346.40
643.93	322.99
644.07	210.65
644.22	241.08
644.37	297.25
644.51	294.91
644.66	280.86
644.81	322.99
644.95	278.52
645.10	255.12
645.25	273.84
645.39	292.57
645.54	238.73
645.69	294.91
645.83	301.93
645.98	355.76
646.13	358.10
646.27	220.01
646.42	224.69
646.57	285.55
646.71	236.39
646.86	156.82
647.00	236.39
647.15	238.73
647.30	259.80
647.44	276.18
647.59	205.97
647.74	243.42
647.88	285.55
648.03	224.69
648.17	264.48
648.32	168.52
648.47	318.31
648.61	271.50
648.76	222.35
648.90	243.42
649.05	212.99
649.20	285.55
649.34	163.84
649.49	315.97
649.63	308.95
649.78	411.93
649.92	535.98
650.07	1872.43
650.21	6090.07
650.36	10892.85
650.51	13540.00
650.65	10981.79
650.80	7655.89
650.94	5242.80
651.09	3274.41
651.23	1652.42
651.38	882.38
651.52	505.56
651.67	353.42
651.81	344.06
651.96	344.06
652.10	320.65
652.25	337.04
652.39	301.93
652.54	365.12
652.68	631.94
652.83	1937.96
652.97	3721.45
653.12	4711.50
653.26	4119.34
653.41	3101.21
653.55	2172.02
653.70	1301.34
653.84	880.04
653.99	493.85
654.13	341.72
654.27	330.02
654.42	220.01
654.56	208.31
654.71	205.97
654.85	205.97
655.00	220.01
655.14	208.31
655.29	227.03
655.43	222.35
655.57	224.69
655.72	238.73
655.86	259.80
656.01	222.35
656.15	189.58
656.30	257.46
656.44	220.01
656.58	194.26
656.73	201.29
656.87	135.75
657.01	152.13
657.16	208.31
657.30	236.39
657.45	304.27
657.59	245.76
657.73	205.97
657.88	290.23
658.02	283.20
658.16	222.35
658.31	231.71
658.45	250.44
658.60	217.67
658.74	266.82
658.88	182.56
659.03	304.27
659.17	337.04
659.31	917.49
659.46	2736.09
659.60	4943.21
659.74	6630.74
659.89	5753.04
660.03	4166.15
660.17	2953.76
660.32	1816.26
660.46	1132.82
660.60	589.82
660.74	479.81
660.89	327.68
661.03	273.84
661.17	196.60
661.32	243.42
661.46	184.90
661.60	217.67
661.74	241.08
661.89	283.20
662.03	198.95
662.17	220.01
662.31	252.78
662.46	271.50
662.60	243.42
662.74	243.42
662.88	189.58
663.03	280.86
663.17	182.56
663.31	201.29
663.45	191.92
663.60	201.29
663.74	173.20
663.88	201.29
664.02	250.44
664.17	252.78
664.31	224.69
664.45	231.71
664.59	283.20
664.73	208.31
664.88	243.42
665.02	255.12
665.16	301.93
665.30	266.82
665.44	243.42
665.59	264.48
665.73	276.18
665.87	229.37
666.01	353.42
666.15	138.09
666.29	285.55
666.44	325.33
666.58	311.29
666.72	203.63
666.86	266.82
667.00	334.70
667.14	442.36
667.28	1675.82
667.43	5203.01
667.57	9284.91
667.71	11934.39
667.85	10104.09
667.99	7351.62
668.13	4669.37
668.27	2654.17
668.41	1636.03
668.56	908.13
668.70	571.09
668.84	400.23
668.98	271.50
669.12	259.80
669.26	259.80
669.40	301.93
669.54	280.86
669.68	236.39
669.82	229.37
669.96	255.12
670.10	334.70
670.25	205.97
670.39	348.74
670.53	294.91
670.67	287.89
670.81	220.01
670.95	334.70
671.09	524.28
671.23	1961.37
671.37	4341.69
671.51	6707.98
671.65	7314.17
671.79	5554.09
671.93	3920.40
672.07	2380.32
672.21	1467.52
672.35	873.02
672.49	538.32
672.63	358.10
672.77	297.25
672.91	283.20
673.05	250.44
673.19	222.35
673.33	196.60
673.47	191.92
673.61	243.42
673.75	259.80
673.89	252.78
674.03	168.52
674.17	266.82
674.31	285.55
674.45	194.26
674.59	262.14
674.73	184.90
674.87	149.79
675.01	280.86
675.15	269.16
675.29	287.89
675.43	205.97
675.56	337.04
675.70	290.23
675.84	217.67
675.98	234.05
676.12	154.48
676.26	201.29
676.40	184.90
676.54	266.82
676.68	205.97
676.82	191.92
676.96	210.65
677.10	105.32
677.23	107.66
677.37	159.16
677.51	208.31
677.65	292.57
677.79	205.97
677.93	126.39
678.07	229.37
678.21	182.56
678.34	231.71
678.48	128.73
678.62	208.31
678.76	173.20
678.90	168.52
679.04	133.41
679.18	161.50
679.31	184.90
679.45	187.24
679.59	201.29
679.73	175.54
679.87	210.65
680.00	208.31
680.14	248.10
680.28	210.65
680.42	194.26
680.56	227.03
680.70	142.77
680.83	217.67
680.97	201.29
681.11	234.05
681.25	161.50
681.39	159.16
681.52	191.92
681.66	166.18
681.80	252.78
681.94	117.03
682.07	149.79
682.21	175.54
682.35	159.16
682.49	203.63
682.62	201.29
682.76	110.01
682.90	208.31
683.04	170.86
683.17	182.56
683.31	184.90
683.45	231.71
683.59	210.65
683.72	252.78
683.86	177.88
684.00	154.48
684.13	170.86
684.27	220.01
684.41	238.73
684.55	276.18
684.68	135.75
684.82	180.22
684.96	147.45
685.09	191.92
685.23	138.09
685.37	205.97
685.50	222.35
685.64	278.52
685.78	168.52
685.91	234.05
686.05	210.65
686.19	182.56
686.32	175.54
686.46	222.35
686.60	145.11
686.73	255.12
686.87	257.46
687.01	245.76
687.14	170.86
687.28	217.67
687.42	217.67
687.55	252.78
687.69	220.01
687.82	212.99
687.96	227.03
688.10	208.31
688.23	184.90
688.37	259.80
688.50	229.37
688.64	189.58
688.78	201.29
688.91	173.20
689.05	198.95
689.18	170.86
689.32	154.48
689.46	135.75
689.59	154.48
689.73	161.50
689.86	110.01
690.00	74.90
690.13	159.16
690.27	210.65
690.41	163.84
690.54	149.79
690.68	222.35
690.81	189.58
690.95	220.01
691.08	229.37
691.22	191.92
691.35	152.13
691.49	189.58
691.62	215.33
691.76	205.97
691.89	203.63
692.03	203.63
692.16	121.71
692.30	255.12
692.43	573.43
692.57	2169.68
692.70	3920.40
692.84	5074.28
692.97	4741.93
693.11	3410.16
693.24	2553.52
693.38	1713.27
693.51	1100.05
693.65	695.14
693.78	568.75
693.92	390.87
694.05	285.55
694.19	248.10
694.32	175.54
694.45	212.99
694.59	208.31
694.72	238.73
694.86	271.50
694.99	241.08
695.13	191.92
695.26	252.78
695.39	224.69
695.53	287.89
695.66	191.92
695.80	210.65
695.93	196.60
696.07	208.31
696.20	325.33
696.33	339.38
696.47	397.89
696.60	418.96
696.73	339.38
696.87	255.12
697.00	238.73
697.14	231.71
697.27	117.03
697.40	248.10
697.54	194.26
697.67	117.03
697.80	138.09
697.94	220.01
698.07	184.90
698.21	133.41
698.34	271.50
698.47	133.41
698.61	147.45
698.74	198.95
698.87	147.45
699.01	142.77
699.14	147.45
699.27	163.84
699.40	318.31
699.54	154.48
699.67	154.48
699.80	173.20
699.94	117.03
700.07	182.56
700.20	198.95
700.34	138.09
700.47	194.26
700.60	201.29
700.73	217.67
700.87	255.12
701.00	189.58
701.13	166.18
701.26	203.63
701.40	154.48
701.53	191.92
701.66	245.76
701.79	187.24
701.93	266.82
702.06	386.19
702.19	428.32
702.32	479.81
702.46	498.53
702.59	561.73
702.72	938.55
702.85	2928.01
702.99	6356.90
703.12	9249.80
703.25	10349.85
703.38	8528.91
703.51	6881.18
703.65	5238.12
703.78	3646.55
703.91	2385.01
704.04	1540.07
704.17	964.30
704.31	594.50
704.44	430.66
704.57	358.10
704.70	271.50
704.83	234.05
704.96	271.50
705.10	229.37
705.23	131.07
>>>>>End Processed Spectral Data<<<<<
