SpectraSuite Data File
++++++++++++++++++++++++++++++++++++
Date: Fri Oct 04 11:34:11 GMT-05:00 2013
User: price-jones
Dark Spectrum Present: No
Reference Spectrum Present: No
Number of Sampled Component Spectra: 1
Spectrometers: USB2+H05261
Integration Time (usec): 100000 (USB2+H05261)
Spectra Averaged: 1 (USB2+H05261)
Boxcar Smoothing: 0 (USB2+H05261)
Correct for Electrical Dark: No (USB2+H05261)
Strobe/Lamp Enabled: No (USB2+H05261)
Correct for Detector Non-linearity: No (USB2+H05261)
Correct for Stray Light: No (USB2+H05261)
Number of Pixels in Processed Spectrum: 2048
>>>>>Begin Processed Spectral Data<<<<<
365.73	30.43
365.92	30.43
366.12	30.43
366.32	25.75
366.52	32.77
366.72	7.02
366.91	0.00
367.11	0.00
367.31	0.00
367.51	0.00
367.70	0.00
367.90	49.15
368.10	39.79
368.30	0.00
368.49	0.00
368.69	2.34
368.89	0.00
369.09	0.00
369.28	7.02
369.48	0.00
369.68	21.06
369.87	0.00
370.07	0.00
370.27	63.19
370.47	63.19
370.66	74.90
370.86	51.49
371.06	161.50
371.25	138.09
371.45	23.41
371.65	161.50
371.84	128.73
372.04	74.90
372.24	95.96
372.44	58.51
372.63	138.09
372.83	198.95
373.03	161.50
373.22	210.65
373.42	149.79
373.62	128.73
373.81	114.69
374.01	156.82
374.21	142.77
374.40	65.54
374.60	222.35
374.79	196.60
374.99	147.45
375.19	117.03
375.38	227.03
375.58	187.24
375.78	175.54
375.97	170.86
376.17	156.82
376.37	152.13
376.56	135.75
376.76	173.20
376.95	145.11
377.15	180.22
377.35	79.58
377.54	128.73
377.74	152.13
377.93	114.69
378.13	154.48
378.33	131.07
378.52	182.56
378.72	126.39
378.91	154.48
379.11	114.69
379.31	110.01
379.50	53.83
379.70	187.24
379.89	131.07
380.09	67.88
380.28	79.58
380.48	117.03
380.68	180.22
380.87	70.22
381.07	140.43
381.26	161.50
381.46	102.98
381.65	140.43
381.85	72.56
382.04	135.75
382.24	131.07
382.43	77.24
382.63	88.94
382.83	86.60
383.02	154.48
383.22	152.13
383.41	145.11
383.61	105.32
383.80	91.28
384.00	156.82
384.19	86.60
384.39	117.03
384.58	121.71
384.78	152.13
384.97	128.73
385.17	149.79
385.36	142.77
385.56	95.96
385.75	91.28
385.95	173.20
386.14	224.69
386.34	184.90
386.53	93.62
386.72	112.35
386.92	121.71
387.11	88.94
387.31	152.13
387.50	142.77
387.70	180.22
387.89	203.63
388.09	121.71
388.28	128.73
388.48	170.86
388.67	189.58
388.86	161.50
389.06	95.96
389.25	112.35
389.45	163.84
389.64	166.18
389.84	212.99
390.03	170.86
390.22	114.69
390.42	88.94
390.61	126.39
390.81	182.56
391.00	149.79
391.19	114.69
391.39	152.13
391.58	170.86
391.78	142.77
391.97	156.82
392.16	189.58
392.36	175.54
392.55	154.48
392.75	198.95
392.94	142.77
393.13	161.50
393.33	110.01
393.52	135.75
393.71	175.54
393.91	149.79
394.10	107.66
394.29	91.28
394.49	117.03
394.68	147.45
394.88	168.52
395.07	259.80
395.26	156.82
395.46	142.77
395.65	189.58
395.84	140.43
396.04	238.73
396.23	173.20
396.42	147.45
396.62	161.50
396.81	128.73
397.00	159.16
397.19	140.43
397.39	182.56
397.58	215.33
397.77	138.09
397.97	124.05
398.16	112.35
398.35	152.13
398.55	105.32
398.74	173.20
398.93	159.16
399.12	154.48
399.32	154.48
399.51	74.90
399.70	145.11
399.90	114.69
400.09	140.43
400.28	198.95
400.47	177.88
400.67	135.75
400.86	119.37
401.05	149.79
401.24	126.39
401.44	112.35
401.63	191.92
401.82	147.45
402.01	163.84
402.21	126.39
402.40	149.79
402.59	107.66
402.78	93.62
402.97	95.96
403.17	168.52
403.36	135.75
403.55	105.32
403.74	126.39
403.93	248.10
404.13	196.60
404.32	154.48
404.51	147.45
404.70	198.95
404.89	170.86
405.09	147.45
405.28	124.05
405.47	107.66
405.66	184.90
405.85	189.58
406.05	168.52
406.24	152.13
406.43	152.13
406.62	187.24
406.81	236.39
407.00	114.69
407.20	166.18
407.39	126.39
407.58	117.03
407.77	229.37
407.96	163.84
408.15	119.37
408.34	156.82
408.54	166.18
408.73	149.79
408.92	142.77
409.11	180.22
409.30	149.79
409.49	149.79
409.68	60.85
409.87	154.48
410.07	159.16
410.26	166.18
410.45	121.71
410.64	98.30
410.83	201.29
411.02	177.88
411.21	180.22
411.40	163.84
411.59	177.88
411.78	177.88
411.98	180.22
412.17	119.37
412.36	135.75
412.55	196.60
412.74	203.63
412.93	191.92
413.12	112.35
413.31	245.76
413.50	201.29
413.69	168.52
413.88	156.82
414.07	177.88
414.26	182.56
414.45	147.45
414.64	182.56
414.83	175.54
415.02	154.48
415.22	215.33
415.41	229.37
415.60	140.43
415.79	161.50
415.98	147.45
416.17	168.52
416.36	173.20
416.55	133.41
416.74	175.54
416.93	203.63
417.12	203.63
417.31	180.22
417.50	140.43
417.69	203.63
417.88	161.50
418.07	39.79
418.26	124.05
418.45	124.05
418.64	182.56
418.83	184.90
419.02	135.75
419.21	217.67
419.39	170.86
419.58	184.90
419.77	215.33
419.96	243.42
420.15	212.99
420.34	133.41
420.53	161.50
420.72	138.09
420.91	119.37
421.10	159.16
421.29	189.58
421.48	194.26
421.67	138.09
421.86	149.79
422.05	79.58
422.24	81.92
422.43	142.77
422.61	177.88
422.80	182.56
422.99	124.05
423.18	149.79
423.37	170.86
423.56	243.42
423.75	175.54
423.94	212.99
424.13	187.24
424.32	102.98
424.50	224.69
424.69	121.71
424.88	145.11
425.07	175.54
425.26	198.95
425.45	215.33
425.64	229.37
425.83	182.56
426.01	175.54
426.20	170.86
426.39	175.54
426.58	175.54
426.77	205.97
426.96	201.29
427.15	198.95
427.33	208.31
427.52	163.84
427.71	133.41
427.90	107.66
428.09	184.90
428.28	117.03
428.46	149.79
428.65	170.86
428.84	205.97
429.03	208.31
429.22	156.82
429.40	173.20
429.59	198.95
429.78	217.67
429.97	180.22
430.16	117.03
430.34	187.24
430.53	159.16
430.72	177.88
430.91	100.64
431.10	84.26
431.28	208.31
431.47	198.95
431.66	203.63
431.85	161.50
432.03	184.90
432.22	224.69
432.41	156.82
432.60	161.50
432.79	159.16
432.97	161.50
433.16	126.39
433.35	180.22
433.54	203.63
433.72	166.18
433.91	142.77
434.10	110.01
434.28	198.95
434.47	196.60
434.66	191.92
434.85	224.69
435.03	166.18
435.22	351.08
435.41	301.93
435.59	315.97
435.78	292.57
435.97	234.05
436.16	161.50
436.34	189.58
436.53	100.64
436.72	166.18
436.90	201.29
437.09	177.88
437.28	215.33
437.46	175.54
437.65	161.50
437.84	173.20
438.02	124.05
438.21	161.50
438.40	210.65
438.58	177.88
438.77	194.26
438.96	189.58
439.14	180.22
439.33	262.14
439.52	184.90
439.70	126.39
439.89	163.84
440.08	152.13
440.26	173.20
440.45	217.67
440.63	112.35
440.82	180.22
441.01	110.01
441.19	135.75
441.38	110.01
441.57	161.50
441.75	245.76
441.94	238.73
442.12	191.92
442.31	79.58
442.50	149.79
442.68	217.67
442.87	147.45
443.05	189.58
443.24	187.24
443.43	182.56
443.61	252.78
443.80	159.16
443.98	184.90
444.17	149.79
444.35	208.31
444.54	182.56
444.73	175.54
444.91	220.01
445.10	119.37
445.28	145.11
445.47	175.54
445.65	217.67
445.84	220.01
446.02	229.37
446.21	119.37
446.39	161.50
446.58	208.31
446.77	196.60
446.95	196.60
447.14	229.37
447.32	184.90
447.51	189.58
447.69	187.24
447.88	149.79
448.06	220.01
448.25	210.65
448.43	222.35
448.62	135.75
448.80	194.26
448.99	201.29
449.17	149.79
449.36	95.96
449.54	135.75
449.73	124.05
449.91	271.50
450.10	177.88
450.28	262.14
450.46	222.35
450.65	215.33
450.83	117.03
451.02	135.75
451.20	201.29
451.39	145.11
451.57	149.79
451.76	241.08
451.94	210.65
452.13	173.20
452.31	210.65
452.49	229.37
452.68	117.03
452.86	175.54
453.05	320.65
453.23	163.84
453.42	191.92
453.60	208.31
453.78	135.75
453.97	117.03
454.15	152.13
454.34	177.88
454.52	93.62
454.70	191.92
454.89	241.08
455.07	173.20
455.26	189.58
455.44	161.50
455.62	231.71
455.81	187.24
455.99	271.50
456.17	271.50
456.36	208.31
456.54	208.31
456.73	201.29
456.91	182.56
457.09	191.92
457.28	163.84
457.46	177.88
457.64	245.76
457.83	128.73
458.01	142.77
458.19	163.84
458.38	229.37
458.56	196.60
458.74	166.18
458.93	191.92
459.11	250.44
459.29	201.29
459.48	217.67
459.66	166.18
459.84	238.73
460.03	248.10
460.21	276.18
460.39	227.03
460.57	241.08
460.76	217.67
460.94	110.01
461.12	222.35
461.31	217.67
461.49	161.50
461.67	198.95
461.85	243.42
462.04	142.77
462.22	594.50
462.40	147.45
462.59	238.73
462.77	147.45
462.95	159.16
463.13	180.22
463.32	191.92
463.50	102.98
463.68	234.05
463.86	208.31
464.05	220.01
464.23	283.20
464.41	210.65
464.59	124.05
464.78	210.65
464.96	180.22
465.14	182.56
465.32	159.16
465.50	210.65
465.69	196.60
465.87	191.92
466.05	320.65
466.23	128.73
466.41	156.82
466.60	264.48
466.78	152.13
466.96	161.50
467.14	255.12
467.32	250.44
467.51	194.26
467.69	262.14
467.87	234.05
468.05	154.48
468.23	215.33
468.41	205.97
468.60	156.82
468.78	159.16
468.96	227.03
469.14	142.77
469.32	173.20
469.50	257.46
469.69	124.05
469.87	220.01
470.05	184.90
470.23	191.92
470.41	220.01
470.59	245.76
470.77	168.52
470.95	114.69
471.14	243.42
471.32	138.09
471.50	217.67
471.68	175.54
471.86	166.18
472.04	203.63
472.22	107.66
472.40	198.95
472.58	145.11
472.77	147.45
472.95	203.63
473.13	257.46
473.31	234.05
473.49	189.58
473.67	208.31
473.85	243.42
474.03	215.33
474.21	203.63
474.39	215.33
474.57	231.71
474.75	217.67
474.93	163.84
475.12	168.52
475.30	208.31
475.48	154.48
475.66	173.20
475.84	142.77
476.02	128.73
476.20	112.35
476.38	161.50
476.56	273.84
476.74	201.29
476.92	182.56
477.10	138.09
477.28	220.01
477.46	194.26
477.64	224.69
477.82	175.54
478.00	114.69
478.18	156.82
478.36	238.73
478.54	227.03
478.72	138.09
478.90	224.69
479.08	234.05
479.26	201.29
479.44	205.97
479.62	201.29
479.80	154.48
479.98	227.03
480.16	236.39
480.34	182.56
480.52	201.29
480.70	184.90
480.88	236.39
481.06	58.51
481.24	255.12
481.41	163.84
481.59	212.99
481.77	156.82
481.95	250.44
482.13	234.05
482.31	266.82
482.49	238.73
482.67	248.10
482.85	248.10
483.03	187.24
483.21	196.60
483.39	184.90
483.57	184.90
483.74	280.86
483.92	220.01
484.10	198.95
484.28	252.78
484.46	341.72
484.64	271.50
484.82	210.65
485.00	250.44
485.18	203.63
485.35	208.31
485.53	142.77
485.71	236.39
485.89	182.56
486.07	187.24
486.25	322.99
486.43	187.24
486.61	243.42
486.78	189.58
486.96	149.79
487.14	217.67
487.32	222.35
487.50	224.69
487.68	280.86
487.85	236.39
488.03	285.55
488.21	245.76
488.39	234.05
488.57	266.82
488.75	170.86
488.92	456.40
489.10	238.73
489.28	304.27
489.46	194.26
489.64	215.33
489.81	318.31
489.99	266.82
490.17	250.44
490.35	278.52
490.53	198.95
490.70	133.41
490.88	205.97
491.06	245.76
491.24	259.80
491.41	341.72
491.59	227.03
491.77	184.90
491.95	215.33
492.13	227.03
492.30	196.60
492.48	231.71
492.66	276.18
492.84	194.26
493.01	234.05
493.19	198.95
493.37	346.40
493.54	301.93
493.72	287.89
493.90	217.67
494.08	252.78
494.25	262.14
494.43	238.73
494.61	245.76
494.79	241.08
494.96	203.63
495.14	243.42
495.32	196.60
495.49	154.48
495.67	217.67
495.85	245.76
496.02	236.39
496.20	201.29
496.38	222.35
496.55	297.25
496.73	205.97
496.91	252.78
497.09	234.05
497.26	215.33
497.44	290.23
497.62	224.69
497.79	294.91
497.97	276.18
498.14	208.31
498.32	229.37
498.50	264.48
498.67	222.35
498.85	217.67
499.03	269.16
499.20	308.95
499.38	234.05
499.56	297.25
499.73	283.20
499.91	299.59
500.08	222.35
500.26	255.12
500.44	283.20
500.61	234.05
500.79	224.69
500.97	217.67
501.14	220.01
501.32	248.10
501.49	243.42
501.67	224.69
501.84	220.01
502.02	196.60
502.20	304.27
502.37	243.42
502.55	180.22
502.72	290.23
502.90	276.18
503.07	252.78
503.25	229.37
503.43	212.99
503.60	173.20
503.78	322.99
503.95	161.50
504.13	222.35
504.30	262.14
504.48	205.97
504.65	299.59
504.83	287.89
505.01	266.82
505.18	208.31
505.36	177.88
505.53	287.89
505.71	227.03
505.88	327.68
506.06	245.76
506.23	264.48
506.41	250.44
506.58	259.80
506.76	313.63
506.93	234.05
507.11	292.57
507.28	271.50
507.46	170.86
507.63	318.31
507.81	276.18
507.98	280.86
508.16	210.65
508.33	297.25
508.50	292.57
508.68	203.63
508.85	278.52
509.03	271.50
509.20	224.69
509.38	198.95
509.55	236.39
509.73	264.48
509.90	283.20
510.08	243.42
510.25	241.08
510.42	215.33
510.60	234.05
510.77	269.16
510.95	170.86
511.12	220.01
511.30	224.69
511.47	227.03
511.64	255.12
511.82	250.44
511.99	278.52
512.17	212.99
512.34	177.88
512.51	259.80
512.69	201.29
512.86	250.44
513.04	222.35
513.21	217.67
513.38	234.05
513.56	187.24
513.73	257.46
513.90	301.93
514.08	280.86
514.25	255.12
514.43	320.65
514.60	196.60
514.77	297.25
514.95	241.08
515.12	194.26
515.29	196.60
515.47	189.58
515.64	243.42
515.81	290.23
515.99	299.59
516.16	250.44
516.33	283.20
516.51	243.42
516.68	224.69
516.85	210.65
517.03	220.01
517.20	266.82
517.37	220.01
517.54	271.50
517.72	189.58
517.89	180.22
518.06	203.63
518.24	278.52
518.41	203.63
518.58	292.57
518.75	224.69
518.93	224.69
519.10	315.97
519.27	245.76
519.45	229.37
519.62	306.61
519.79	297.25
519.96	227.03
520.14	212.99
520.31	229.37
520.48	187.24
520.65	269.16
520.83	278.52
521.00	297.25
521.17	187.24
521.34	252.78
521.52	243.42
521.69	325.33
521.86	299.59
522.03	203.63
522.20	301.93
522.38	217.67
522.55	245.76
522.72	264.48
522.89	250.44
523.07	318.31
523.24	273.84
523.41	278.52
523.58	224.69
523.75	264.48
523.92	236.39
524.10	297.25
524.27	243.42
524.44	257.46
524.61	220.01
524.78	252.78
524.96	264.48
525.13	238.73
525.30	259.80
525.47	299.59
525.64	283.20
525.81	259.80
525.98	175.54
526.16	250.44
526.33	208.31
526.50	212.99
526.67	224.69
526.84	212.99
527.01	210.65
527.18	290.23
527.36	294.91
527.53	210.65
527.70	287.89
527.87	259.80
528.04	287.89
528.21	248.10
528.38	299.59
528.55	273.84
528.72	297.25
528.89	280.86
529.07	212.99
529.24	227.03
529.41	332.36
529.58	287.89
529.75	264.48
529.92	269.16
530.09	264.48
530.26	231.71
530.43	264.48
530.60	290.23
530.77	194.26
530.94	280.86
531.11	301.93
531.28	217.67
531.46	262.14
531.63	259.80
531.80	278.52
531.97	257.46
532.14	283.20
532.31	297.25
532.48	337.04
532.65	243.42
532.82	238.73
532.99	280.86
533.16	229.37
533.33	266.82
533.50	318.31
533.67	248.10
533.84	245.76
534.01	250.44
534.18	215.33
534.35	262.14
534.52	271.50
534.69	341.72
534.86	259.80
535.03	287.89
535.20	262.14
535.37	257.46
535.54	269.16
535.71	255.12
535.88	334.70
536.05	180.22
536.22	276.18
536.38	290.23
536.55	262.14
536.72	313.63
536.89	262.14
537.06	360.44
537.23	330.02
537.40	259.80
537.57	264.48
537.74	334.70
537.91	318.31
538.08	266.82
538.25	269.16
538.42	332.36
538.59	379.17
538.75	241.08
538.92	269.16
539.09	294.91
539.26	252.78
539.43	346.40
539.60	308.95
539.77	315.97
539.94	313.63
540.11	344.06
540.28	440.02
540.44	339.38
540.61	416.62
540.78	308.95
540.95	388.53
541.12	470.45
541.29	421.30
541.46	482.15
541.62	468.11
541.79	458.74
541.96	409.59
542.13	395.55
542.30	346.40
542.47	442.36
542.63	400.23
542.80	491.51
542.97	433.00
543.14	390.87
543.31	390.87
543.48	346.40
543.64	468.11
543.81	421.30
543.98	428.32
544.15	386.19
544.32	463.43
544.48	409.59
544.65	400.23
544.82	386.19
544.99	332.36
545.16	397.89
545.32	423.64
545.49	620.24
545.66	697.48
545.83	681.10
546.00	638.97
546.16	547.69
546.33	390.87
546.50	367.46
546.67	484.49
546.83	358.10
547.00	379.17
547.17	334.70
547.34	334.70
547.50	339.38
547.67	355.76
547.84	395.55
548.00	313.63
548.17	348.74
548.34	318.31
548.51	360.44
548.67	362.78
548.84	400.23
549.01	383.85
549.18	353.42
549.34	348.74
549.51	339.38
549.68	320.65
549.84	332.36
550.01	294.91
550.18	425.98
550.34	407.25
550.51	257.46
550.68	287.89
550.84	297.25
551.01	262.14
551.18	273.84
551.34	297.25
551.51	278.52
551.68	294.91
551.84	355.76
552.01	271.50
552.18	358.10
552.34	313.63
552.51	229.37
552.68	224.69
552.84	383.85
553.01	294.91
553.18	264.48
553.34	337.04
553.51	259.80
553.67	290.23
553.84	369.80
554.01	325.33
554.17	308.95
554.34	266.82
554.51	287.89
554.67	292.57
554.84	273.84
555.00	273.84
555.17	229.37
555.33	245.76
555.50	304.27
555.67	330.02
555.83	238.73
556.00	236.39
556.16	470.45
556.33	243.42
556.50	196.60
556.66	255.12
556.83	266.82
556.99	255.12
557.16	166.18
557.32	227.03
557.49	264.48
557.65	248.10
557.82	367.46
557.98	259.80
558.15	285.55
558.32	257.46
558.48	238.73
558.65	273.84
558.81	294.91
558.98	273.84
559.14	220.01
559.31	243.42
559.47	236.39
559.64	236.39
559.80	215.33
559.97	304.27
560.13	257.46
560.30	264.48
560.46	259.80
560.63	292.57
560.79	259.80
560.96	250.44
561.12	280.86
561.29	259.80
561.45	187.24
561.61	327.68
561.78	285.55
561.94	182.56
562.11	236.39
562.27	217.67
562.44	273.84
562.60	334.70
562.77	280.86
562.93	271.50
563.10	250.44
563.26	262.14
563.42	287.89
563.59	271.50
563.75	224.69
563.92	351.08
564.08	245.76
564.24	241.08
564.41	306.61
564.57	227.03
564.74	248.10
564.90	241.08
565.07	276.18
565.23	283.20
565.39	198.95
565.56	236.39
565.72	264.48
565.88	266.82
566.05	238.73
566.21	262.14
566.38	220.01
566.54	236.39
566.70	229.37
566.87	299.59
567.03	194.26
567.19	227.03
567.36	271.50
567.52	266.82
567.68	332.36
567.85	283.20
568.01	292.57
568.17	271.50
568.34	297.25
568.50	330.02
568.66	210.65
568.83	266.82
568.99	210.65
569.15	194.26
569.32	287.89
569.48	248.10
569.64	217.67
569.81	283.20
569.97	311.29
570.13	245.76
570.30	201.29
570.46	234.05
570.62	294.91
570.78	217.67
570.95	252.78
571.11	280.86
571.27	259.80
571.43	231.71
571.60	269.16
571.76	264.48
571.92	278.52
572.09	187.24
572.25	203.63
572.41	182.56
572.57	175.54
572.74	388.53
572.90	245.76
573.06	271.50
573.22	224.69
573.38	234.05
573.55	234.05
573.71	278.52
573.87	327.68
574.03	236.39
574.20	259.80
574.36	283.20
574.52	297.25
574.68	269.16
574.84	285.55
575.01	224.69
575.17	191.92
575.33	205.97
575.49	341.72
575.65	266.82
575.82	184.90
575.98	304.27
576.14	234.05
576.30	294.91
576.46	337.04
576.62	372.15
576.79	294.91
576.95	325.33
577.11	285.55
577.27	220.01
577.43	276.18
577.59	372.15
577.75	248.10
577.92	269.16
578.08	229.37
578.24	203.63
578.40	234.05
578.56	311.29
578.72	374.49
578.88	344.06
579.04	351.08
579.21	325.33
579.37	238.73
579.53	285.55
579.69	266.82
579.85	234.05
580.01	231.71
580.17	306.61
580.33	276.18
580.49	285.55
580.65	269.16
580.82	285.55
580.98	278.52
581.14	238.73
581.30	236.39
581.46	294.91
581.62	351.08
581.78	301.93
581.94	348.74
582.10	262.14
582.26	262.14
582.42	339.38
582.58	292.57
582.74	308.95
582.90	259.80
583.06	351.08
583.22	220.01
583.38	315.97
583.54	271.50
583.70	346.40
583.86	245.76
584.02	278.52
584.18	318.31
584.34	334.70
584.50	334.70
584.66	664.71
584.82	1306.02
584.98	1844.34
585.14	1781.15
585.30	1200.69
585.46	922.17
585.62	599.18
585.78	379.17
585.94	330.02
586.10	311.29
586.26	299.59
586.42	355.76
586.58	278.52
586.74	341.72
586.90	290.23
587.06	348.74
587.22	348.74
587.38	320.65
587.54	311.29
587.70	344.06
587.86	414.27
588.02	444.70
588.18	393.21
588.34	320.65
588.49	215.33
588.65	236.39
588.81	346.40
588.97	205.97
589.13	257.46
589.29	215.33
589.45	318.31
589.61	227.03
589.77	224.69
589.93	191.92
590.08	170.86
590.24	194.26
590.40	278.52
590.56	292.57
590.72	245.76
590.88	220.01
591.04	337.04
591.20	243.42
591.35	255.12
591.51	283.20
591.67	248.10
591.83	229.37
591.99	292.57
592.15	278.52
592.31	351.08
592.46	241.08
592.62	337.04
592.78	283.20
592.94	290.23
593.10	238.73
593.26	276.18
593.41	280.86
593.57	250.44
593.73	294.91
593.89	299.59
594.05	327.68
594.20	386.19
594.36	425.98
594.52	355.76
594.68	290.23
594.84	325.33
594.99	280.86
595.15	262.14
595.31	292.57
595.47	325.33
595.62	234.05
595.78	236.39
595.94	332.36
596.10	369.80
596.25	189.58
596.41	257.46
596.57	187.24
596.73	290.23
596.88	278.52
597.04	255.12
597.20	315.97
597.36	280.86
597.51	372.15
597.67	278.52
597.83	170.86
597.99	334.70
598.14	187.24
598.30	264.48
598.46	287.89
598.61	250.44
598.77	269.16
598.93	198.95
599.09	283.20
599.24	259.80
599.40	273.84
599.56	334.70
599.71	264.48
599.87	180.22
600.03	245.76
600.18	278.52
600.34	252.78
600.50	175.54
600.65	205.97
600.81	325.33
600.97	205.97
601.12	304.27
601.28	224.69
601.44	189.58
601.59	196.60
601.75	259.80
601.91	276.18
602.06	229.37
602.22	346.40
602.37	283.20
602.53	311.29
602.69	290.23
602.84	285.55
603.00	285.55
603.16	334.70
603.31	306.61
603.47	292.57
603.62	119.37
603.78	250.44
603.94	189.58
604.09	325.33
604.25	236.39
604.40	222.35
604.56	238.73
604.71	280.86
604.87	311.29
605.03	220.01
605.18	231.71
605.34	243.42
605.49	222.35
605.65	262.14
605.80	201.29
605.96	229.37
606.12	264.48
606.27	180.22
606.43	257.46
606.58	297.25
606.74	236.39
606.89	318.31
607.05	425.98
607.20	454.06
607.36	372.15
607.51	344.06
607.67	313.63
607.82	273.84
607.98	227.03
608.13	222.35
608.29	175.54
608.44	351.08
608.60	301.93
608.75	287.89
608.91	334.70
609.06	395.55
609.22	477.47
609.37	578.11
609.53	554.71
609.68	493.85
609.84	486.83
609.99	482.15
610.15	386.19
610.30	395.55
610.46	627.26
610.61	547.69
610.76	648.33
610.92	741.95
611.07	777.06
611.23	770.04
611.38	739.61
611.54	669.39
611.69	610.88
611.84	554.71
612.00	472.79
612.15	486.83
612.31	458.74
612.46	400.23
612.62	365.12
612.77	372.15
612.92	374.49
613.08	381.51
613.23	334.70
613.39	395.55
613.54	344.06
613.69	433.00
613.85	533.64
614.00	854.30
614.15	816.85
614.31	650.67
614.46	601.52
614.62	545.34
614.77	440.02
614.92	407.25
615.08	351.08
615.23	330.02
615.38	257.46
615.54	264.48
615.69	287.89
615.84	245.76
616.00	372.15
616.15	372.15
616.30	400.23
616.46	353.42
616.61	341.72
616.76	353.42
616.92	257.46
617.07	301.93
617.22	259.80
617.37	208.31
617.53	255.12
617.68	311.29
617.83	250.44
617.99	271.50
618.14	264.48
618.29	266.82
618.45	229.37
618.60	184.90
618.75	229.37
618.90	262.14
619.06	231.71
619.21	287.89
619.36	248.10
619.51	308.95
619.67	217.67
619.82	210.65
619.97	313.63
620.12	241.08
620.28	262.14
620.43	311.29
620.58	259.80
620.73	222.35
620.89	257.46
621.04	205.97
621.19	337.04
621.34	388.53
621.49	259.80
621.65	306.61
621.80	332.36
621.95	304.27
622.10	259.80
622.25	217.67
622.41	217.67
622.56	264.48
622.71	245.76
622.86	243.42
623.01	175.54
623.16	271.50
623.32	140.43
623.47	259.80
623.62	196.60
623.77	299.59
623.92	278.52
624.07	201.29
624.23	212.99
624.38	227.03
624.53	252.78
624.68	301.93
624.83	320.65
624.98	308.95
625.13	238.73
625.29	220.01
625.44	245.76
625.59	224.69
625.74	203.63
625.89	285.55
626.04	243.42
626.19	308.95
626.34	496.19
626.49	503.22
626.65	407.25
626.80	360.44
626.95	287.89
627.10	262.14
627.25	217.67
627.40	273.84
627.55	227.03
627.70	194.26
627.85	231.71
628.00	241.08
628.15	145.11
628.30	271.50
628.45	215.33
628.60	140.43
628.76	301.93
628.91	212.99
629.06	238.73
629.21	285.55
629.36	344.06
629.51	259.80
629.66	252.78
629.81	208.31
629.96	339.38
630.11	299.59
630.26	306.61
630.41	376.83
630.56	313.63
630.71	217.67
630.86	292.57
631.01	262.14
631.16	271.50
631.31	245.76
631.46	250.44
631.61	217.67
631.76	332.36
631.91	257.46
632.06	276.18
632.21	243.42
632.36	285.55
632.51	163.84
632.66	252.78
632.81	290.23
632.96	299.59
633.10	313.63
633.25	339.38
633.40	341.72
633.55	278.52
633.70	241.08
633.85	276.18
634.00	182.56
634.15	220.01
634.30	238.73
634.45	205.97
634.60	191.92
634.75	175.54
634.90	166.18
635.05	187.24
635.19	234.05
635.34	205.97
635.49	194.26
635.64	187.24
635.79	231.71
635.94	201.29
636.09	208.31
636.24	224.69
636.39	222.35
636.53	245.76
636.68	166.18
636.83	205.97
636.98	217.67
637.13	194.26
637.28	210.65
637.43	231.71
637.57	168.52
637.72	297.25
637.87	372.15
638.02	451.72
638.17	456.40
638.32	442.36
638.46	369.80
638.61	341.72
638.76	330.02
638.91	245.76
639.06	236.39
639.20	264.48
639.35	194.26
639.50	212.99
639.65	346.40
639.80	418.96
639.94	650.67
640.09	688.12
640.24	531.30
640.39	472.79
640.54	355.76
640.68	250.44
640.83	273.84
640.98	285.55
641.13	210.65
641.27	217.67
641.42	227.03
641.57	252.78
641.72	205.97
641.86	222.35
642.01	175.54
642.16	238.73
642.31	152.13
642.45	243.42
642.60	245.76
642.75	222.35
642.90	276.18
643.04	119.37
643.19	191.92
643.34	224.69
643.48	208.31
643.63	180.22
643.78	276.18
643.93	234.05
644.07	196.60
644.22	220.01
644.37	133.41
644.51	156.82
644.66	163.84
644.81	203.63
644.95	220.01
645.10	208.31
645.25	191.92
645.39	222.35
645.54	117.03
645.69	187.24
645.83	194.26
645.98	276.18
646.13	198.95
646.27	234.05
646.42	191.92
646.57	161.50
646.71	203.63
646.86	191.92
647.00	175.54
647.15	215.33
647.30	212.99
647.44	196.60
647.59	198.95
647.74	210.65
647.88	168.52
648.03	170.86
648.17	175.54
648.32	142.77
648.47	198.95
648.61	191.92
648.76	154.48
648.90	194.26
649.05	180.22
649.20	210.65
649.34	250.44
649.49	217.67
649.63	196.60
649.78	255.12
649.92	175.54
650.07	187.24
650.21	301.93
650.36	423.64
650.51	454.06
650.65	444.70
650.80	344.06
650.94	222.35
651.09	222.35
651.23	229.37
651.38	217.67
651.52	152.13
651.67	187.24
651.81	180.22
651.96	205.97
652.10	201.29
652.25	229.37
652.39	220.01
652.54	241.08
652.68	234.05
652.83	297.25
652.97	348.74
653.12	390.87
653.26	241.08
653.41	278.52
653.55	294.91
653.70	250.44
653.84	182.56
653.99	156.82
654.13	201.29
654.27	248.10
654.42	220.01
654.56	184.90
654.71	224.69
654.85	238.73
655.00	191.92
655.14	110.01
655.29	173.20
655.43	280.86
655.57	163.84
655.72	168.52
655.86	88.94
656.01	166.18
656.15	266.82
656.30	131.07
656.44	241.08
656.58	212.99
656.73	180.22
656.87	212.99
657.01	159.16
657.16	170.86
657.30	189.58
657.45	198.95
657.59	177.88
657.73	128.73
657.88	135.75
658.02	224.69
658.16	177.88
658.31	161.50
658.45	121.71
658.60	142.77
658.74	236.39
658.88	196.60
659.03	177.88
659.17	187.24
659.31	201.29
659.46	234.05
659.60	311.29
659.74	313.63
659.89	224.69
660.03	290.23
660.17	262.14
660.32	241.08
660.46	182.56
660.60	184.90
660.74	194.26
660.89	231.71
661.03	168.52
661.17	234.05
661.32	173.20
661.46	135.75
661.60	161.50
661.74	194.26
661.89	250.44
662.03	196.60
662.17	187.24
662.31	208.31
662.46	210.65
662.60	248.10
662.74	231.71
662.88	198.95
663.03	194.26
663.17	184.90
663.31	229.37
663.45	236.39
663.60	133.41
663.74	248.10
663.88	170.86
664.02	180.22
664.17	152.13
664.31	224.69
664.45	182.56
664.59	245.76
664.73	175.54
664.88	196.60
665.02	152.13
665.16	189.58
665.30	196.60
665.44	147.45
665.59	215.33
665.73	220.01
665.87	217.67
666.01	234.05
666.15	208.31
666.29	184.90
666.44	168.52
666.58	330.02
666.72	196.60
666.86	212.99
667.00	170.86
667.14	117.03
667.28	187.24
667.43	318.31
667.57	383.85
667.71	390.87
667.85	393.21
667.99	325.33
668.13	353.42
668.27	301.93
668.41	283.20
668.56	234.05
668.70	170.86
668.84	191.92
668.98	168.52
669.12	215.33
669.26	194.26
669.40	201.29
669.54	217.67
669.68	243.42
669.82	159.16
669.96	170.86
670.10	231.71
670.25	189.58
670.39	152.13
670.53	191.92
670.67	201.29
670.81	112.35
670.95	252.78
671.09	220.01
671.23	266.82
671.37	212.99
671.51	386.19
671.65	362.78
671.79	278.52
671.93	231.71
672.07	351.08
672.21	205.97
672.35	180.22
672.49	140.43
672.63	163.84
672.77	133.41
672.91	205.97
673.05	184.90
673.19	245.76
673.33	189.58
673.47	264.48
673.61	220.01
673.75	177.88
673.89	287.89
674.03	231.71
674.17	161.50
674.31	269.16
674.45	220.01
674.59	203.63
674.73	173.20
674.87	175.54
675.01	189.58
675.15	170.86
675.29	126.39
675.43	205.97
675.56	234.05
675.70	177.88
675.84	220.01
675.98	166.18
676.12	154.48
676.26	220.01
676.40	203.63
676.54	184.90
676.68	217.67
676.82	198.95
676.96	184.90
677.10	201.29
677.23	166.18
677.37	128.73
677.51	203.63
677.65	271.50
677.79	121.71
677.93	156.82
678.07	100.64
678.21	112.35
678.34	170.86
678.48	201.29
678.62	220.01
678.76	79.58
678.90	166.18
679.04	205.97
679.18	138.09
679.31	220.01
679.45	154.48
679.59	220.01
679.73	210.65
679.87	201.29
680.00	201.29
680.14	154.48
680.28	203.63
680.42	184.90
680.56	159.16
680.70	173.20
680.83	163.84
680.97	95.96
681.11	119.37
681.25	220.01
681.39	154.48
681.52	102.98
681.66	170.86
681.80	229.37
681.94	217.67
682.07	121.71
682.21	131.07
682.35	194.26
682.49	154.48
682.62	194.26
682.76	117.03
682.90	182.56
683.04	205.97
683.17	142.77
683.31	117.03
683.45	126.39
683.59	131.07
683.72	133.41
683.86	182.56
684.00	140.43
684.13	191.92
684.27	166.18
684.41	119.37
684.55	149.79
684.68	175.54
684.82	114.69
684.96	156.82
685.09	149.79
685.23	196.60
685.37	187.24
685.50	280.86
685.64	166.18
685.78	74.90
685.91	163.84
686.05	196.60
686.19	191.92
686.32	126.39
686.46	163.84
686.60	53.83
686.73	187.24
686.87	107.66
687.01	245.76
687.14	156.82
687.28	163.84
687.42	140.43
687.55	208.31
687.69	210.65
687.82	175.54
687.96	241.08
688.10	173.20
688.23	117.03
688.37	231.71
688.50	208.31
688.64	175.54
688.78	154.48
688.91	119.37
689.05	114.69
689.18	208.31
689.32	205.97
689.46	191.92
689.59	229.37
689.73	126.39
689.86	131.07
690.00	140.43
690.13	142.77
690.27	191.92
690.41	161.50
690.54	149.79
690.68	184.90
690.81	105.32
690.95	166.18
691.08	124.05
691.22	86.60
691.35	135.75
691.49	133.41
691.62	112.35
691.76	105.32
691.89	154.48
692.03	170.86
692.16	175.54
692.30	184.90
692.43	224.69
692.57	212.99
692.70	149.79
692.84	231.71
692.97	212.99
693.11	257.46
693.24	187.24
693.38	217.67
693.51	138.09
693.65	205.97
693.78	156.82
693.92	191.92
694.05	147.45
694.19	161.50
694.32	175.54
694.45	175.54
694.59	100.64
694.72	142.77
694.86	154.48
694.99	156.82
695.13	170.86
695.26	184.90
695.39	231.71
695.53	187.24
695.66	163.84
695.80	112.35
695.93	166.18
696.07	159.16
696.20	243.42
696.33	149.79
696.47	124.05
696.60	156.82
696.73	187.24
696.87	147.45
697.00	175.54
697.14	187.24
697.27	119.37
697.40	227.03
697.54	145.11
697.67	117.03
697.80	145.11
697.94	138.09
698.07	147.45
698.21	110.01
698.34	173.20
698.47	163.84
698.61	138.09
698.74	217.67
698.87	168.52
699.01	49.15
699.14	131.07
699.27	196.60
699.40	184.90
699.54	95.96
699.67	126.39
699.80	133.41
699.94	110.01
700.07	205.97
700.20	173.20
700.34	119.37
700.47	88.94
700.60	159.16
700.73	231.71
700.87	198.95
701.00	198.95
701.13	138.09
701.26	208.31
701.40	173.20
701.53	93.62
701.66	156.82
701.79	203.63
701.93	124.05
702.06	187.24
702.19	156.82
702.32	220.01
702.46	180.22
702.59	184.90
702.72	168.52
702.85	210.65
702.99	205.97
703.12	337.04
703.25	334.70
703.38	344.06
703.51	341.72
703.65	194.26
703.78	266.82
703.91	215.33
704.04	163.84
704.17	156.82
704.31	112.35
704.44	145.11
704.57	259.80
704.70	119.37
704.83	161.50
704.96	180.22
705.10	149.79
705.23	152.13
>>>>>End Processed Spectral Data<<<<<
