SpectraSuite Data File
++++++++++++++++++++++++++++++++++++
Date: Fri Oct 04 12:13:33 GMT-05:00 2013
User: price-jones
Dark Spectrum Present: No
Reference Spectrum Present: No
Number of Sampled Component Spectra: 1
Spectrometers: USB2+H05261
Integration Time (usec): 10000 (USB2+H05261)
Spectra Averaged: 1 (USB2+H05261)
Boxcar Smoothing: 0 (USB2+H05261)
Correct for Electrical Dark: No (USB2+H05261)
Strobe/Lamp Enabled: No (USB2+H05261)
Correct for Detector Non-linearity: No (USB2+H05261)
Correct for Stray Light: No (USB2+H05261)
Number of Pixels in Processed Spectrum: 2048
>>>>>Begin Processed Spectral Data<<<<<
365.73	56.17
365.92	56.17
366.12	56.17
366.32	0.00
366.52	0.00
366.72	0.00
366.91	0.00
367.11	0.00
367.31	0.00
367.51	0.00
367.70	0.00
367.90	0.00
368.10	0.00
368.30	0.00
368.49	0.00
368.69	0.00
368.89	0.00
369.09	0.00
369.28	0.00
369.48	0.00
369.68	0.00
369.87	0.00
370.07	0.00
370.27	0.00
370.47	0.00
370.66	35.11
370.86	32.77
371.06	18.72
371.25	63.19
371.45	46.81
371.65	32.77
371.84	91.28
372.04	44.47
372.24	91.28
372.44	18.72
372.63	63.19
372.83	114.69
373.03	77.24
373.22	112.35
373.42	60.85
373.62	74.90
373.81	39.79
374.01	138.09
374.21	84.26
374.40	63.19
374.60	51.49
374.79	70.22
374.99	72.56
375.19	28.09
375.38	46.81
375.58	88.94
375.78	110.01
375.97	105.32
376.17	98.30
376.37	88.94
376.56	93.62
376.76	91.28
376.95	53.83
377.15	53.83
377.35	112.35
377.54	177.88
377.74	49.15
377.93	208.31
378.13	65.54
378.33	81.92
378.52	60.85
378.72	39.79
378.91	79.58
379.11	159.16
379.31	110.01
379.50	126.39
379.70	135.75
379.89	91.28
380.09	84.26
380.28	72.56
380.48	140.43
380.68	119.37
380.87	86.60
381.07	81.92
381.26	131.07
381.46	119.37
381.65	67.88
381.85	58.51
382.04	86.60
382.24	88.94
382.43	25.75
382.63	65.54
382.83	95.96
383.02	0.00
383.22	58.51
383.41	93.62
383.61	60.85
383.80	79.58
384.00	46.81
384.19	133.41
384.39	67.88
384.58	51.49
384.78	70.22
384.97	131.07
385.17	42.13
385.36	149.79
385.56	49.15
385.75	56.17
385.95	182.56
386.14	124.05
386.34	63.19
386.53	11.70
386.72	86.60
386.92	114.69
387.11	156.82
387.31	102.98
387.50	135.75
387.70	133.41
387.89	72.56
388.09	119.37
388.28	77.24
388.48	79.58
388.67	140.43
388.86	135.75
389.06	102.98
389.25	159.16
389.45	138.09
389.64	72.56
389.84	168.52
390.03	124.05
390.22	121.71
390.42	63.19
390.61	154.48
390.81	187.24
391.00	177.88
391.19	81.92
391.39	110.01
391.58	159.16
391.78	168.52
391.97	147.45
392.16	67.88
392.36	65.54
392.55	65.54
392.75	49.15
392.94	110.01
393.13	117.03
393.33	114.69
393.52	70.22
393.71	91.28
393.91	126.39
394.10	140.43
394.29	126.39
394.49	175.54
394.68	159.16
394.88	163.84
395.07	128.73
395.26	170.86
395.46	173.20
395.65	159.16
395.84	133.41
396.04	177.88
396.23	42.13
396.42	72.56
396.62	114.69
396.81	98.30
397.00	128.73
397.19	166.18
397.39	170.86
397.58	194.26
397.77	126.39
397.97	184.90
398.16	208.31
398.35	189.58
398.55	231.71
398.74	194.26
398.93	191.92
399.12	170.86
399.32	245.76
399.51	117.03
399.70	138.09
399.90	224.69
400.09	229.37
400.28	191.92
400.47	159.16
400.67	187.24
400.86	152.13
401.05	217.67
401.24	327.68
401.44	250.44
401.63	234.05
401.82	159.16
402.01	245.76
402.21	217.67
402.40	234.05
402.59	231.71
402.78	287.89
402.97	198.95
403.17	290.23
403.36	294.91
403.55	175.54
403.74	285.55
403.93	231.71
404.13	154.48
404.32	220.01
404.51	196.60
404.70	227.03
404.89	252.78
405.09	180.22
405.28	248.10
405.47	227.03
405.66	112.35
405.85	180.22
406.05	154.48
406.24	208.31
406.43	196.60
406.62	264.48
406.81	189.58
407.00	262.14
407.20	208.31
407.39	285.55
407.58	243.42
407.77	222.35
407.96	252.78
408.15	264.48
408.34	224.69
408.54	294.91
408.73	271.50
408.92	217.67
409.11	210.65
409.30	280.86
409.49	210.65
409.68	205.97
409.87	166.18
410.07	290.23
410.26	276.18
410.45	234.05
410.64	290.23
410.83	196.60
411.02	266.82
411.21	276.18
411.40	304.27
411.59	266.82
411.78	238.73
411.98	330.02
412.17	255.12
412.36	248.10
412.55	208.31
412.74	245.76
412.93	294.91
413.12	271.50
413.31	245.76
413.50	248.10
413.69	327.68
413.88	304.27
414.07	238.73
414.26	320.65
414.45	243.42
414.64	292.57
414.83	313.63
415.02	248.10
415.22	238.73
415.41	346.40
415.60	292.57
415.79	280.86
415.98	297.25
416.17	308.95
416.36	311.29
416.55	362.78
416.74	337.04
416.93	301.93
417.12	283.20
417.31	264.48
417.50	278.52
417.69	271.50
417.88	271.50
418.07	259.80
418.26	285.55
418.45	297.25
418.64	304.27
418.83	301.93
419.02	327.68
419.21	236.39
419.39	330.02
419.58	278.52
419.77	255.12
419.96	311.29
420.15	325.33
420.34	283.20
420.53	337.04
420.72	400.23
420.91	276.18
421.10	290.23
421.29	390.87
421.48	292.57
421.67	325.33
421.86	245.76
422.05	339.38
422.24	344.06
422.43	227.03
422.61	330.02
422.80	339.38
422.99	248.10
423.18	304.27
423.37	308.95
423.56	255.12
423.75	332.36
423.94	353.42
424.13	227.03
424.32	318.31
424.50	257.46
424.69	238.73
424.88	294.91
425.07	337.04
425.26	379.17
425.45	245.76
425.64	311.29
425.83	283.20
426.01	337.04
426.20	334.70
426.39	334.70
426.58	271.50
426.77	299.59
426.96	358.10
427.15	301.93
427.33	273.84
427.52	285.55
427.71	294.91
427.90	299.59
428.09	327.68
428.28	269.16
428.46	280.86
428.65	292.57
428.84	287.89
429.03	248.10
429.22	205.97
429.40	269.16
429.59	283.20
429.78	175.54
429.97	166.18
430.16	222.35
430.34	262.14
430.53	234.05
430.72	259.80
430.91	299.59
431.10	318.31
431.28	299.59
431.47	341.72
431.66	344.06
431.85	292.57
432.03	313.63
432.22	252.78
432.41	252.78
432.60	301.93
432.79	344.06
432.97	353.42
433.16	369.80
433.35	362.78
433.54	212.99
433.72	262.14
433.91	250.44
434.10	255.12
434.28	273.84
434.47	306.61
434.66	362.78
434.85	297.25
435.03	362.78
435.22	374.49
435.41	327.68
435.59	311.29
435.78	351.08
435.97	404.91
436.16	393.21
436.34	423.64
436.53	407.25
436.72	383.85
436.90	367.46
437.09	320.65
437.28	308.95
437.46	337.04
437.65	355.76
437.84	383.85
438.02	278.52
438.21	252.78
438.40	313.63
438.58	367.46
438.77	315.97
438.96	353.42
439.14	330.02
439.33	355.76
439.52	393.21
439.70	339.38
439.89	330.02
440.08	259.80
440.26	311.29
440.45	339.38
440.63	383.85
440.82	461.09
441.01	374.49
441.19	341.72
441.38	355.76
441.57	369.80
441.75	416.62
441.94	400.23
442.12	372.15
442.31	397.89
442.50	388.53
442.68	311.29
442.87	400.23
443.05	416.62
443.24	451.72
443.43	404.91
443.61	451.72
443.80	468.11
443.98	332.36
444.17	397.89
444.35	332.36
444.54	454.06
444.73	393.21
444.91	322.99
445.10	468.11
445.28	423.64
445.47	397.89
445.65	285.55
445.84	393.21
446.02	449.38
446.21	395.55
446.39	498.53
446.58	372.15
446.77	416.62
446.95	428.32
447.14	444.70
447.32	435.34
447.51	489.17
447.69	360.44
447.88	468.11
448.06	454.06
448.25	486.83
448.43	360.44
448.62	337.04
448.80	400.23
448.99	407.25
449.17	461.09
449.36	454.06
449.54	390.87
449.73	416.62
449.91	449.38
450.10	400.23
450.28	433.00
450.46	468.11
450.65	512.58
450.83	461.09
451.02	479.81
451.20	423.64
451.39	482.15
451.57	390.87
451.76	428.32
451.94	390.87
452.13	397.89
452.31	463.43
452.49	330.02
452.68	397.89
452.86	362.78
453.05	365.12
453.23	404.91
453.42	409.59
453.60	435.34
453.78	383.85
453.97	400.23
454.15	456.40
454.34	393.21
454.52	468.11
454.70	421.30
454.89	435.34
455.07	447.04
455.26	447.04
455.44	428.32
455.62	465.77
455.81	400.23
455.99	418.96
456.17	418.96
456.36	498.53
456.54	341.72
456.73	470.45
456.91	493.85
457.09	444.70
457.28	519.60
457.46	428.32
457.64	510.24
457.83	442.36
458.01	376.83
458.19	400.23
458.38	493.85
458.56	472.79
458.74	468.11
458.93	524.28
459.11	435.34
459.29	458.74
459.48	418.96
459.66	479.81
459.84	411.93
460.03	418.96
460.21	442.36
460.39	461.09
460.57	470.45
460.76	423.64
460.94	482.15
461.12	510.24
461.31	482.15
461.49	486.83
461.67	461.09
461.85	447.04
462.04	468.11
462.22	550.03
462.40	493.85
462.59	512.58
462.77	454.06
462.95	397.89
463.13	489.17
463.32	482.15
463.50	433.00
463.68	484.49
463.86	428.32
464.05	458.74
464.23	449.38
464.41	395.55
464.59	430.66
464.78	425.98
464.96	372.15
465.14	505.56
465.32	540.66
465.50	433.00
465.69	491.51
465.87	435.34
466.05	435.34
466.23	470.45
466.41	428.32
466.60	435.34
466.78	486.83
466.96	458.74
467.14	440.02
467.32	386.19
467.51	440.02
467.69	458.74
467.87	465.77
468.05	344.06
468.23	458.74
468.41	414.27
468.60	430.66
468.78	440.02
468.96	454.06
469.14	414.27
469.32	475.13
469.50	416.62
469.69	550.03
469.87	458.74
470.05	444.70
470.23	482.15
470.41	388.53
470.59	484.49
470.77	442.36
470.95	528.96
471.14	430.66
471.32	505.56
471.50	561.73
471.68	444.70
471.86	418.96
472.04	461.09
472.22	498.53
472.40	442.36
472.58	437.68
472.77	475.13
472.95	463.43
473.13	491.51
473.31	409.59
473.49	444.70
473.67	484.49
473.85	458.74
474.03	503.22
474.21	526.62
474.39	554.71
474.57	519.60
474.75	505.56
474.93	470.45
475.12	547.69
475.30	489.17
475.48	491.51
475.66	531.30
475.84	540.66
476.02	498.53
476.20	463.43
476.38	512.58
476.56	414.27
476.74	510.24
476.92	505.56
477.10	477.47
477.28	578.11
477.46	587.47
477.64	578.11
477.82	514.92
478.00	538.32
478.18	554.71
478.36	477.47
478.54	503.22
478.72	510.24
478.90	585.13
479.08	540.66
479.26	655.35
479.44	543.00
479.62	528.96
479.80	561.73
479.98	566.41
480.16	557.05
480.34	617.90
480.52	510.24
480.70	571.09
480.88	568.75
481.06	585.13
481.24	610.88
481.41	587.47
481.59	594.50
481.77	674.07
481.95	538.32
482.13	594.50
482.31	645.99
482.49	657.69
482.67	599.18
482.85	643.65
483.03	613.22
483.21	617.90
483.39	653.01
483.57	580.45
483.74	575.77
483.92	681.10
484.10	702.16
484.28	594.50
484.46	596.84
484.64	685.78
484.82	594.50
485.00	631.94
485.18	631.94
485.35	580.45
485.53	489.17
485.71	566.41
485.89	465.77
486.07	514.92
486.25	657.69
486.43	631.94
486.61	667.05
486.78	695.14
486.96	599.18
487.14	716.20
487.32	629.60
487.50	727.91
487.68	657.69
487.85	674.07
488.03	690.46
488.21	760.67
488.39	751.31
488.57	711.52
488.75	636.63
488.92	695.14
489.10	676.41
489.28	805.14
489.46	805.14
489.64	709.18
489.81	685.78
489.99	671.73
490.17	760.67
490.35	737.27
490.53	807.48
490.70	732.59
490.88	795.78
491.06	674.07
491.24	688.12
491.41	774.72
491.59	727.91
491.77	671.73
491.95	702.16
492.13	730.25
492.30	793.44
492.48	777.06
492.66	755.99
492.84	830.89
493.01	765.36
493.19	770.04
493.37	702.16
493.54	725.57
493.72	784.08
493.90	800.46
494.08	739.61
494.25	835.57
494.43	844.93
494.61	882.38
494.79	779.40
494.96	844.93
495.14	837.91
495.32	898.77
495.49	753.65
495.67	753.65
495.85	894.08
496.02	889.40
496.20	856.64
496.38	863.66
496.55	856.64
496.73	875.36
496.91	774.72
497.09	887.06
497.26	833.23
497.44	819.19
497.62	791.10
497.79	880.04
497.97	758.33
498.14	877.70
498.32	898.77
498.50	898.77
498.67	840.25
498.85	760.67
499.03	786.42
499.20	863.66
499.38	884.72
499.56	868.34
499.73	858.98
499.91	863.66
500.08	870.68
500.26	826.21
500.44	800.46
500.61	837.91
500.79	901.11
500.97	800.46
501.14	746.63
501.32	781.74
501.49	800.46
501.67	739.61
501.84	840.25
502.02	805.14
502.20	807.48
502.37	875.36
502.55	821.53
502.72	807.48
502.90	880.04
503.07	959.62
503.25	809.83
503.43	814.51
503.60	788.76
503.78	823.87
503.95	861.32
504.13	805.14
504.30	887.06
504.48	854.30
504.65	959.62
504.83	805.14
505.01	891.74
505.18	849.61
505.36	936.21
505.53	908.13
505.71	858.98
505.88	875.36
506.06	826.21
506.23	889.40
506.41	821.53
506.58	896.43
506.76	882.38
506.93	917.49
507.11	835.57
507.28	894.08
507.46	800.46
507.63	784.08
507.81	793.44
507.98	823.87
508.16	847.27
508.33	844.93
508.50	898.77
508.68	994.73
508.85	924.51
509.03	931.53
509.20	966.64
509.38	873.02
509.55	868.34
509.73	800.46
509.90	842.59
510.08	898.77
510.25	887.06
510.42	898.77
510.60	922.17
510.77	929.19
510.95	931.53
511.12	966.64
511.30	1001.75
511.47	957.28
511.64	997.07
511.82	905.79
511.99	922.17
512.17	917.49
512.34	964.30
512.51	851.96
512.69	882.38
512.86	966.64
513.04	798.12
513.21	880.04
513.38	882.38
513.56	933.87
513.73	898.77
513.90	880.04
514.08	856.64
514.25	842.59
514.43	819.19
514.60	884.72
514.77	889.40
514.95	933.87
515.12	983.02
515.29	884.72
515.47	873.02
515.64	898.77
515.81	905.79
515.99	896.43
516.16	1011.11
516.33	779.40
516.51	730.25
516.68	751.31
516.85	741.95
517.03	744.29
517.20	840.25
517.37	795.78
517.54	891.74
517.72	866.00
517.89	847.27
518.06	784.08
518.24	638.97
518.41	844.93
518.58	922.17
518.75	877.70
518.93	926.85
519.10	774.72
519.27	847.27
519.45	924.51
519.62	929.19
519.79	919.83
519.96	786.42
520.14	917.49
520.31	816.85
520.48	835.57
520.65	868.34
520.83	901.11
521.00	877.70
521.17	919.83
521.34	945.58
521.52	905.79
521.69	887.06
521.86	887.06
522.03	964.30
522.20	875.36
522.38	887.06
522.55	947.92
522.72	854.30
522.89	793.44
523.07	903.45
523.24	966.64
523.41	1050.90
523.58	912.81
523.75	938.55
523.92	938.55
524.10	938.55
524.27	1020.47
524.44	924.51
524.61	933.87
524.78	936.21
524.96	976.00
525.13	1020.47
525.30	926.85
525.47	964.30
525.64	938.55
525.81	959.62
525.98	945.58
526.16	875.36
526.33	788.76
526.50	772.38
526.67	748.97
526.84	868.34
527.01	882.38
527.18	866.00
527.36	856.64
527.53	891.74
527.70	968.98
527.87	856.64
528.04	877.70
528.21	1013.45
528.38	873.02
528.55	873.02
528.72	1008.77
528.89	1020.47
529.07	936.21
529.24	919.83
529.41	926.85
529.58	940.90
529.75	891.74
529.92	880.04
530.09	873.02
530.26	933.87
530.43	950.26
530.60	917.49
530.77	985.37
530.94	1027.50
531.11	903.45
531.28	917.49
531.46	990.05
531.63	1006.43
531.80	844.93
531.97	887.06
532.14	833.23
532.31	922.17
532.48	898.77
532.65	898.77
532.82	793.44
532.99	938.55
533.16	966.64
533.33	915.15
533.50	943.24
533.67	968.98
533.84	821.53
534.01	945.58
534.18	823.87
534.35	844.93
534.52	910.47
534.69	933.87
534.86	964.30
535.03	959.62
535.20	997.07
535.37	976.00
535.54	936.21
535.71	943.24
535.88	1006.43
536.05	954.94
536.22	875.36
536.38	924.51
536.55	894.08
536.72	828.55
536.89	866.00
537.06	938.55
537.23	952.60
537.40	856.64
537.57	910.47
537.74	884.72
537.91	926.85
538.08	873.02
538.25	950.26
538.42	938.55
538.59	837.91
538.75	922.17
538.92	922.17
539.09	908.13
539.26	844.93
539.43	903.45
539.60	880.04
539.77	884.72
539.94	828.55
540.11	833.23
540.28	882.38
540.44	863.66
540.61	880.04
540.78	856.64
540.95	816.85
541.12	926.85
541.29	835.57
541.46	912.81
541.62	905.79
541.79	856.64
541.96	805.14
542.13	758.33
542.30	851.96
542.47	915.15
542.63	903.45
542.80	849.61
542.97	917.49
543.14	957.28
543.31	821.53
543.48	868.34
543.64	887.06
543.81	896.43
543.98	926.85
544.15	943.24
544.32	873.02
544.48	898.77
544.65	889.40
544.82	917.49
544.99	915.15
545.16	961.96
545.32	816.85
545.49	912.81
545.66	887.06
545.83	887.06
546.00	835.57
546.16	807.48
546.33	819.19
546.50	828.55
546.67	901.11
546.83	945.58
547.00	856.64
547.17	847.27
547.34	807.48
547.50	905.79
547.67	905.79
547.84	837.91
548.00	858.98
548.17	915.15
548.34	877.70
548.51	866.00
548.67	868.34
548.84	887.06
549.01	922.17
549.18	891.74
549.34	952.60
549.51	851.96
549.68	849.61
549.84	945.58
550.01	910.47
550.18	812.17
550.34	828.55
550.51	809.83
550.68	905.79
550.84	851.96
551.01	847.27
551.18	861.32
551.34	870.68
551.51	856.64
551.68	896.43
551.84	940.90
552.01	961.96
552.18	847.27
552.34	887.06
552.51	889.40
552.68	903.45
552.84	814.51
553.01	903.45
553.18	873.02
553.34	823.87
553.51	931.53
553.67	903.45
553.84	922.17
554.01	842.59
554.17	772.38
554.34	842.59
554.51	833.23
554.67	868.34
554.84	926.85
555.00	842.59
555.17	891.74
555.33	926.85
555.50	856.64
555.67	875.36
555.83	889.40
556.00	863.66
556.16	877.70
556.33	870.68
556.50	730.25
556.66	772.38
556.83	844.93
556.99	800.46
557.16	856.64
557.32	781.74
557.49	807.48
557.65	861.32
557.82	823.87
557.98	837.91
558.15	830.89
558.32	763.01
558.48	685.78
558.65	840.25
558.81	945.58
558.98	837.91
559.14	800.46
559.31	753.65
559.47	798.12
559.64	833.23
559.80	779.40
559.97	772.38
560.13	856.64
560.30	894.08
560.46	926.85
560.63	819.19
560.79	861.32
560.96	828.55
561.12	854.30
561.29	826.21
561.45	758.33
561.61	840.25
561.78	823.87
561.94	908.13
562.11	833.23
562.27	866.00
562.44	793.44
562.60	802.80
562.77	751.31
562.93	830.89
563.10	887.06
563.26	856.64
563.42	875.36
563.59	795.78
563.75	847.27
563.92	774.72
564.08	858.98
564.24	837.91
564.41	774.72
564.57	901.11
564.74	774.72
564.90	851.96
565.07	854.30
565.23	833.23
565.39	739.61
565.56	791.10
565.72	786.42
565.88	765.36
566.05	741.95
566.21	870.68
566.38	828.55
566.54	744.29
566.70	812.17
566.87	805.14
567.03	725.57
567.19	894.08
567.36	833.23
567.52	891.74
567.68	791.10
567.85	777.06
568.01	692.80
568.17	805.14
568.34	788.76
568.50	826.21
568.66	753.65
568.83	695.14
568.99	711.52
569.15	697.48
569.32	793.44
569.48	718.54
569.64	716.20
569.81	748.97
569.97	744.29
570.13	786.42
570.30	809.83
570.46	763.01
570.62	765.36
570.78	807.48
570.95	718.54
571.11	784.08
571.27	720.88
571.43	760.67
571.60	720.88
571.76	739.61
571.92	737.27
572.09	812.17
572.25	788.76
572.41	767.70
572.57	784.08
572.74	880.04
572.90	781.74
573.06	767.70
573.22	779.40
573.38	795.78
573.55	690.46
573.71	720.88
573.87	774.72
574.03	760.67
574.20	777.06
574.36	699.82
574.52	730.25
574.68	770.04
574.84	767.70
575.01	732.59
575.17	685.78
575.33	662.37
575.49	716.20
575.65	678.76
575.82	727.91
575.98	711.52
576.14	711.52
576.30	770.04
576.46	734.93
576.62	779.40
576.79	746.63
576.95	688.12
577.11	692.80
577.27	770.04
577.43	690.46
577.59	765.36
577.75	718.54
577.92	695.14
578.08	720.88
578.24	779.40
578.40	688.12
578.56	741.95
578.72	786.42
578.88	720.88
579.04	662.37
579.21	791.10
579.37	662.37
579.53	720.88
579.69	704.50
579.85	765.36
580.01	725.57
580.17	704.50
580.33	734.93
580.49	716.20
580.65	709.18
580.82	793.44
580.98	744.29
581.14	727.91
581.30	678.76
581.46	660.03
581.62	809.83
581.78	669.39
581.94	638.97
582.10	748.97
582.26	669.39
582.42	730.25
582.58	777.06
582.74	709.18
582.90	746.63
583.06	760.67
583.22	727.91
583.38	713.86
583.54	741.95
583.70	812.17
583.86	655.35
584.02	755.99
584.18	730.25
584.34	770.04
584.50	655.35
584.66	688.12
584.82	711.52
584.98	669.39
585.14	681.10
585.30	681.10
585.46	716.20
585.62	624.92
585.78	692.80
585.94	664.71
586.10	765.36
586.26	566.41
586.42	725.57
586.58	699.82
586.74	739.61
586.90	627.26
587.06	669.39
587.22	629.60
587.38	615.56
587.54	655.35
587.70	669.39
587.86	566.41
588.02	702.16
588.18	620.24
588.34	559.39
588.49	524.28
588.65	524.28
588.81	540.66
588.97	587.47
589.13	498.53
589.29	496.19
589.45	575.77
589.61	482.15
589.77	500.87
589.93	545.34
590.08	575.77
590.24	620.24
590.40	617.90
590.56	587.47
590.72	601.52
590.88	550.03
591.04	606.20
591.20	540.66
591.35	557.05
591.51	594.50
591.67	582.79
591.83	603.86
591.99	547.69
592.15	634.29
592.31	557.05
592.46	631.94
592.62	575.77
592.78	660.03
592.94	622.58
593.10	592.16
593.26	566.41
593.41	613.22
593.57	655.35
593.73	629.60
593.89	601.52
594.05	575.77
594.20	531.30
594.36	554.71
594.52	540.66
594.68	526.62
594.84	613.22
594.99	564.07
595.15	561.73
595.31	566.41
595.47	603.86
595.62	601.52
595.78	620.24
595.94	634.29
596.10	568.75
596.25	566.41
596.41	585.13
596.57	531.30
596.73	594.50
596.88	540.66
597.04	575.77
597.20	596.84
597.36	624.92
597.51	592.16
597.67	550.03
597.83	568.75
597.99	545.34
598.14	617.90
598.30	664.71
598.46	624.92
598.61	636.63
598.77	660.03
598.93	718.54
599.09	608.54
599.24	676.41
599.40	601.52
599.56	594.50
599.71	575.77
599.87	615.56
600.03	608.54
600.18	629.60
600.34	596.84
600.50	617.90
600.65	629.60
600.81	624.92
600.97	622.58
601.12	629.60
601.28	550.03
601.44	573.43
601.59	531.30
601.75	545.34
601.91	627.26
602.06	599.18
602.22	641.31
602.37	624.92
602.53	599.18
602.69	585.13
602.84	641.31
603.00	650.67
603.16	587.47
603.31	674.07
603.47	681.10
603.62	601.52
603.78	617.90
603.94	552.37
604.09	638.97
604.25	631.94
604.40	650.67
604.56	603.86
604.71	629.60
604.87	622.58
605.03	667.05
605.18	578.11
605.34	603.86
605.49	636.63
605.65	615.56
605.80	543.00
605.96	657.69
606.12	622.58
606.27	622.58
606.43	552.37
606.58	559.39
606.74	688.12
606.89	606.20
607.05	543.00
607.20	638.97
607.36	638.97
607.51	610.88
607.67	603.86
607.82	547.69
607.98	615.56
608.13	566.41
608.29	552.37
608.44	601.52
608.60	524.28
608.75	613.22
608.91	667.05
609.06	538.32
609.22	631.94
609.37	538.32
609.53	585.13
609.68	557.05
609.84	674.07
609.99	557.05
610.15	592.16
610.30	596.84
610.46	594.50
610.61	650.67
610.76	587.47
610.92	561.73
611.07	503.22
611.23	610.88
611.38	575.77
611.54	533.64
611.69	592.16
611.84	580.45
612.00	552.37
612.15	451.72
612.31	585.13
612.46	629.60
612.62	578.11
612.77	519.60
612.92	519.60
613.08	550.03
613.23	538.32
613.39	526.62
613.54	521.94
613.69	517.26
613.85	531.30
614.00	526.62
614.15	587.47
614.31	573.43
614.46	587.47
614.62	599.18
614.77	528.96
614.92	592.16
615.08	620.24
615.23	578.11
615.38	531.30
615.54	514.92
615.69	538.32
615.84	503.22
616.00	454.06
616.15	505.56
616.30	507.90
616.46	545.34
616.61	564.07
616.76	517.26
616.92	482.15
617.07	519.60
617.22	503.22
617.37	475.13
617.53	512.58
617.68	547.69
617.83	559.39
617.99	543.00
618.14	533.64
618.29	582.79
618.45	554.71
618.60	540.66
618.75	596.84
618.90	472.79
619.06	482.15
619.21	533.64
619.36	517.26
619.51	585.13
619.67	517.26
619.82	484.49
619.97	503.22
620.12	535.98
620.28	538.32
620.43	505.56
620.58	524.28
620.73	486.83
620.89	573.43
621.04	538.32
621.19	463.43
621.34	461.09
621.49	526.62
621.65	545.34
621.80	477.47
621.95	533.64
622.10	500.87
622.25	454.06
622.41	521.94
622.56	437.68
622.71	524.28
622.86	491.51
623.01	442.36
623.16	430.66
623.32	456.40
623.47	496.19
623.62	528.96
623.77	535.98
623.92	517.26
624.07	496.19
624.23	489.17
624.38	456.40
624.53	409.59
624.68	491.51
624.83	507.90
624.98	528.96
625.13	524.28
625.29	477.47
625.44	496.19
625.59	496.19
625.74	503.22
625.89	428.32
626.04	477.47
626.19	421.30
626.34	447.04
626.49	414.27
626.65	435.34
626.80	507.90
626.95	547.69
627.10	428.32
627.25	486.83
627.40	414.27
627.55	402.57
627.70	444.70
627.85	449.38
628.00	411.93
628.15	442.36
628.30	484.49
628.45	400.23
628.60	475.13
628.76	404.91
628.91	458.74
629.06	411.93
629.21	456.40
629.36	386.19
629.51	458.74
629.66	486.83
629.81	456.40
629.96	433.00
630.11	395.55
630.26	479.81
630.41	468.11
630.56	526.62
630.71	451.72
630.86	433.00
631.01	395.55
631.16	425.98
631.31	486.83
631.46	409.59
631.61	425.98
631.76	433.00
631.91	421.30
632.06	428.32
632.21	505.56
632.36	395.55
632.51	407.25
632.66	372.15
632.81	444.70
632.96	505.56
633.10	486.83
633.25	465.77
633.40	479.81
633.55	470.45
633.70	430.66
633.85	514.92
634.00	458.74
634.15	416.62
634.30	409.59
634.45	425.98
634.60	395.55
634.75	468.11
634.90	510.24
635.05	442.36
635.19	454.06
635.34	402.57
635.49	425.98
635.64	458.74
635.79	437.68
635.94	404.91
636.09	440.02
636.24	535.98
636.39	390.87
636.53	463.43
636.68	414.27
636.83	470.45
636.98	428.32
637.13	465.77
637.28	383.85
637.43	491.51
637.57	386.19
637.72	489.17
637.87	440.02
638.02	425.98
638.17	433.00
638.32	451.72
638.46	440.02
638.61	351.08
638.76	414.27
638.91	390.87
639.06	402.57
639.20	393.21
639.35	334.70
639.50	425.98
639.65	381.51
639.80	383.85
639.94	397.89
640.09	433.00
640.24	433.00
640.39	362.78
640.54	414.27
640.68	372.15
640.83	451.72
640.98	397.89
641.13	393.21
641.27	454.06
641.42	465.77
641.57	430.66
641.72	503.22
641.86	442.36
642.01	374.49
642.16	470.45
642.31	409.59
642.45	362.78
642.60	447.04
642.75	341.72
642.90	327.68
643.04	425.98
643.19	447.04
643.34	416.62
643.48	416.62
643.63	402.57
643.78	383.85
643.93	461.09
644.07	388.53
644.22	447.04
644.37	421.30
644.51	407.25
644.66	418.96
644.81	390.87
644.95	372.15
645.10	393.21
645.25	444.70
645.39	358.10
645.54	407.25
645.69	402.57
645.83	315.97
645.98	395.55
646.13	358.10
646.27	404.91
646.42	360.44
646.57	306.61
646.71	362.78
646.86	381.51
647.00	360.44
647.15	381.51
647.30	341.72
647.44	409.59
647.59	297.25
647.74	390.87
647.88	327.68
648.03	322.99
648.17	320.65
648.32	418.96
648.47	346.40
648.61	390.87
648.76	416.62
648.90	278.52
649.05	369.80
649.20	227.03
649.34	395.55
649.49	313.63
649.63	390.87
649.78	304.27
649.92	255.12
650.07	325.33
650.21	339.38
650.36	407.25
650.51	351.08
650.65	390.87
650.80	322.99
650.94	395.55
651.09	313.63
651.23	264.48
651.38	245.76
651.52	313.63
651.67	339.38
651.81	388.53
651.96	362.78
652.10	372.15
652.25	273.84
652.39	311.29
652.54	318.31
652.68	346.40
652.83	386.19
652.97	299.59
653.12	271.50
653.26	374.49
653.41	365.12
653.55	395.55
653.70	346.40
653.84	402.57
653.99	313.63
654.13	294.91
654.27	325.33
654.42	311.29
654.56	315.97
654.71	308.95
654.85	304.27
655.00	393.21
655.14	332.36
655.29	313.63
655.43	395.55
655.57	327.68
655.72	262.14
655.86	252.78
656.01	217.67
656.15	227.03
656.30	234.05
656.44	285.55
656.58	325.33
656.73	278.52
656.87	308.95
657.01	348.74
657.16	411.93
657.30	315.97
657.45	311.29
657.59	348.74
657.73	306.61
657.88	294.91
658.02	353.42
658.16	348.74
658.31	278.52
658.45	351.08
658.60	266.82
658.74	344.06
658.88	283.20
659.03	430.66
659.17	320.65
659.31	404.91
659.46	383.85
659.60	280.86
659.74	376.83
659.89	337.04
660.03	388.53
660.17	365.12
660.32	365.12
660.46	470.45
660.60	386.19
660.74	397.89
660.89	346.40
661.03	344.06
661.17	301.93
661.32	351.08
661.46	304.27
661.60	367.46
661.74	442.36
661.89	351.08
662.03	397.89
662.17	358.10
662.31	285.55
662.46	367.46
662.60	238.73
662.74	355.76
662.88	264.48
663.03	227.03
663.17	269.16
663.31	278.52
663.45	381.51
663.60	365.12
663.74	353.42
663.88	355.76
664.02	341.72
664.17	266.82
664.31	341.72
664.45	395.55
664.59	421.30
664.73	374.49
664.88	341.72
665.02	255.12
665.16	365.12
665.30	280.86
665.44	318.31
665.59	297.25
665.73	334.70
665.87	301.93
666.01	294.91
666.15	369.80
666.29	306.61
666.44	337.04
666.58	376.83
666.72	379.17
666.86	348.74
667.00	381.51
667.14	297.25
667.28	287.89
667.43	320.65
667.57	334.70
667.71	280.86
667.85	301.93
667.99	365.12
668.13	311.29
668.27	369.80
668.41	409.59
668.56	358.10
668.70	322.99
668.84	294.91
668.98	278.52
669.12	339.38
669.26	346.40
669.40	257.46
669.54	308.95
669.68	273.84
669.82	353.42
669.96	292.57
670.10	334.70
670.25	362.78
670.39	283.20
670.53	304.27
670.67	271.50
670.81	222.35
670.95	325.33
671.09	283.20
671.23	330.02
671.37	283.20
671.51	250.44
671.65	311.29
671.79	278.52
671.93	236.39
672.07	236.39
672.21	287.89
672.35	308.95
672.49	318.31
672.63	351.08
672.77	339.38
672.91	294.91
673.05	276.18
673.19	334.70
673.33	220.01
673.47	301.93
673.61	358.10
673.75	210.65
673.89	243.42
674.03	259.80
674.17	327.68
674.31	252.78
674.45	262.14
674.59	248.10
674.73	283.20
674.87	311.29
675.01	250.44
675.15	353.42
675.29	292.57
675.43	311.29
675.56	271.50
675.70	187.24
675.84	224.69
675.98	318.31
676.12	259.80
676.26	325.33
676.40	341.72
676.54	283.20
676.68	255.12
676.82	205.97
676.96	362.78
677.10	315.97
677.23	294.91
677.37	241.08
677.51	262.14
677.65	313.63
677.79	236.39
677.93	294.91
678.07	304.27
678.21	332.36
678.34	212.99
678.48	231.71
678.62	292.57
678.76	245.76
678.90	283.20
679.04	187.24
679.18	262.14
679.31	241.08
679.45	243.42
679.59	201.29
679.73	276.18
679.87	269.16
680.00	269.16
680.14	271.50
680.28	259.80
680.42	231.71
680.56	285.55
680.70	250.44
680.83	285.55
680.97	262.14
681.11	283.20
681.25	224.69
681.39	255.12
681.52	210.65
681.66	264.48
681.80	182.56
681.94	255.12
682.07	241.08
682.21	191.92
682.35	222.35
682.49	224.69
682.62	222.35
682.76	194.26
682.90	276.18
683.04	280.86
683.17	205.97
683.31	304.27
683.45	259.80
683.59	168.52
683.72	231.71
683.86	248.10
684.00	208.31
684.13	264.48
684.27	220.01
684.41	203.63
684.55	234.05
684.68	262.14
684.82	231.71
684.96	173.20
685.09	264.48
685.23	222.35
685.37	215.33
685.50	229.37
685.64	154.48
685.78	271.50
685.91	205.97
686.05	205.97
686.19	184.90
686.32	145.11
686.46	257.46
686.60	203.63
686.73	189.58
686.87	126.39
687.01	105.32
687.14	156.82
687.28	138.09
687.42	124.05
687.55	114.69
687.69	117.03
687.82	128.73
687.96	175.54
688.10	248.10
688.23	187.24
688.37	114.69
688.50	131.07
688.64	121.71
688.78	196.60
688.91	166.18
689.05	161.50
689.18	173.20
689.32	119.37
689.46	102.98
689.59	243.42
689.73	79.58
689.86	166.18
690.00	154.48
690.13	156.82
690.27	182.56
690.41	180.22
690.54	215.33
690.68	184.90
690.81	180.22
690.95	131.07
691.08	156.82
691.22	135.75
691.35	159.16
691.49	140.43
691.62	126.39
691.76	177.88
691.89	163.84
692.03	152.13
692.16	201.29
692.30	205.97
692.43	149.79
692.57	201.29
692.70	126.39
692.84	184.90
692.97	77.24
693.11	156.82
693.24	142.77
693.38	98.30
693.51	149.79
693.65	124.05
693.78	210.65
693.92	161.50
694.05	156.82
694.19	112.35
694.32	119.37
694.45	135.75
694.59	140.43
694.72	159.16
694.86	191.92
694.99	154.48
695.13	149.79
695.26	175.54
695.39	84.26
695.53	159.16
695.66	217.67
695.80	224.69
695.93	107.66
696.07	215.33
696.20	135.75
696.33	107.66
696.47	102.98
696.60	128.73
696.73	119.37
696.87	128.73
697.00	184.90
697.14	163.84
697.27	217.67
697.40	196.60
697.54	147.45
697.67	133.41
697.80	170.86
697.94	152.13
698.07	110.01
698.21	210.65
698.34	168.52
698.47	65.54
698.61	93.62
698.74	65.54
698.87	133.41
699.01	81.92
699.14	163.84
699.27	147.45
699.40	88.94
699.54	112.35
699.67	177.88
699.80	107.66
699.94	170.86
700.07	102.98
700.20	133.41
700.34	44.47
700.47	110.01
700.60	74.90
700.73	124.05
700.87	168.52
701.00	86.60
701.13	121.71
701.26	175.54
701.40	166.18
701.53	161.50
701.66	126.39
701.79	121.71
701.93	42.13
702.06	58.51
702.19	170.86
702.32	131.07
702.46	149.79
702.59	42.13
702.72	145.11
702.85	86.60
702.99	102.98
703.12	105.32
703.25	154.48
703.38	208.31
703.51	114.69
703.65	156.82
703.78	196.60
703.91	191.92
704.04	156.82
704.17	95.96
704.31	79.58
704.44	88.94
704.57	210.65
704.70	42.13
704.83	191.92
704.96	107.66
705.10	121.71
705.23	105.32
>>>>>End Processed Spectral Data<<<<<
