SpectraSuite Data File
++++++++++++++++++++++++++++++++++++
Date: Mon Oct 07 14:52:54 GMT-05:00 2013
User: price-jones
Dark Spectrum Present: No
Reference Spectrum Present: No
Number of Sampled Component Spectra: 1
Spectrometers: USB2+H05261
Integration Time (usec): 100000 (USB2+H05261)
Spectra Averaged: 1 (USB2+H05261)
Boxcar Smoothing: 0 (USB2+H05261)
Correct for Electrical Dark: No (USB2+H05261)
Strobe/Lamp Enabled: No (USB2+H05261)
Correct for Detector Non-linearity: No (USB2+H05261)
Correct for Stray Light: No (USB2+H05261)
Number of Pixels in Processed Spectrum: 2048
>>>>>Begin Processed Spectral Data<<<<<
365.73	0.00
365.92	0.00
366.12	0.00
366.32	0.00
366.52	0.00
366.72	0.00
366.91	0.00
367.11	0.00
367.31	0.00
367.51	0.00
367.70	0.00
367.90	0.00
368.10	0.00
368.30	0.00
368.49	0.00
368.69	0.00
368.89	0.00
369.09	0.00
369.28	0.00
369.48	0.00
369.68	0.00
369.87	0.00
370.07	0.00
370.27	0.00
370.47	924.51
370.66	4128.70
370.86	5081.30
371.06	5441.75
371.25	5416.00
371.45	4755.97
371.65	4325.31
371.84	4250.41
372.04	4388.50
372.24	4856.61
372.44	5156.20
372.63	4865.97
372.83	4648.30
373.03	4079.55
373.22	3810.39
373.42	4149.77
373.62	4669.37
373.81	4926.83
374.01	4863.63
374.21	4362.76
374.40	4051.47
374.60	4325.31
374.79	4781.71
374.99	5687.50
375.19	5989.43
375.38	6071.35
375.58	5802.19
375.78	5729.63
375.97	5647.71
376.17	5947.30
376.37	5792.83
376.56	5881.77
376.76	6413.07
376.95	6808.62
377.15	7475.67
377.35	7611.42
377.54	7922.71
377.74	7915.69
377.93	7889.95
378.13	7719.09
378.33	7389.07
378.52	6782.87
378.72	6630.74
378.91	6370.94
379.11	6083.05
379.31	6139.23
379.50	6155.61
379.70	6597.97
379.89	7061.40
380.09	7641.85
380.28	7772.92
380.48	7843.14
380.68	7541.21
380.87	7461.63
381.07	6946.71
381.26	6286.68
381.46	5954.32
381.65	5778.78
381.85	5579.84
382.04	5268.55
382.24	4983.00
382.43	4706.82
382.63	4713.84
382.83	4741.93
383.02	4730.22
383.22	4657.67
383.41	4601.49
383.61	5046.20
383.80	5722.61
384.00	6661.16
384.19	7148.00
384.39	7688.66
384.58	7555.25
384.78	7325.88
384.97	7274.38
385.17	6944.37
385.36	6600.31
385.56	6485.62
385.75	6621.38
385.95	7293.11
386.14	7606.74
386.34	7705.04
386.53	7321.20
386.72	6977.14
386.92	7054.37
387.11	7407.80
387.31	7850.16
387.50	7309.49
387.70	7424.18
387.89	7286.09
388.09	7393.75
388.28	7283.75
388.48	7632.49
388.67	8161.45
388.86	8940.85
389.06	9280.22
389.25	9790.46
389.45	10022.17
389.64	9750.67
389.84	9816.21
390.03	9631.30
390.22	9741.31
390.42	10218.78
390.61	10738.38
390.81	11499.05
391.00	11648.85
391.19	11360.96
391.39	11335.21
391.58	10438.79
391.78	10059.62
391.97	9572.79
392.16	8966.59
392.36	8091.23
392.55	6392.00
392.75	5046.20
392.94	4236.37
393.13	4374.46
393.33	5149.18
393.52	6473.92
393.71	7772.92
393.91	8772.33
394.10	9554.07
394.29	10462.19
394.49	11482.67
394.68	12245.68
394.88	12077.16
395.07	12257.39
395.26	12535.91
395.46	11988.22
395.65	11119.89
395.84	9617.26
396.04	8266.77
396.23	6637.76
396.42	5626.65
396.62	5392.59
396.81	6410.73
397.00	8264.43
397.19	10277.29
397.39	12280.79
397.58	13783.41
397.77	14740.69
397.97	14974.75
398.16	15508.39
398.35	15763.51
398.55	16020.97
398.74	16655.25
398.93	17240.39
399.12	16702.06
399.32	16514.82
399.51	16636.53
399.70	17764.67
399.90	17542.32
400.09	17439.33
400.28	17626.57
400.47	17385.50
400.67	18356.82
400.86	18892.80
401.05	18686.84
401.24	18712.58
401.44	19482.62
401.63	19276.65
401.82	19435.81
402.01	19218.14
402.21	19300.06
402.40	19381.98
402.59	18885.78
402.78	18298.31
402.97	17781.05
403.17	18202.35
403.36	19711.99
403.55	20140.31
403.74	20624.80
403.93	19143.24
404.13	18237.45
404.32	17891.06
404.51	18878.76
404.70	20067.75
404.89	20088.82
405.09	19410.06
405.28	18895.14
405.47	18925.57
405.66	19033.24
405.85	18537.04
406.05	18043.19
406.24	18249.16
406.43	19227.50
406.62	19606.67
406.81	19693.27
407.00	19110.47
407.20	18820.25
407.39	18827.27
407.58	19887.53
407.77	20322.87
407.96	21315.26
408.15	21195.89
408.34	21551.65
408.54	22700.86
408.73	22373.18
408.92	22071.25
409.11	21280.15
409.30	20489.05
409.49	19171.33
409.68	17930.84
409.87	17326.99
410.07	18515.98
410.26	20119.24
410.45	21427.60
410.64	21577.40
410.83	22780.43
411.02	23037.89
411.21	23859.42
411.40	23520.04
411.59	23529.41
411.78	23461.53
411.98	23143.22
412.17	23424.08
412.36	23419.40
412.55	23117.47
412.74	22831.93
412.93	22237.43
413.12	22462.12
413.31	25013.31
413.50	25127.99
413.69	25462.69
413.88	24168.37
414.07	23606.64
414.26	24299.44
414.45	24751.17
414.64	24982.88
414.83	25050.75
415.02	24734.78
415.22	24044.32
415.41	25135.01
415.60	25954.20
415.79	26663.38
415.98	27798.54
416.17	27426.40
416.36	26810.84
416.55	25954.20
416.74	25207.57
416.93	24699.67
417.12	24584.99
417.31	24837.76
417.50	25418.22
417.69	26380.18
417.88	26115.70
418.07	25596.10
418.26	25165.44
418.45	26001.01
418.64	26689.13
418.83	27402.99
419.02	27098.72
419.21	26817.86
419.39	25720.15
419.58	24582.65
419.77	24622.44
419.96	25621.84
420.15	27337.46
420.34	28060.68
420.53	29120.95
420.72	29764.59
420.91	29242.65
421.10	28577.94
421.29	28470.28
421.48	27454.48
421.67	28783.91
421.86	28222.18
422.05	25832.49
422.24	23061.30
422.43	23520.04
422.61	26024.42
422.80	28074.73
422.99	27796.20
423.18	27007.44
423.37	26221.02
423.56	26359.11
423.75	26925.52
423.94	27218.09
424.13	26199.96
424.32	26534.65
424.50	26382.52
424.69	26129.74
424.88	26094.63
425.07	26455.08
425.26	26106.34
425.45	25745.89
425.64	24980.54
425.83	25348.00
426.01	26747.64
426.20	27241.50
426.39	27321.07
426.58	25392.47
426.77	23271.95
426.96	22661.07
427.15	23555.15
427.33	25673.34
427.52	26178.89
427.71	26492.52
427.90	26272.51
428.09	25621.84
428.28	25083.52
428.46	24411.79
428.65	24170.71
428.84	24875.21
429.03	24980.54
429.22	23978.79
429.40	22307.65
429.59	20346.28
429.78	18176.60
429.97	18246.82
430.16	18347.46
430.34	18375.55
430.53	18604.92
430.72	19517.73
430.91	21385.47
431.10	25069.48
431.28	29326.91
431.47	31323.39
431.66	31227.43
431.85	28147.28
432.03	26356.77
432.22	25448.64
432.41	26616.57
432.60	28863.49
432.79	30256.11
432.97	30939.54
433.16	30071.20
433.35	27498.95
433.54	24584.99
433.72	23646.43
433.91	24343.91
434.10	27267.24
434.28	28676.24
434.47	30017.37
434.66	29738.85
434.85	29214.57
435.03	29081.16
435.22	29731.83
435.41	31740.00
435.59	31468.50
435.78	31868.73
435.97	32643.45
436.16	32875.16
436.34	32533.45
436.53	31852.35
436.72	31952.99
436.90	30363.77
437.09	30157.80
437.28	29869.92
437.46	30799.11
437.65	30644.63
437.84	27779.82
438.02	26576.78
438.21	26450.39
438.40	27456.82
438.58	29589.05
438.77	30941.88
438.96	30593.14
439.14	32552.17
439.33	32898.57
439.52	33488.38
439.70	32690.26
439.89	31814.90
440.08	31328.07
440.26	31129.12
440.45	32264.28
440.63	33883.94
440.82	35962.33
441.01	35297.62
441.19	35314.00
441.38	35903.82
441.57	36957.06
441.75	37408.78
441.94	37804.33
442.12	37254.31
442.31	37958.81
442.50	37680.28
442.68	37296.44
442.87	37090.47
443.05	36077.02
443.24	37294.10
443.43	38192.86
443.61	38377.76
443.80	38754.59
443.98	36989.83
444.17	36851.73
444.35	39143.12
444.54	39868.69
444.73	38787.36
444.91	37666.24
445.10	35892.12
445.28	34717.17
445.47	34005.64
445.65	34689.08
445.84	35304.64
446.02	36430.44
446.21	36959.40
446.39	37368.99
446.58	37479.00
446.77	38169.46
446.95	38684.37
447.14	39473.13
447.32	39894.43
447.51	39463.77
447.69	37883.91
447.88	37542.19
448.06	38452.66
448.25	38829.49
448.43	39063.54
448.62	38195.20
448.80	38237.33
448.99	38073.49
449.17	38911.41
449.36	38981.62
449.54	40381.26
449.73	40584.89
449.91	41766.86
450.10	42337.95
450.28	42883.30
450.46	42405.83
450.65	42696.05
450.83	41860.48
451.02	41748.14
451.20	40790.86
451.39	41467.27
451.57	40863.41
451.76	41514.08
451.94	40439.78
452.13	39810.17
452.31	38178.82
452.49	36708.96
452.68	37322.18
452.86	37008.55
453.05	37378.36
453.23	38857.57
453.42	39655.70
453.60	40421.05
453.78	41017.89
453.97	40194.02
454.15	40198.70
454.34	39332.70
454.52	39810.17
454.70	39344.41
454.89	39480.16
455.07	39718.89
455.26	40381.26
455.44	41514.08
455.62	42494.77
455.81	42239.65
455.99	42057.09
456.17	41748.14
456.36	41963.46
456.54	42817.76
456.73	43019.05
456.91	43545.67
457.09	43945.90
457.28	44217.40
457.46	42700.73
457.64	42323.91
457.83	41385.35
458.01	40697.24
458.19	41610.04
458.38	42108.58
458.56	43335.02
458.74	42909.04
458.93	42260.71
459.11	42078.15
459.29	41825.37
459.48	42253.69
459.66	41816.01
459.84	42745.20
460.03	42913.72
460.21	43100.97
460.39	43548.01
460.57	43845.26
460.76	44479.54
460.94	44760.40
461.12	43966.96
461.31	44198.68
461.49	44114.42
461.67	43746.95
461.85	45284.68
462.04	44287.62
462.22	44793.17
462.40	44959.35
462.59	44896.16
462.77	44832.96
462.95	44935.95
463.13	44378.90
463.32	43936.54
463.50	44144.84
463.68	43861.64
463.86	43627.59
464.05	43299.91
464.23	42366.04
464.41	42382.42
464.59	42003.25
464.78	43999.73
464.96	43398.21
465.14	42944.15
465.32	43842.92
465.50	45212.13
465.69	45457.88
465.87	44715.93
466.05	43423.96
466.23	41659.20
466.41	40968.74
466.60	42335.61
466.78	42047.72
466.96	42726.48
467.14	43306.93
467.32	43775.04
467.51	43852.28
467.69	41918.99
467.87	42815.42
468.05	43899.09
468.23	43948.24
468.41	43405.23
468.60	43887.39
468.78	44245.49
468.96	43854.62
469.14	44671.46
469.32	44577.84
469.50	43257.78
469.69	43077.56
469.87	42583.71
470.05	42328.59
470.23	42422.21
470.41	42873.93
470.59	43445.02
470.77	43351.40
470.95	44299.32
471.14	44737.00
471.32	44500.61
471.50	46887.95
471.68	46782.63
471.86	46909.02
472.04	47065.83
472.22	47271.80
472.40	44896.16
472.58	45078.72
472.77	45102.12
472.95	45446.18
473.13	46623.47
473.31	45815.99
473.49	45528.10
473.67	46225.58
473.85	46595.38
474.03	47887.36
474.21	47653.31
474.39	48116.73
474.57	47896.72
474.75	48327.38
474.93	48161.20
475.12	47166.48
475.30	47152.43
475.48	47379.46
475.66	47915.45
475.84	47487.13
476.02	46937.10
476.20	46344.95
476.38	47613.52
476.56	48765.06
476.74	49179.34
476.92	49504.67
477.10	49652.12
477.28	50794.31
477.46	50904.31
477.64	51030.70
477.82	51323.27
478.00	51398.16
478.18	51283.48
478.36	50710.05
478.54	50550.89
478.72	51344.33
478.90	52182.24
479.08	52870.36
479.26	52949.94
479.44	52750.99
479.62	52690.14
479.80	52638.65
479.98	53036.54
480.16	52952.28
480.34	53055.26
480.52	53471.88
480.70	53478.90
480.88	53315.06
481.06	53837.00
481.24	54134.25
481.41	54468.95
481.59	55248.35
481.77	55002.59
481.95	54632.78
482.13	54522.78
482.31	54546.18
482.49	54918.33
482.67	55058.76
482.85	55208.56
483.03	55852.20
483.21	55756.24
483.39	55828.80
483.57	55267.07
483.74	55150.04
483.92	55227.28
484.10	55480.06
484.28	56151.79
484.46	56222.01
484.64	56734.59
484.82	55866.25
485.00	55444.95
485.18	55185.15
485.35	54049.99
485.53	51522.21
485.71	48671.44
485.89	48079.28
486.07	50241.94
486.25	52692.48
486.43	54211.49
486.61	54911.31
486.78	54906.63
486.96	55182.81
487.14	56463.08
487.32	56945.23
487.50	57759.74
487.68	58328.49
487.85	58714.68
488.03	58520.41
488.21	58064.01
488.39	57771.44
488.57	57097.37
488.75	57242.48
488.92	58113.16
489.10	59430.88
489.28	60516.89
489.46	60900.74
489.64	60755.63
489.81	61078.62
489.99	60678.39
490.17	60762.65
490.35	60940.53
490.53	60802.44
490.70	60282.84
490.88	60292.20
491.06	60987.34
491.24	60772.01
491.41	60037.08
491.59	58887.88
491.77	58433.81
491.95	59384.07
492.13	60310.92
492.30	61406.30
492.48	62003.13
492.66	62337.83
492.84	62129.52
493.01	62169.31
493.19	61436.72
493.37	61109.05
493.54	61102.03
493.72	61836.95
493.90	62695.93
494.08	63107.86
494.25	63491.71
494.43	63447.24
494.61	63877.90
494.79	63929.39
494.96	63531.50
495.14	62934.66
495.32	62445.49
495.49	62045.26
495.67	62855.09
495.85	63812.37
496.02	64231.32
496.20	64027.70
496.38	63760.87
496.55	63650.87
496.73	63971.52
496.91	64154.08
497.09	64678.36
497.26	64664.32
497.44	64418.56
497.62	63873.22
497.79	63086.80
497.97	62024.20
498.14	62328.47
498.32	63203.83
498.50	64175.15
498.67	64430.27
498.85	64413.88
499.03	64514.53
499.20	64867.95
499.38	64800.07
499.56	64479.42
499.73	64196.21
499.91	63751.51
500.08	63423.84
500.26	62843.38
500.44	63334.90
500.61	63990.25
500.79	63697.68
500.97	63449.58
501.14	63309.15
501.32	63131.27
501.49	63215.53
501.67	63229.57
501.84	63742.15
502.02	64072.17
502.20	64257.07
502.37	64362.39
502.55	64502.82
502.72	64886.67
502.90	65291.58
503.07	65043.49
503.25	64664.32
503.43	63889.60
503.60	63433.20
503.78	62801.25
503.95	63377.03
504.13	64556.66
504.30	65223.71
504.48	64952.21
504.65	64404.52
504.83	64896.03
505.01	65282.22
505.18	65535.00
505.36	65535.00
505.53	65535.00
505.71	65535.00
505.88	65535.00
506.06	65535.00
506.23	65357.12
506.41	65336.05
506.58	65424.99
506.76	65345.42
506.93	65340.74
507.11	65052.85
507.28	65090.30
507.46	64755.60
507.63	64367.07
507.81	64362.39
507.98	64465.38
508.16	65027.10
508.33	65443.72
508.50	65535.00
508.68	65535.00
508.85	65535.00
509.03	65535.00
509.20	65535.00
509.38	65535.00
509.55	64921.78
509.73	65130.09
509.90	65495.21
510.08	65535.00
510.25	65535.00
510.42	65535.00
510.60	65429.68
510.77	65535.00
510.95	65535.00
511.12	65535.00
511.30	65535.00
511.47	65535.00
511.64	65535.00
511.82	65535.00
511.99	65535.00
512.17	65504.57
512.34	65167.54
512.51	65289.24
512.69	65420.31
512.86	65436.70
513.04	65535.00
513.21	65535.00
513.38	65375.84
513.56	65172.22
513.73	64760.28
513.90	64725.17
514.08	64980.29
514.25	65226.05
514.43	65389.89
514.60	65242.43
514.77	65506.91
514.95	65424.99
515.12	65535.00
515.29	65535.00
515.47	65535.00
515.64	65535.00
515.81	65535.00
515.99	65366.48
516.16	64116.64
516.33	62166.97
516.51	61406.30
516.68	60334.33
516.85	60100.28
517.03	60823.50
517.20	62944.03
517.37	65015.40
517.54	65535.00
517.72	65059.87
517.89	63025.95
518.06	61293.95
518.24	61794.82
518.41	63362.98
518.58	64423.25
518.75	64706.45
518.93	64907.74
519.10	64690.07
519.27	65141.79
519.45	65261.16
519.62	65535.00
519.79	65535.00
519.96	65535.00
520.14	65518.62
520.31	64776.67
520.48	64898.37
520.65	65265.84
520.83	65535.00
521.00	65535.00
521.17	65535.00
521.34	65535.00
521.52	65535.00
521.69	65535.00
521.86	65535.00
522.03	65535.00
522.20	65535.00
522.38	64786.03
522.55	64839.86
522.72	65289.24
522.89	65155.83
523.07	65340.74
523.24	65535.00
523.41	65535.00
523.58	65535.00
523.75	65535.00
523.92	65535.00
524.10	65535.00
524.27	65535.00
524.44	65535.00
524.61	65535.00
524.78	65535.00
524.96	65535.00
525.13	65535.00
525.30	65535.00
525.47	65535.00
525.64	65535.00
525.81	65535.00
525.98	65090.30
526.16	63929.39
526.33	63295.11
526.50	63028.29
526.67	62885.51
526.84	63355.96
527.01	64032.38
527.18	64863.27
527.36	65499.89
527.53	65535.00
527.70	65535.00
527.87	65535.00
528.04	65535.00
528.21	65535.00
528.38	65535.00
528.55	65535.00
528.72	65535.00
528.89	65535.00
529.07	65535.00
529.24	65535.00
529.41	65535.00
529.58	65535.00
529.75	65535.00
529.92	65535.00
530.09	65535.00
530.26	65535.00
530.43	65535.00
530.60	65535.00
530.77	65535.00
530.94	65535.00
531.11	65535.00
531.28	65535.00
531.46	65535.00
531.63	65535.00
531.80	65535.00
531.97	65535.00
532.14	65535.00
532.31	64729.86
532.48	64219.62
532.65	64376.43
532.82	65141.79
532.99	65535.00
533.16	65535.00
533.33	65535.00
533.50	65535.00
533.67	65535.00
533.84	65535.00
534.01	65535.00
534.18	65535.00
534.35	65535.00
534.52	65535.00
534.69	65535.00
534.86	65535.00
535.03	65535.00
535.20	65535.00
535.37	65535.00
535.54	65535.00
535.71	65535.00
535.88	65535.00
536.05	65535.00
536.22	65535.00
536.38	65535.00
536.55	65197.96
536.72	64945.18
536.89	64910.08
537.06	65535.00
537.23	65535.00
537.40	65535.00
537.57	65535.00
537.74	65535.00
537.91	65535.00
538.08	65535.00
538.25	65535.00
538.42	65535.00
538.59	65535.00
538.75	65535.00
538.92	65535.00
539.09	65195.62
539.26	65235.41
539.43	65181.58
539.60	65282.22
539.77	65429.68
539.94	65111.36
540.11	64589.42
540.28	64280.47
540.44	64374.09
540.61	64544.95
540.78	64636.23
540.95	65003.70
541.12	65368.82
541.29	65535.00
541.46	65535.00
541.62	65535.00
541.79	65535.00
541.96	65130.09
542.13	65195.62
542.30	65535.00
542.47	65535.00
542.63	65319.67
542.80	65317.33
542.97	65441.38
543.14	65359.46
543.31	65410.95
543.48	65535.00
543.64	65535.00
543.81	65535.00
543.98	65535.00
544.15	65535.00
544.32	65523.30
544.48	65535.00
544.65	65535.00
544.82	65535.00
544.99	65535.00
545.16	65535.00
545.32	65347.76
545.49	65535.00
545.66	65535.00
545.83	65535.00
546.00	65535.00
546.16	65502.23
546.33	65504.57
546.50	65478.83
546.67	65535.00
546.83	65364.14
547.00	65420.31
547.17	64884.33
547.34	64486.44
547.50	64439.63
547.67	64928.80
547.84	65043.49
548.00	65354.78
548.17	65535.00
548.34	65490.53
548.51	65485.85
548.67	65535.00
548.84	65535.00
549.01	65478.83
549.18	65535.00
549.34	65382.87
549.51	65535.00
549.68	65535.00
549.84	65151.15
550.01	65179.24
550.18	65038.81
550.34	65237.75
550.51	65181.58
550.68	65139.45
550.84	64800.07
551.01	64821.14
551.18	64781.35
551.34	65027.10
551.51	65254.14
551.68	65436.70
551.84	65535.00
552.01	65373.50
552.18	65226.05
552.34	64624.53
552.51	64512.19
552.68	64472.40
552.84	64750.92
553.01	65041.15
553.18	64886.67
553.34	64891.35
553.51	65235.41
553.67	65380.52
553.84	65443.72
554.01	65261.16
554.17	65209.67
554.34	65284.56
554.51	65366.48
554.67	65535.00
554.84	65535.00
555.00	65073.91
555.17	64879.65
555.33	64898.37
555.50	64743.90
555.67	64835.18
555.83	64706.45
556.00	64521.55
556.16	64584.74
556.33	64259.41
556.50	64161.11
556.66	64102.59
556.83	63803.00
556.99	64032.38
557.16	64051.10
557.32	64346.01
557.49	64594.10
557.65	64203.24
557.82	64446.65
557.98	64252.39
558.15	63739.81
558.32	63304.47
558.48	62597.63
558.65	62831.68
558.81	63100.84
558.98	63400.43
559.14	63344.26
559.31	63554.91
559.47	63529.16
559.64	63182.76
559.80	62990.84
559.97	63208.51
560.13	63379.37
560.30	64121.32
560.46	64498.14
560.63	64774.33
560.79	64769.64
560.96	64376.43
561.12	63341.92
561.29	62773.17
561.45	62714.65
561.61	63533.84
561.78	63877.90
561.94	63597.04
562.11	63592.36
562.27	63423.84
562.44	63622.78
562.60	63786.62
562.77	64165.79
562.93	64128.34
563.10	64062.80
563.26	63290.43
563.42	63381.71
563.59	63210.85
563.75	63135.95
563.92	63341.92
564.08	63398.09
564.24	63622.78
564.41	63728.11
564.57	63599.38
564.74	63458.94
564.90	63278.72
565.07	63056.37
565.23	62925.30
565.39	62356.55
565.56	62244.21
565.72	62173.99
565.88	62513.37
566.05	62426.77
566.21	62571.88
566.38	62717.00
566.54	62848.06
566.70	63065.73
566.87	63285.75
567.03	63203.83
567.19	63531.50
567.36	63367.66
567.52	63065.73
567.68	62754.44
567.85	62468.90
568.01	62354.21
568.17	61731.63
568.34	61783.12
568.50	61787.80
568.66	62021.86
568.83	61848.66
568.99	62059.30
569.15	62585.92
569.32	62527.41
569.48	62129.52
569.64	62068.67
569.81	61811.21
569.97	61991.43
570.13	61911.85
570.30	61116.07
570.46	60853.93
570.62	60493.49
570.78	60512.21
570.95	60914.78
571.11	61373.53
571.27	61375.87
571.43	61633.33
571.60	62017.17
571.76	62447.83
571.92	62412.73
572.09	62609.33
572.25	62396.34
572.41	62262.93
572.57	62305.06
572.74	62188.03
572.90	61937.60
573.06	61939.94
573.22	61790.14
573.38	61680.14
573.55	61897.81
573.71	62206.76
573.87	61839.29
574.03	61694.18
574.20	61492.89
574.36	61303.31
574.52	61579.49
574.68	61080.96
574.84	60853.93
575.01	60449.02
575.17	60671.37
575.33	60874.99
575.49	61165.22
575.65	61293.95
575.82	60842.23
575.98	60823.50
576.14	60966.27
576.30	61027.13
576.46	61169.90
576.62	61296.29
576.79	61205.01
576.95	60921.80
577.11	61027.13
577.27	60842.23
577.43	61183.94
577.59	60601.15
577.75	60247.73
577.92	60006.65
578.08	59803.03
578.24	59929.42
578.40	60130.70
578.56	60329.65
578.72	60236.03
578.88	60257.09
579.04	60647.96
579.21	60580.09
579.37	60793.07
579.53	60718.18
579.69	60797.76
579.85	60842.23
580.01	60617.53
580.17	60221.98
580.33	60399.86
580.49	60470.08
580.65	60463.06
580.82	60947.55
580.98	60633.92
581.14	60631.58
581.30	60797.76
581.46	60657.32
581.62	60809.46
581.78	60767.33
581.94	60755.63
582.10	60797.76
582.26	60912.44
582.42	60856.27
582.58	60903.08
582.74	60917.12
582.90	60987.34
583.06	60786.05
583.22	60493.49
583.38	60701.79
583.54	60652.64
583.70	60540.30
583.86	60647.96
584.02	60303.90
584.18	60608.17
584.34	60502.85
584.50	60341.35
584.66	60212.62
584.82	59901.33
584.98	60044.10
585.14	59561.95
585.30	59035.33
585.46	58852.77
585.62	58965.12
585.78	59119.59
585.94	59234.28
586.10	59512.80
586.26	59615.79
586.42	59842.82
586.58	59950.48
586.74	59686.00
586.90	59948.14
587.06	59690.68
587.22	59781.96
587.38	59554.93
587.54	59311.52
587.70	59086.82
587.86	58948.73
588.02	58686.59
588.18	58426.79
588.34	57801.87
588.49	56495.85
588.65	55320.90
588.81	54864.50
588.97	54934.71
589.13	54848.11
589.29	54616.40
589.45	55133.66
589.61	56048.81
589.77	57195.67
589.93	57677.82
590.08	58138.91
590.24	58410.41
590.40	58759.15
590.56	58440.84
590.72	58319.13
590.88	57748.04
591.04	57422.70
591.20	57546.75
591.35	57766.76
591.51	57944.64
591.67	57853.36
591.83	57918.90
591.99	58099.12
592.15	58017.20
592.31	58269.98
592.46	58005.50
592.62	57717.61
592.78	57682.50
592.94	57513.98
593.10	57689.52
593.26	58258.27
593.41	58155.29
593.57	57921.24
593.73	57539.73
593.89	57546.75
594.05	57570.16
594.20	57064.60
594.36	56732.25
594.52	56575.43
594.68	56680.75
594.84	56727.56
594.99	57504.62
595.15	57223.76
595.31	57308.02
595.47	57317.38
595.62	57378.23
595.78	57448.45
595.94	57731.65
596.10	57598.24
596.25	57319.72
596.41	57141.84
596.57	56928.85
596.73	57448.45
596.88	57502.28
597.04	57130.14
597.20	57172.27
597.36	56952.26
597.51	57052.90
597.67	57160.56
597.83	56856.29
597.99	56727.56
598.14	56233.71
598.30	56339.04
598.46	56411.59
598.61	56671.39
598.77	56425.64
598.93	56559.05
599.09	56851.61
599.24	56928.85
599.40	56877.36
599.56	56961.62
599.71	57034.17
599.87	56781.40
600.03	56746.29
600.18	56678.41
600.34	56343.72
600.50	56172.86
600.65	56465.42
600.81	56355.42
600.97	56278.18
601.12	56601.18
601.28	56186.90
601.44	56107.32
601.59	55903.70
601.75	55393.46
601.91	55470.70
602.06	55620.49
602.22	55838.16
602.37	55826.46
602.53	55884.97
602.69	56383.51
602.84	56601.18
603.00	56755.65
603.16	56608.20
603.31	56591.81
603.47	56671.39
603.62	56456.06
603.78	56336.69
603.94	56135.41
604.09	56346.06
604.25	56090.94
604.40	55927.10
604.56	56229.03
604.71	56360.10
604.87	55945.83
605.03	55679.00
605.18	55732.84
605.34	55805.39
605.49	55807.73
605.65	55938.80
605.80	55983.27
605.96	55519.85
606.12	55337.29
606.27	55311.54
606.43	55103.23
606.58	55847.52
606.74	55613.47
606.89	55636.87
607.05	55891.99
607.20	55721.13
607.36	54993.23
607.51	55220.26
607.67	55049.40
607.82	55367.71
607.98	54908.97
608.13	54829.39
608.29	54576.61
608.44	54609.38
608.60	54262.98
608.75	54274.68
608.91	54543.84
609.06	54719.38
609.22	54618.74
609.37	54293.41
609.53	54705.34
609.68	54096.80
609.84	53385.28
609.99	53509.33
610.15	53581.88
610.30	53773.81
610.46	53897.86
610.61	54185.74
610.76	54349.58
610.92	54529.80
611.07	54571.93
611.23	54642.15
611.38	54857.48
611.54	54279.36
611.69	54087.44
611.84	53502.31
612.00	53275.27
612.15	53048.24
612.31	53329.11
612.46	53291.66
612.62	53214.42
612.77	53565.50
612.92	53839.34
613.08	52968.66
613.23	52336.72
613.39	51784.35
613.54	51948.19
613.69	52116.71
613.85	52303.95
614.00	52505.24
614.15	52659.71
614.31	52933.56
614.46	53448.47
614.62	52949.94
614.77	52945.26
614.92	52912.49
615.08	52980.37
615.23	52676.10
615.38	52561.41
615.54	51627.54
615.69	50780.26
615.84	50281.73
616.00	50288.75
616.15	50337.90
616.30	50894.95
616.46	50923.04
616.61	50471.31
616.76	51147.73
616.92	51634.56
617.07	52002.02
617.22	51592.43
617.37	51557.32
617.53	52013.73
617.68	52147.14
617.83	52570.77
617.99	52266.50
618.14	52086.28
618.29	52112.03
618.45	51171.13
618.60	50712.39
618.75	50995.59
618.90	51068.15
619.06	51276.46
619.21	51423.91
619.36	51512.85
619.51	51356.03
619.67	51276.46
619.82	51697.75
619.97	51547.96
620.12	51339.65
620.28	51276.46
620.43	51613.49
620.58	51641.58
620.73	51246.03
620.89	50602.38
621.04	50642.17
621.19	50447.91
621.34	50291.09
621.49	50021.93
621.65	50021.93
621.80	49977.46
621.95	50021.93
622.10	50185.77
622.25	50223.22
622.41	50155.34
622.56	49766.81
622.71	49425.09
622.86	49074.01
623.01	49518.71
623.16	48973.37
623.32	49614.68
623.47	49460.20
623.62	49106.78
623.77	48748.68
623.92	48268.87
624.07	48123.75
624.23	48193.97
624.38	48353.13
624.53	48161.20
624.68	48308.66
624.83	47892.04
624.98	47992.68
625.13	47065.83
625.29	47594.79
625.44	47379.46
625.59	47753.95
625.74	47746.93
625.89	47824.17
626.04	47646.29
626.19	48112.05
626.34	48292.27
626.49	48449.09
626.65	47538.62
626.80	47805.44
626.95	47679.05
627.10	47428.62
627.25	46632.83
627.40	45584.27
627.55	44662.10
627.70	44304.00
627.85	45067.02
628.00	44980.42
628.15	45954.08
628.30	46621.13
628.45	46382.40
628.60	46211.54
628.76	45930.67
628.91	46101.53
629.06	45853.44
629.21	45947.06
629.36	45542.14
629.51	45202.77
629.66	44521.67
629.81	44304.00
629.96	44390.60
630.11	44741.68
630.26	45570.23
630.41	45584.27
630.56	45741.09
630.71	45593.64
630.86	45310.43
631.01	44594.23
631.16	44605.93
631.31	44013.77
631.46	43796.10
631.61	44023.14
631.76	44184.63
631.91	44336.77
632.06	44842.32
632.21	44928.92
632.36	45333.84
632.51	44987.44
632.66	45193.40
632.81	45013.18
632.96	44949.99
633.10	44282.94
633.25	43810.15
633.40	44224.42
633.55	44278.25
633.70	44210.38
633.85	43840.57
634.00	44318.04
634.15	44065.27
634.30	44217.40
634.45	44332.09
634.60	44210.38
634.75	44287.62
634.90	44205.70
635.05	44343.79
635.19	44208.04
635.34	44095.69
635.49	43351.40
635.64	43419.28
635.79	43178.20
635.94	42995.64
636.09	43365.45
636.24	43562.05
636.39	43894.41
636.53	43658.01
636.68	43351.40
636.83	43648.65
636.98	43882.70
637.13	43915.47
637.28	44137.82
637.43	44215.06
637.57	43805.47
637.72	43426.30
637.87	43934.20
638.02	43358.42
638.17	43512.90
638.32	43253.10
638.46	43243.74
638.61	43112.67
638.76	42419.87
638.91	41881.55
639.06	42036.02
639.20	42101.56
639.35	42335.61
639.50	41689.62
639.65	41911.97
639.80	41755.16
639.94	41687.28
640.09	42045.38
640.24	41949.42
640.39	41841.76
640.54	41200.45
640.68	41109.17
640.83	41141.94
640.98	40980.44
641.13	40512.33
641.27	41298.75
641.42	41130.23
641.57	40896.18
641.72	41352.58
641.86	40734.68
642.01	41006.19
642.16	41055.34
642.31	41134.92
642.45	41916.65
642.60	41181.73
642.75	40825.96
642.90	40924.27
643.04	40430.41
643.19	40678.51
643.34	40842.35
643.48	40589.57
643.63	40407.01
643.78	40442.12
643.93	40884.48
644.07	41467.27
644.22	41237.90
644.37	40964.06
644.51	40306.37
644.66	40463.18
644.81	39864.00
644.95	40009.12
645.10	39501.22
645.25	39555.05
645.39	39379.51
645.54	38799.06
645.69	39138.44
645.83	38176.48
645.98	38220.95
646.13	38117.96
646.27	37869.87
646.42	38433.94
646.57	37720.07
646.71	38150.73
646.86	38256.06
647.00	37858.17
647.15	37371.33
647.30	37479.00
647.44	37376.01
647.59	37331.54
647.74	37102.17
647.88	37078.77
648.03	37312.82
648.17	37474.32
648.32	37827.74
648.47	38450.32
648.61	37268.35
648.76	37958.81
648.90	36299.37
649.05	35398.26
649.20	34721.85
649.34	34941.86
649.49	35040.16
649.63	35690.83
649.78	36287.67
649.92	36982.80
650.07	37134.94
650.21	37551.56
650.36	37645.18
650.51	37116.22
650.65	37736.46
650.80	37638.15
650.94	36804.92
651.09	36648.11
651.23	35763.39
651.38	36077.02
651.52	35278.89
651.67	36215.11
651.81	36540.44
651.96	36580.23
652.10	36397.67
652.25	36343.84
652.39	36481.93
652.54	36664.49
652.68	36353.20
652.83	35491.88
652.97	36360.22
653.12	35892.12
653.26	36177.66
653.41	36479.59
653.55	36112.13
653.70	36264.26
653.84	36201.07
653.99	36198.73
654.13	35339.75
654.27	34988.67
654.42	34267.78
654.56	34342.68
654.71	34991.01
654.85	34167.14
655.00	34515.88
655.14	33895.64
655.29	32842.40
655.43	32107.47
655.57	31012.10
655.72	28601.35
655.86	26852.97
656.01	25483.75
656.15	26122.72
656.30	27852.38
656.44	29223.93
656.58	30380.15
656.73	31637.02
656.87	31845.33
657.01	32432.80
657.16	32683.24
657.30	33631.16
657.45	34305.23
657.59	34272.46
657.73	34040.75
657.88	34141.39
658.02	34508.86
658.16	33897.98
658.31	33991.60
658.45	33670.95
658.60	33504.77
658.74	33172.41
658.88	32830.69
659.03	32790.91
659.17	33247.31
659.31	32987.51
659.46	33411.15
659.60	33909.68
659.74	33699.03
659.89	33745.84
660.03	33773.93
660.17	33752.87
660.32	33748.18
660.46	33813.72
660.60	33263.69
660.74	33390.08
660.89	32769.84
661.03	32865.80
661.17	33649.88
661.32	33621.80
661.46	33315.19
661.60	33146.67
661.74	33762.23
661.89	33153.69
662.03	33017.94
662.17	32608.34
662.31	32919.63
662.46	32910.27
662.60	32528.77
662.74	32739.41
662.88	32304.07
663.03	31812.56
663.17	32020.87
663.31	32011.51
663.45	31732.98
663.60	31566.81
663.74	31452.12
663.88	31922.57
664.02	31740.00
664.17	31983.42
664.31	31367.86
664.45	31510.63
664.59	31793.84
664.73	31997.46
664.88	31850.01
665.02	31576.17
665.16	31611.28
665.30	31571.49
665.44	31384.24
665.59	30658.68
665.73	30520.59
665.87	30249.08
666.01	30118.01
666.15	29975.24
666.29	30749.96
666.44	30581.44
666.58	30188.23
666.72	30174.19
666.86	30160.14
667.00	30127.38
667.14	30363.77
667.28	29659.27
667.43	29902.68
667.57	30019.71
667.71	30433.99
667.85	30127.38
667.99	29954.18
668.13	29876.94
668.27	29750.55
668.41	29979.92
668.56	29572.67
668.70	29535.22
668.84	29153.71
668.98	29687.36
669.12	29535.22
669.26	29621.82
669.40	29219.25
669.54	29247.33
669.68	29727.14
669.82	29036.69
669.96	28833.06
670.10	28528.79
670.25	29053.07
670.39	28149.62
670.53	28479.64
670.67	28013.87
670.81	27878.12
670.95	28135.58
671.09	27798.54
671.23	27927.27
671.37	27707.26
671.51	27936.63
671.65	27711.94
671.79	27510.66
671.93	27845.35
672.07	27733.01
672.21	27999.83
672.35	27300.01
672.49	27524.70
672.63	27417.04
672.77	27410.01
672.91	26918.50
673.05	26916.16
673.19	27426.40
673.33	27182.98
673.47	27051.91
673.61	27482.57
673.75	26778.07
673.89	26794.45
674.03	26850.63
674.17	26333.37
674.31	26522.95
674.45	26307.62
674.59	26101.65
674.73	26302.94
674.87	26178.89
675.01	25659.29
675.15	26036.12
675.29	25912.07
675.43	26169.53
675.56	25984.63
675.70	25942.50
675.84	25647.59
675.98	25322.26
676.12	25907.39
676.26	25502.48
676.40	25268.42
676.54	25212.25
676.68	24856.49
676.82	24886.92
676.96	25001.60
677.10	24449.24
677.23	24809.68
677.37	24692.65
677.51	24847.13
677.65	24503.07
677.79	24177.73
677.93	23901.55
678.07	23903.89
678.21	24058.37
678.34	23793.89
678.48	23637.07
678.62	23611.32
678.76	23913.25
678.90	23854.74
679.04	23466.21
679.18	23969.43
679.31	23302.37
679.45	23613.66
679.59	23208.75
679.73	23218.11
679.87	22906.82
680.00	22867.03
680.14	22899.80
680.28	22417.65
680.42	22267.86
680.56	22583.83
680.70	22312.33
680.83	22408.29
680.97	22513.61
681.11	22249.13
681.25	22160.19
681.39	22522.98
681.52	22005.72
681.66	22326.37
681.80	22366.16
681.94	22033.80
682.07	22022.10
682.21	22050.19
682.35	21685.06
682.49	21460.37
682.62	21551.65
682.76	20905.66
682.90	21165.46
683.04	21270.79
683.17	21142.06
683.31	20842.47
683.45	20585.01
683.59	20596.71
683.72	20374.36
683.86	19978.81
684.00	19672.20
684.13	19740.08
684.27	19981.15
684.41	19992.86
684.55	19885.19
684.68	19747.10
684.82	20093.50
684.96	19714.33
685.09	19461.55
685.23	19234.52
685.37	19374.95
685.50	19236.86
685.64	19330.48
685.78	19126.86
685.91	19019.19
686.05	18972.38
686.19	18424.70
686.32	16961.86
686.46	15351.57
686.60	13437.02
686.73	12451.65
686.87	11726.08
687.01	11737.79
687.14	12327.60
687.28	12638.89
687.42	12823.80
687.55	13411.27
687.69	14284.29
687.82	14916.23
687.96	15578.61
688.10	15447.54
688.23	14970.07
688.37	15091.77
688.50	14956.02
688.64	14656.43
688.78	14471.53
688.91	14532.39
689.05	14530.05
689.18	14436.42
689.32	14094.71
689.46	14319.40
689.59	14520.68
689.73	14590.90
689.86	14768.78
690.00	14455.15
690.13	14703.25
690.27	14778.14
690.41	14476.21
690.54	14544.09
690.68	14773.46
690.81	14916.23
690.95	14647.07
691.08	14911.55
691.22	14913.89
691.35	14909.21
691.49	14850.70
691.62	14916.23
691.76	15051.99
691.89	15115.18
692.03	14614.30
692.16	14476.21
692.30	14101.73
692.43	14298.33
692.57	14001.08
692.70	14083.00
692.84	13806.82
692.97	13951.93
693.11	13919.17
693.24	13900.44
693.38	13783.41
693.51	13853.63
693.65	13554.04
693.78	13205.30
693.92	13090.62
694.05	13132.75
694.19	13053.17
694.32	13530.64
694.45	13579.79
694.59	13284.88
694.72	13305.95
694.86	13238.07
694.99	13420.63
695.13	13130.41
695.26	12947.84
695.39	12875.29
695.53	12526.55
695.66	12528.89
695.80	12706.77
695.93	12870.61
696.07	12872.95
696.20	13256.79
696.33	13380.84
696.47	13455.74
696.60	13572.77
696.73	13362.12
696.87	13376.16
697.00	13577.45
697.14	13125.72
697.27	12610.81
697.40	12540.59
697.54	12369.73
697.67	12470.37
697.80	12032.69
697.94	12287.81
698.07	11885.24
698.21	11878.22
698.34	11810.34
698.47	11730.76
698.61	11435.86
698.74	11648.85
698.87	11604.38
699.01	11391.39
699.14	11489.69
699.27	11583.31
699.40	11838.43
699.54	11506.07
699.67	11398.41
699.80	11300.11
699.94	11248.61
700.07	11154.99
700.20	10642.42
700.34	10471.56
700.47	10621.35
700.60	10759.44
700.73	10693.91
700.87	10560.50
701.00	10511.35
701.13	10628.37
701.26	10314.74
701.40	10022.17
701.53	10083.03
701.66	10389.64
701.79	10391.98
701.93	10260.91
702.06	10483.26
702.19	10036.22
702.32	10129.84
702.46	10118.14
702.59	9818.55
702.72	10036.22
702.85	10186.01
702.99	10033.88
703.12	10073.67
703.25	9825.57
703.38	9949.62
703.51	9745.99
703.65	9598.54
703.78	9865.36
703.91	9565.77
704.04	9813.87
704.17	9764.72
704.31	9549.39
704.44	9736.63
704.57	9586.83
704.70	9591.52
704.83	9495.55
704.96	9497.89
705.10	9406.61
705.23	9121.07
>>>>>End Processed Spectral Data<<<<<
