SpectraSuite Data File
++++++++++++++++++++++++++++++++++++
Date: Mon Oct 07 14:53:11 GMT-05:00 2013
User: price-jones
Dark Spectrum Present: No
Reference Spectrum Present: No
Number of Sampled Component Spectra: 1
Spectrometers: USB2+H05261
Integration Time (usec): 100000 (USB2+H05261)
Spectra Averaged: 1 (USB2+H05261)
Boxcar Smoothing: 0 (USB2+H05261)
Correct for Electrical Dark: No (USB2+H05261)
Strobe/Lamp Enabled: No (USB2+H05261)
Correct for Detector Non-linearity: No (USB2+H05261)
Correct for Stray Light: No (USB2+H05261)
Number of Pixels in Processed Spectrum: 2048
>>>>>Begin Processed Spectral Data<<<<<
365.73	0.00
365.92	0.00
366.12	0.00
366.32	0.00
366.52	0.00
366.72	0.00
366.91	0.00
367.11	0.00
367.31	0.00
367.51	0.00
367.70	0.00
367.90	0.00
368.10	0.00
368.30	0.00
368.49	0.00
368.69	0.00
368.89	0.00
369.09	0.00
369.28	0.00
369.48	0.00
369.68	0.00
369.87	0.00
370.07	0.00
370.27	0.00
370.47	1095.37
370.66	4777.03
370.86	5483.88
371.06	5834.96
371.25	5755.38
371.45	5083.64
371.65	4833.21
371.84	4449.36
372.04	4809.80
372.24	5392.59
372.44	5348.12
372.63	5348.12
372.83	4933.85
373.03	4329.99
373.22	4198.92
373.42	4505.53
373.62	4961.94
373.81	5376.21
374.01	5200.67
374.21	4690.43
374.40	4402.55
374.60	4746.61
374.79	5355.15
374.99	6122.84
375.19	6506.69
375.38	6457.54
375.58	6136.88
375.78	6080.71
375.97	6040.92
376.17	6349.87
376.37	6399.02
376.56	6509.03
376.76	6981.82
376.95	7337.58
377.15	7796.32
377.35	8126.34
377.54	8446.99
377.74	8533.59
377.93	8627.21
378.13	8273.79
378.33	7871.22
378.52	7243.96
378.72	7220.55
378.91	6977.14
379.11	6626.06
379.31	6644.78
379.50	6586.27
379.70	7173.74
379.89	7770.58
380.09	8138.04
380.28	8491.46
380.48	8297.20
380.68	8283.16
380.87	8135.70
381.07	7461.63
381.26	6911.60
381.46	6394.34
381.65	6148.59
381.85	6012.84
382.04	5816.23
382.24	5453.45
382.43	5081.30
382.63	4945.55
382.83	5036.83
383.02	5100.03
383.22	5104.71
383.41	5057.90
383.61	5523.66
383.80	6265.61
384.00	7077.78
384.19	7733.13
384.39	8252.73
384.58	8304.22
384.78	8219.96
384.97	7934.42
385.17	7412.48
385.36	7080.12
385.56	6998.20
385.75	7260.34
385.95	7903.99
386.14	8482.10
386.34	8594.45
386.53	8189.53
386.72	7761.22
386.92	7569.29
387.11	8077.19
387.31	8505.51
387.50	8580.40
387.70	7889.95
387.89	8049.10
388.09	8131.02
388.28	8257.41
388.48	8138.04
388.67	8879.99
388.86	9848.97
389.06	10265.59
389.25	10902.22
389.45	11183.08
389.64	10644.76
389.84	10773.49
390.03	10649.44
390.22	10693.91
390.42	11229.89
390.61	11714.38
390.81	12388.46
391.00	12479.74
391.19	12477.40
391.39	12051.42
391.58	11520.12
391.78	10794.55
391.97	10499.64
392.16	9628.96
392.36	8613.17
392.55	7035.65
392.75	5577.50
392.94	4475.10
393.13	4692.77
393.33	5685.16
393.52	6970.12
393.71	8748.92
393.91	9600.88
394.10	10267.93
394.29	11503.73
394.49	12215.26
394.68	13308.29
394.88	13156.15
395.07	13795.12
395.26	13572.77
395.46	13085.94
395.65	12269.09
395.84	10672.84
396.04	9107.02
396.23	7318.86
396.42	6134.54
396.62	6036.24
396.81	7269.70
397.00	8938.51
397.19	11391.39
397.39	13429.99
397.58	15105.82
397.77	16133.31
397.97	16325.24
398.16	16533.54
398.35	17420.61
398.55	17774.03
398.74	18558.11
398.93	18874.08
399.12	18298.31
399.32	17930.84
399.51	18192.98
399.70	19822.00
399.90	19133.88
400.09	19225.16
400.28	18642.37
400.47	19274.31
400.67	20322.87
400.86	20332.23
401.05	20556.93
401.24	20556.93
401.44	21163.12
401.63	21008.65
401.82	21219.30
402.01	20922.05
402.21	21535.27
402.40	21832.52
402.59	20908.01
402.78	19922.64
402.97	19616.03
403.17	20334.57
403.36	21476.76
403.55	22464.46
403.74	22579.15
403.93	21443.99
404.13	19786.89
404.32	19793.91
404.51	20760.55
404.70	21986.99
404.89	21701.45
405.09	21333.98
405.28	20613.10
405.47	21053.12
405.66	20982.90
405.85	20346.28
406.05	19817.32
406.24	20063.07
406.43	21167.80
406.62	21694.43
406.81	21902.73
407.00	21296.53
407.20	20283.08
407.39	20678.63
407.58	21675.70
407.77	22530.00
407.96	23168.96
408.15	23405.36
408.34	23552.81
408.54	24741.80
408.73	24671.59
408.92	24381.36
409.11	23257.90
409.30	22101.68
409.49	20975.88
409.68	19786.89
409.87	19147.92
410.07	20765.23
410.26	21963.59
410.45	23744.73
410.64	24128.58
410.83	24858.83
411.02	25399.49
411.21	26111.02
411.40	25823.13
411.59	26078.25
411.78	25699.08
411.98	25659.29
412.17	26054.84
412.36	25483.75
412.55	25294.17
412.74	24889.26
412.93	24482.00
413.12	24837.76
413.31	26981.70
413.50	27372.57
413.69	27569.17
413.88	26471.46
414.07	26008.03
414.26	26630.62
414.45	27295.33
414.64	27227.45
414.83	27065.96
415.02	26859.99
415.22	26504.23
415.41	27599.60
415.60	28245.58
415.79	29514.16
415.98	30185.89
416.17	29617.14
416.36	28985.19
416.55	28622.41
416.74	27587.89
416.93	26457.42
417.12	26534.65
417.31	27410.01
417.50	27477.89
417.69	28692.63
417.88	28395.38
418.07	28034.94
418.26	27665.13
418.45	28318.14
418.64	29415.85
418.83	30000.99
419.02	29867.58
419.21	29404.15
419.39	28215.16
419.58	26913.82
419.77	27080.00
419.96	28166.01
420.15	29858.21
420.34	30726.55
420.53	31873.42
420.72	32126.19
420.91	31622.98
421.10	31192.32
421.29	31152.53
421.48	30181.21
421.67	31758.73
421.86	30300.58
422.05	28505.38
422.24	25759.94
422.43	25706.10
422.61	28397.72
422.80	30857.62
422.99	30471.43
423.18	29364.36
423.37	28727.74
423.56	28800.29
423.75	29443.94
423.94	30354.41
424.13	28205.80
424.32	28807.31
424.50	29102.22
424.69	28554.54
424.88	28858.81
425.07	28467.94
425.26	28362.61
425.45	27901.53
425.64	27850.03
425.83	27613.64
426.01	29244.99
426.20	29788.00
426.39	29926.09
426.58	27395.97
426.77	25425.24
426.96	24631.80
427.15	25731.85
427.33	27559.81
427.52	28900.94
427.71	29116.26
427.90	28400.06
428.09	28130.90
428.28	27927.27
428.46	26836.58
428.65	26101.65
428.84	27260.22
429.03	27531.72
429.22	25603.12
429.40	24444.56
429.59	22354.46
429.78	19864.13
429.97	20180.10
430.16	20006.90
430.34	20208.19
430.53	19922.64
430.72	20891.62
430.91	23119.81
431.10	27328.10
431.28	31889.80
431.47	34000.96
431.66	33820.74
431.85	31215.72
432.03	28367.29
432.22	27831.31
432.41	29130.31
432.60	31805.54
432.79	33312.84
432.97	33757.55
433.16	32814.31
433.35	29874.60
433.54	26916.16
433.72	25635.89
433.91	27096.38
434.10	29773.95
434.28	31683.83
434.47	33556.26
434.66	32198.75
434.85	31857.03
435.03	31632.34
435.22	32638.77
435.41	34845.90
435.59	34244.38
435.78	35049.52
435.97	35997.44
436.16	35885.09
436.34	35484.86
436.53	34490.13
436.72	34429.28
436.90	32861.12
437.09	33226.24
437.28	32346.20
437.46	33635.84
437.65	32992.19
437.84	30426.96
438.02	28821.36
438.21	28680.92
438.40	29986.94
438.58	32861.12
438.77	33514.13
438.96	33825.42
439.14	35194.64
439.33	35700.19
439.52	36165.96
439.70	35477.84
439.89	34628.23
440.08	33905.00
440.26	33598.39
440.45	35302.30
440.63	37181.75
440.82	39262.49
441.01	38337.98
441.19	38513.52
441.38	38642.24
441.57	40477.22
441.75	40549.78
441.94	40928.95
442.12	40381.26
442.31	41223.86
442.50	40907.88
442.68	41354.93
442.87	40191.68
443.05	39622.93
443.24	40306.37
443.43	41478.97
443.61	41666.22
443.80	42356.67
443.98	40348.50
444.17	40463.18
444.35	41666.22
444.54	42431.57
444.73	42024.32
444.91	40521.69
445.10	39091.63
445.28	37865.19
445.47	37010.89
445.65	37202.82
445.84	38550.96
446.02	39955.29
446.21	40280.62
446.39	40203.38
446.58	40809.58
446.77	41640.47
446.95	41909.63
447.14	42838.83
447.32	43402.89
447.51	42789.67
447.69	40456.16
447.88	40329.77
448.06	41448.55
448.25	42031.34
448.43	42520.51
448.62	41654.51
448.80	41495.36
448.99	41553.87
449.17	42071.13
449.36	42146.03
449.54	43365.45
449.73	44463.16
449.91	44521.67
450.10	45624.06
450.28	46232.60
450.46	45947.06
450.65	45591.30
450.83	45296.39
451.02	44858.71
451.20	44641.04
451.39	44687.85
451.57	44465.50
451.76	44369.54
451.94	43779.72
452.13	42895.00
452.31	41226.20
452.49	39875.71
452.68	40196.36
452.86	40411.69
453.05	40463.18
453.23	42021.98
453.42	42930.11
453.60	43976.33
453.78	44203.36
453.97	43636.95
454.15	43725.89
454.34	43058.84
454.52	43072.88
454.70	42036.02
454.89	42817.76
455.07	42944.15
455.26	43744.61
455.44	45130.21
455.62	45663.85
455.81	45720.02
455.99	45476.61
456.17	45158.30
456.36	45682.58
456.54	46061.74
456.73	46134.30
456.91	47143.07
457.09	47344.36
457.28	47693.10
457.46	46157.70
457.64	45530.44
457.83	44722.96
458.01	44147.18
458.19	45055.31
458.38	45359.58
458.56	46007.91
458.74	46548.57
458.93	45350.22
459.11	45647.47
459.29	45172.34
459.48	45008.50
459.66	45502.35
459.84	45322.13
460.03	46080.47
460.21	46103.87
460.39	47105.62
460.57	47468.40
460.76	47365.42
460.94	47641.60
461.12	47234.35
461.31	47442.66
461.49	47313.93
461.67	47007.32
461.85	48299.30
462.04	47861.61
462.22	48090.99
462.40	48217.38
462.59	48072.26
462.77	48018.43
462.95	48240.78
463.13	47976.30
463.32	47068.17
463.50	46700.71
463.68	46878.59
463.86	47063.49
464.05	46796.67
464.23	46026.63
464.41	45441.50
464.59	45146.59
464.78	47330.31
464.96	46590.70
465.14	46461.97
465.32	47372.44
465.50	48154.18
465.69	48793.15
465.87	47599.47
466.05	46850.50
466.23	44835.30
466.41	44046.54
466.60	45361.92
466.78	45633.42
466.96	46153.02
467.14	46749.86
467.32	47208.61
467.51	47466.06
467.69	45450.86
467.87	45996.21
468.05	46988.60
468.23	46684.33
468.41	47150.09
468.60	47203.92
468.78	47222.65
468.96	46185.79
469.14	47426.28
469.32	47943.53
469.50	46099.19
469.69	46195.15
469.87	45439.16
470.05	45492.99
470.23	45951.74
470.41	45790.24
470.59	46635.17
470.77	47049.45
470.95	47140.73
471.14	48079.28
471.32	47927.15
471.50	49588.93
471.68	50190.45
471.86	50520.46
472.04	49893.20
472.22	50021.93
472.40	48601.22
472.58	48320.36
472.77	47943.53
472.95	48846.98
473.13	49813.62
473.31	48797.83
473.49	48818.89
473.67	49429.77
473.85	49900.22
474.03	50759.20
474.21	50894.95
474.39	51239.01
474.57	51346.67
474.75	51255.39
474.93	50958.14
475.12	49991.50
475.30	50433.86
475.48	50356.63
475.66	50813.03
475.84	50403.44
476.02	50248.96
476.20	49516.37
476.38	50405.78
476.56	51243.69
476.74	52285.23
476.92	51838.18
477.10	52451.41
477.28	53256.55
477.46	53514.01
477.64	53827.64
477.82	53729.34
478.00	53865.09
478.18	53399.32
478.36	53141.86
478.54	53572.52
478.72	53532.73
478.90	54408.09
479.08	55000.25
479.26	55461.33
479.44	55150.04
479.62	55016.63
479.80	54894.92
479.98	55426.23
480.16	55285.79
480.34	54864.50
480.52	55269.41
480.70	55571.34
480.88	55683.69
481.06	56128.39
481.24	56109.66
481.41	56755.65
481.59	57539.73
481.77	57193.33
481.95	56685.43
482.13	56748.63
482.31	56839.91
482.49	57027.15
482.67	57151.20
482.85	57247.16
483.03	57499.94
483.21	58017.20
483.39	57874.43
483.57	57169.93
483.74	57345.47
483.92	57446.11
484.10	57593.56
484.28	58152.95
484.46	58415.09
484.64	58780.21
484.82	58092.10
485.00	57631.01
485.18	57186.31
485.35	56334.35
485.53	53956.37
485.71	51255.39
485.89	50941.76
486.07	52753.33
486.25	55344.31
486.43	56601.18
486.61	57120.77
486.78	56963.96
486.96	57322.06
487.14	58169.33
487.32	58805.96
487.50	59639.19
487.68	60126.02
487.85	60477.10
488.03	60404.55
488.21	60196.24
488.39	59620.47
488.57	59147.68
488.75	59107.89
488.92	59625.15
489.10	61591.20
489.28	62335.49
489.46	62714.65
489.64	62539.11
489.81	62766.15
489.99	62183.35
490.17	62660.82
490.35	63196.80
490.53	62461.88
490.70	62134.20
490.88	62309.74
491.06	62836.36
491.24	62878.49
491.41	62005.47
491.59	60935.85
491.77	60453.70
491.95	61085.64
492.13	62218.46
492.30	62995.52
492.48	63800.66
492.66	63894.28
492.84	63931.73
493.01	63678.96
493.19	63444.90
493.37	63227.23
493.54	63241.28
493.72	63744.49
493.90	64341.33
494.08	64839.86
494.25	65207.32
494.43	65357.12
494.61	65530.32
494.79	65535.00
494.96	65448.40
495.14	64631.55
495.32	64121.32
495.49	63693.00
495.67	64851.56
495.85	65535.00
496.02	65535.00
496.20	65535.00
496.38	65424.99
496.55	65443.72
496.73	65535.00
496.91	65535.00
497.09	65535.00
497.26	65535.00
497.44	65535.00
497.62	65535.00
497.79	64849.22
497.97	63959.82
498.14	64004.29
498.32	65137.11
498.50	65535.00
498.67	65535.00
498.85	65535.00
499.03	65535.00
499.20	65535.00
499.38	65535.00
499.56	65535.00
499.73	65535.00
499.91	65535.00
500.08	65279.88
500.26	64814.12
500.44	65078.60
500.61	65535.00
500.79	65354.78
500.97	65059.87
501.14	64973.27
501.32	64638.57
501.49	64935.82
501.67	65130.09
501.84	65535.00
502.02	65535.00
502.20	65535.00
502.37	65535.00
502.55	65535.00
502.72	65535.00
502.90	65535.00
503.07	65535.00
503.25	65535.00
503.43	65535.00
503.60	65193.28
503.78	64584.74
503.95	64877.31
504.13	65535.00
504.30	65535.00
504.48	65535.00
504.65	65535.00
504.83	65535.00
505.01	65535.00
505.18	65535.00
505.36	65535.00
505.53	65535.00
505.71	65535.00
505.88	65535.00
506.06	65535.00
506.23	65535.00
506.41	65535.00
506.58	65535.00
506.76	65535.00
506.93	65535.00
507.11	65535.00
507.28	65535.00
507.46	65535.00
507.63	65535.00
507.81	65535.00
507.98	65535.00
508.16	65535.00
508.33	65535.00
508.50	65535.00
508.68	65535.00
508.85	65535.00
509.03	65535.00
509.20	65535.00
509.38	65535.00
509.55	65535.00
509.73	65535.00
509.90	65535.00
510.08	65535.00
510.25	65535.00
510.42	65535.00
510.60	65535.00
510.77	65535.00
510.95	65535.00
511.12	65535.00
511.30	65535.00
511.47	65535.00
511.64	65535.00
511.82	65535.00
511.99	65535.00
512.17	65535.00
512.34	65535.00
512.51	65535.00
512.69	65535.00
512.86	65535.00
513.04	65535.00
513.21	65535.00
513.38	65535.00
513.56	65535.00
513.73	65535.00
513.90	65535.00
514.08	65535.00
514.25	65535.00
514.43	65535.00
514.60	65535.00
514.77	65535.00
514.95	65535.00
515.12	65535.00
515.29	65535.00
515.47	65535.00
515.64	65535.00
515.81	65535.00
515.99	65535.00
516.16	65535.00
516.33	65333.71
516.51	63082.12
516.68	62232.50
516.85	62052.28
517.03	62824.66
517.20	64636.23
517.37	65535.00
517.54	65535.00
517.72	65535.00
517.89	65228.39
518.06	62871.47
518.24	63746.83
518.41	65427.34
518.58	65535.00
518.75	65535.00
518.93	65535.00
519.10	65535.00
519.27	65535.00
519.45	65535.00
519.62	65535.00
519.79	65535.00
519.96	65535.00
520.14	65535.00
520.31	65535.00
520.48	65535.00
520.65	65535.00
520.83	65535.00
521.00	65535.00
521.17	65535.00
521.34	65535.00
521.52	65535.00
521.69	65535.00
521.86	65535.00
522.03	65535.00
522.20	65535.00
522.38	65535.00
522.55	65535.00
522.72	65535.00
522.89	65535.00
523.07	65535.00
523.24	65535.00
523.41	65535.00
523.58	65535.00
523.75	65535.00
523.92	65535.00
524.10	65535.00
524.27	65535.00
524.44	65535.00
524.61	65535.00
524.78	65535.00
524.96	65535.00
525.13	65535.00
525.30	65535.00
525.47	65535.00
525.64	65535.00
525.81	65535.00
525.98	65535.00
526.16	65535.00
526.33	65535.00
526.50	64734.54
526.67	64526.23
526.84	65062.21
527.01	65535.00
527.18	65535.00
527.36	65535.00
527.53	65535.00
527.70	65535.00
527.87	65535.00
528.04	65535.00
528.21	65535.00
528.38	65535.00
528.55	65535.00
528.72	65535.00
528.89	65535.00
529.07	65535.00
529.24	65535.00
529.41	65535.00
529.58	65535.00
529.75	65535.00
529.92	65535.00
530.09	65535.00
530.26	65535.00
530.43	65535.00
530.60	65535.00
530.77	65535.00
530.94	65535.00
531.11	65535.00
531.28	65535.00
531.46	65535.00
531.63	65535.00
531.80	65535.00
531.97	65535.00
532.14	65535.00
532.31	65535.00
532.48	65535.00
532.65	65535.00
532.82	65535.00
532.99	65535.00
533.16	65535.00
533.33	65535.00
533.50	65535.00
533.67	65535.00
533.84	65535.00
534.01	65535.00
534.18	65535.00
534.35	65535.00
534.52	65535.00
534.69	65535.00
534.86	65535.00
535.03	65535.00
535.20	65535.00
535.37	65535.00
535.54	65535.00
535.71	65535.00
535.88	65535.00
536.05	65535.00
536.22	65535.00
536.38	65535.00
536.55	65535.00
536.72	65535.00
536.89	65535.00
537.06	65535.00
537.23	65535.00
537.40	65535.00
537.57	65535.00
537.74	65535.00
537.91	65535.00
538.08	65535.00
538.25	65535.00
538.42	65535.00
538.59	65535.00
538.75	65535.00
538.92	65535.00
539.09	65535.00
539.26	65535.00
539.43	65535.00
539.60	65535.00
539.77	65535.00
539.94	65535.00
540.11	65535.00
540.28	65535.00
540.44	65535.00
540.61	65535.00
540.78	65535.00
540.95	65535.00
541.12	65535.00
541.29	65535.00
541.46	65535.00
541.62	65535.00
541.79	65535.00
541.96	65535.00
542.13	65535.00
542.30	65535.00
542.47	65535.00
542.63	65535.00
542.80	65535.00
542.97	65535.00
543.14	65535.00
543.31	65535.00
543.48	65535.00
543.64	65535.00
543.81	65535.00
543.98	65535.00
544.15	65535.00
544.32	65535.00
544.48	65535.00
544.65	65535.00
544.82	65535.00
544.99	65535.00
545.16	65535.00
545.32	65535.00
545.49	65535.00
545.66	65535.00
545.83	65535.00
546.00	65535.00
546.16	65535.00
546.33	65535.00
546.50	65535.00
546.67	65535.00
546.83	65535.00
547.00	65535.00
547.17	65535.00
547.34	65535.00
547.50	65535.00
547.67	65535.00
547.84	65535.00
548.00	65535.00
548.17	65535.00
548.34	65535.00
548.51	65535.00
548.67	65535.00
548.84	65535.00
549.01	65535.00
549.18	65535.00
549.34	65535.00
549.51	65535.00
549.68	65535.00
549.84	65535.00
550.01	65535.00
550.18	65535.00
550.34	65535.00
550.51	65535.00
550.68	65535.00
550.84	65535.00
551.01	65535.00
551.18	65535.00
551.34	65535.00
551.51	65535.00
551.68	65535.00
551.84	65535.00
552.01	65535.00
552.18	65535.00
552.34	65535.00
552.51	65535.00
552.68	65535.00
552.84	65535.00
553.01	65535.00
553.18	65535.00
553.34	65535.00
553.51	65535.00
553.67	65535.00
553.84	65535.00
554.01	65535.00
554.17	65535.00
554.34	65535.00
554.51	65535.00
554.67	65535.00
554.84	65535.00
555.00	65535.00
555.17	65535.00
555.33	65535.00
555.50	65535.00
555.67	65535.00
555.83	65535.00
556.00	65535.00
556.16	65535.00
556.33	65535.00
556.50	65535.00
556.66	65535.00
556.83	65535.00
556.99	65535.00
557.16	65535.00
557.32	65535.00
557.49	65535.00
557.65	65535.00
557.82	65535.00
557.98	65535.00
558.15	65535.00
558.32	64968.59
558.48	64236.00
558.65	64629.21
558.81	64973.27
558.98	64970.93
559.14	65127.75
559.31	65434.36
559.47	65378.18
559.64	65062.21
559.80	64788.37
559.97	64961.57
560.13	65209.67
560.30	65535.00
560.46	65535.00
560.63	65535.00
560.79	65535.00
560.96	65535.00
561.12	65350.10
561.29	64463.03
561.45	64832.84
561.61	65162.85
561.78	65535.00
561.94	65247.11
562.11	65200.30
562.27	65153.49
562.44	65450.74
562.60	65535.00
562.77	65535.00
562.93	65535.00
563.10	65535.00
563.26	65254.14
563.42	65251.80
563.59	65406.27
563.75	65099.66
563.92	65298.61
564.08	65085.62
564.24	65535.00
564.41	65324.35
564.57	65366.48
564.74	65071.57
564.90	64996.68
565.07	64835.18
565.23	64750.92
565.39	64224.30
565.56	64123.66
565.72	63700.02
565.88	64191.53
566.05	64360.05
566.21	64198.55
566.38	64575.38
566.54	64811.77
566.70	64783.69
566.87	65125.41
567.03	64935.82
567.19	65130.09
567.36	65041.15
567.52	64865.61
567.68	64456.01
567.85	64037.06
568.01	63943.44
568.17	63615.76
568.34	63690.66
568.50	63550.23
568.66	63676.61
568.83	64008.97
568.99	63929.39
569.15	64175.15
569.32	64243.02
569.48	64212.60
569.64	63898.97
569.81	63646.19
569.97	63732.79
570.13	63627.46
570.30	63194.46
570.46	62754.44
570.62	62513.37
570.78	62379.96
570.95	62532.09
571.11	63072.76
571.27	63351.28
571.43	63669.59
571.60	63903.65
571.76	63763.21
571.92	64224.30
572.09	64285.15
572.25	64212.60
572.41	64079.19
572.57	63994.93
572.74	64011.31
572.90	63674.27
573.06	63564.27
573.22	63835.77
573.38	63777.26
573.55	63730.45
573.71	63763.21
573.87	63791.30
574.03	63578.31
574.20	63653.21
574.36	63341.92
574.52	63290.43
574.68	63234.25
574.84	62679.55
575.01	62351.87
575.17	62375.28
575.33	62721.68
575.49	63047.01
575.65	63079.78
575.82	62770.83
575.98	62447.83
576.14	62677.21
576.30	63201.49
576.46	63149.99
576.62	63023.61
576.79	63208.51
576.95	62887.85
577.11	62819.98
577.27	62754.44
577.43	62925.30
577.59	62358.89
577.75	62063.99
577.92	61528.00
578.08	61361.82
578.24	61680.14
578.40	61755.03
578.56	61956.32
578.72	62031.22
578.88	62239.53
579.04	62288.68
579.21	62468.90
579.37	62330.81
579.53	62489.96
579.69	62548.48
579.85	62632.74
580.01	62232.50
580.17	62085.05
580.33	61956.32
580.49	62003.13
580.65	62459.54
580.82	62326.13
580.98	62536.77
581.14	62274.63
581.30	62370.60
581.46	62417.41
581.62	62578.90
581.78	62614.01
581.94	62560.18
582.10	62738.06
582.26	62651.46
582.42	62609.33
582.58	62763.81
582.74	62621.03
582.90	62714.65
583.06	62583.58
583.22	62375.28
583.38	62382.30
583.54	62480.60
583.70	62241.87
583.86	62389.32
584.02	62302.72
584.18	62335.49
584.34	62211.44
584.50	62286.34
584.66	62124.84
584.82	61748.01
584.98	61680.14
585.14	61511.62
585.30	60839.89
585.46	60711.16
585.62	60748.60
585.78	61155.86
585.94	61057.56
586.10	61319.70
586.26	61488.21
586.42	61591.20
586.58	61841.63
586.74	61654.39
586.90	61394.59
587.06	61343.10
587.22	61467.15
587.38	60992.02
587.54	61041.17
587.70	61181.60
587.86	60732.22
588.02	60657.32
588.18	60619.88
588.34	59580.68
588.49	58307.43
588.65	56919.49
588.81	56832.89
588.97	56975.66
589.13	56568.41
589.29	56875.02
589.45	57488.24
589.61	58342.53
589.77	59100.87
589.93	59627.49
590.08	60165.81
590.24	60123.68
590.40	60168.15
590.56	60357.74
590.72	60116.66
590.88	59737.49
591.04	60027.72
591.20	59796.01
591.35	59599.40
591.51	60062.83
591.67	59725.79
591.83	59657.91
591.99	59955.16
592.15	60102.62
592.31	60158.79
592.46	59821.75
592.62	59693.02
592.78	59763.24
592.94	59653.23
593.10	59882.61
593.26	59950.48
593.41	59948.14
593.57	59887.29
593.73	59503.44
593.89	59409.82
594.05	59187.47
594.20	58873.84
594.36	58824.68
594.52	58597.65
594.68	58419.77
594.84	58644.46
594.99	59231.94
595.15	59348.96
595.31	59203.85
595.47	59241.30
595.62	59435.56
595.78	59487.06
595.94	59847.50
596.10	59807.71
596.25	59311.52
596.41	59238.96
596.57	59096.19
596.73	59175.76
596.88	59339.60
597.04	59231.94
597.20	59030.65
597.36	58658.51
597.51	59114.91
597.67	58995.54
597.83	58747.45
597.99	58735.74
598.14	58422.11
598.30	58646.80
598.46	58674.89
598.61	58614.04
598.77	58553.18
598.93	58885.54
599.09	59058.74
599.24	58965.12
599.40	58810.64
599.56	58873.84
599.71	59040.01
599.87	59054.06
600.03	58719.36
600.18	58738.08
600.34	58379.98
600.50	58211.46
600.65	58258.27
600.81	58532.12
600.97	58251.25
601.12	58265.30
601.28	58190.40
601.44	57925.92
601.59	57741.02
601.75	57528.03
601.91	57656.76
602.06	57865.06
602.22	57930.60
602.37	57911.88
602.53	57939.96
602.69	58370.62
602.84	58492.33
603.00	58724.04
603.16	58609.35
603.31	58834.05
603.47	58719.36
603.62	58501.69
603.78	58417.43
603.94	58113.16
604.09	58379.98
604.25	58391.68
604.40	58169.33
604.56	58094.44
604.71	58262.96
604.87	58204.44
605.03	58045.29
605.18	57848.68
605.34	57897.83
605.49	58012.52
605.65	57975.07
605.80	57886.13
605.96	57556.11
606.12	57553.77
606.27	57574.84
606.43	57736.34
606.58	57600.58
606.74	57820.59
606.89	57841.66
607.05	57771.44
607.20	57787.83
607.36	57642.71
607.51	57202.69
607.67	56980.34
607.82	57111.41
607.98	56821.19
608.13	56715.86
608.29	56905.44
608.44	56807.14
608.60	56535.64
608.75	56788.42
608.91	56842.25
609.06	56872.68
609.22	57120.77
609.37	56807.14
609.53	56860.97
609.68	56470.11
609.84	55987.95
609.99	55599.43
610.15	55650.92
610.30	55875.61
610.46	56207.97
610.61	56364.78
610.76	56615.22
610.92	56935.87
611.07	57141.84
611.23	56762.67
611.38	56776.72
611.54	56495.85
611.69	56233.71
611.84	55580.70
612.00	55648.58
612.15	55185.15
612.31	55536.23
612.46	55529.21
612.62	55330.26
612.77	55938.80
612.92	55896.67
613.08	55194.51
613.23	54803.64
613.39	54326.17
613.54	54183.40
613.69	54216.17
613.85	54564.91
614.00	54595.34
614.15	54995.57
614.31	54920.67
614.46	55597.09
614.62	55370.05
614.77	55147.70
614.92	55105.57
615.08	55185.15
615.23	55030.68
615.38	54714.70
615.54	54197.44
615.69	53441.45
615.84	52917.17
616.00	53045.90
616.15	53027.18
616.30	53645.08
616.46	53530.39
616.61	53373.58
616.76	53799.55
616.92	53778.49
617.07	54007.86
617.22	53984.46
617.37	54288.73
617.53	54284.04
617.68	54717.04
617.83	54768.54
617.99	54656.19
618.14	54576.61
618.29	54508.74
618.45	54347.24
618.60	53680.19
618.75	53595.93
618.90	53574.86
619.06	53731.68
619.21	54064.03
619.36	54335.54
619.51	54291.07
619.67	53944.67
619.82	54017.22
619.97	54087.44
620.12	53895.52
620.28	54319.15
620.43	54183.40
620.58	54295.75
620.73	53827.64
620.89	53476.56
621.04	53455.50
621.19	53015.47
621.34	52903.13
621.49	52631.63
621.65	52587.16
621.80	52886.74
621.95	52640.99
622.10	53109.10
622.25	52758.02
622.41	52388.21
622.56	51959.89
622.71	51594.77
622.86	51753.93
623.01	51817.12
623.16	52207.99
623.32	52100.32
623.47	52463.11
623.62	52252.46
623.77	51772.65
623.92	51751.59
624.07	51199.22
624.23	50831.75
624.38	50688.98
624.53	51061.13
624.68	51086.87
624.83	51150.07
624.98	51026.02
625.13	50237.26
625.29	50670.26
625.44	50363.65
625.59	50576.64
625.74	50555.57
625.89	50623.45
626.04	50810.69
626.19	50944.10
626.34	50635.15
626.49	50810.69
626.65	50607.06
626.80	50653.87
626.95	50616.43
627.10	50426.84
627.25	49537.44
627.40	48430.36
627.55	47821.83
627.70	47334.99
627.85	47838.21
628.00	48325.04
628.15	48774.42
628.30	49202.74
628.45	49165.29
628.60	49366.58
628.76	49371.26
628.91	49249.55
629.06	49134.87
629.21	48772.08
629.36	48512.28
629.51	47880.34
629.66	48205.67
629.81	47374.78
629.96	47283.50
630.11	48154.18
630.26	48505.26
630.41	48577.82
630.56	48280.57
630.71	48566.12
630.86	48137.80
631.01	48308.66
631.16	47538.62
631.31	47114.98
631.46	46815.40
631.61	47227.33
631.76	47180.52
631.91	47819.49
632.06	47810.12
632.21	48678.46
632.36	48540.37
632.51	47948.21
632.66	48287.59
632.81	47950.56
632.96	47973.96
633.10	47388.83
633.25	47040.09
633.40	47070.51
633.55	47681.39
633.70	47412.23
633.85	46937.10
634.00	47461.38
634.15	47395.85
634.30	47522.24
634.45	47344.36
634.60	47592.45
634.75	47466.06
634.90	47412.23
635.05	47367.76
635.19	47133.71
635.34	47091.58
635.49	47061.15
635.64	47070.51
635.79	46625.81
635.94	46183.45
636.09	46454.95
636.24	46667.94
636.39	46920.72
636.53	47185.20
636.68	46529.85
636.83	46925.40
636.98	47281.16
637.13	47243.71
637.28	47714.16
637.43	46576.66
637.57	47297.55
637.72	46857.52
637.87	46564.96
638.02	46796.67
638.17	46363.67
638.32	46270.05
638.46	46539.21
638.61	46461.97
638.76	46122.60
638.91	45785.56
639.06	45666.19
639.20	45251.92
639.35	44964.03
639.50	44519.33
639.65	44264.21
639.80	45148.93
639.94	45352.56
640.09	45067.02
640.24	44996.80
640.39	44811.90
640.54	43976.33
640.68	44371.88
640.83	44030.16
640.98	43463.75
641.13	43985.69
641.27	44524.01
641.42	43831.21
641.57	44158.89
641.72	43552.69
641.86	44004.41
642.01	43777.38
642.16	43770.36
642.31	44327.41
642.45	44348.47
642.60	43903.77
642.75	44100.37
642.90	44053.56
643.04	43828.87
643.19	43749.29
643.34	43871.00
643.48	43702.48
643.63	43985.69
643.78	43599.50
643.93	44236.12
644.07	44439.75
644.22	44149.53
644.37	43693.12
644.51	43782.06
644.66	43475.45
644.81	43171.18
644.95	43178.20
645.10	42625.84
645.25	42305.18
645.39	42241.99
645.54	41918.99
645.69	41818.35
645.83	41411.10
645.98	41647.49
646.13	41125.55
646.27	41441.53
646.42	41668.56
646.57	41411.10
646.71	41361.95
646.86	41235.56
647.00	40975.76
647.15	40603.61
647.30	40168.27
647.44	39976.35
647.59	39948.26
647.74	40299.34
647.88	40067.63
648.03	39882.73
648.17	40215.08
648.32	40187.00
648.47	40451.48
648.61	40306.37
648.76	40002.10
648.90	39208.65
649.05	38014.98
649.20	37198.13
649.34	37453.25
649.49	37617.09
649.63	38726.50
649.78	39482.50
649.92	39524.63
650.07	40332.11
650.21	40509.99
650.36	40189.34
650.51	40832.99
650.65	41109.17
650.80	41305.77
650.94	40306.37
651.09	39494.20
651.23	38939.49
651.38	38373.08
651.52	38417.55
651.67	39100.99
651.81	39241.42
651.96	39124.40
652.10	39407.60
652.25	39576.12
652.39	39533.99
652.54	39983.37
652.68	39175.89
652.83	39318.66
652.97	39489.52
653.12	39494.20
653.26	39082.27
653.41	39501.22
653.55	39447.39
653.70	39529.31
653.84	39669.74
653.99	38958.22
654.13	38550.96
654.27	38218.61
654.42	37549.21
654.56	37844.12
654.71	37792.63
654.85	37759.86
655.00	37317.50
655.14	36744.07
655.29	36378.95
655.43	35356.13
655.57	33684.99
655.72	31819.58
655.86	29340.96
656.01	28264.31
656.15	28142.60
656.30	30113.33
656.44	32037.25
656.58	33226.24
656.73	34036.07
656.87	34782.70
657.01	35318.68
657.16	35768.07
657.30	35981.06
657.45	36472.57
657.59	36947.70
657.73	36893.86
657.88	36699.60
658.02	36540.44
658.16	36596.62
658.31	36617.68
658.45	36154.26
658.60	36395.33
658.74	36507.68
658.88	35477.84
659.03	35407.62
659.17	35271.87
659.31	35182.93
659.46	35690.83
659.60	36645.77
659.74	36582.57
659.89	36751.09
660.03	36835.35
660.17	36788.54
660.32	36519.38
660.46	36355.54
660.60	36046.59
660.74	35992.76
660.89	35840.62
661.03	35641.68
661.17	36147.23
661.32	35646.36
661.46	36016.16
661.60	35943.61
661.74	35693.17
661.89	36404.69
662.03	35810.20
662.17	35552.74
662.31	35248.47
662.46	35194.64
662.60	35278.89
662.74	35037.82
662.88	34660.99
663.03	34281.83
663.17	34050.11
663.31	34398.85
663.45	34213.95
663.60	34644.61
663.74	34499.50
663.88	34373.11
664.02	34026.71
664.17	33881.60
664.31	33656.90
664.45	34012.66
664.59	33816.06
664.73	34136.71
664.88	34541.63
665.02	33881.60
665.16	33956.49
665.30	33544.56
665.44	33755.21
665.59	33490.73
665.73	33418.17
665.87	32692.60
666.01	32816.65
666.15	32723.03
666.29	32840.06
666.44	32914.95
666.58	33291.78
666.72	33139.65
666.86	33237.95
667.00	33457.96
667.14	33186.46
667.28	32975.81
667.43	32514.72
667.57	32355.57
667.71	32451.53
667.85	32491.32
667.99	32212.79
668.13	32294.71
668.27	32058.32
668.41	32252.58
668.56	32339.18
668.70	32095.77
668.84	31669.79
668.98	31866.39
669.12	31747.03
669.26	31747.03
669.40	31379.56
669.54	31374.88
669.68	31269.56
669.82	31571.49
669.96	31180.62
670.10	30855.28
670.25	30740.60
670.39	30691.44
670.53	30742.94
670.67	30623.57
670.81	30504.20
670.95	30419.94
671.09	29977.58
671.23	29942.47
671.37	29654.59
671.51	29537.56
671.65	29942.47
671.79	30019.71
671.93	30338.02
672.07	30401.22
672.21	30494.84
672.35	30253.76
672.49	29846.51
672.63	30139.08
672.77	29806.72
672.91	29600.76
673.05	29727.14
673.19	29266.06
673.33	29408.83
673.47	29050.73
673.61	28933.70
673.75	28933.70
673.89	29488.41
674.03	29329.25
674.17	28535.81
674.31	28943.06
674.45	28514.75
674.59	27997.49
674.73	28465.60
674.87	28065.36
675.01	28079.41
675.15	27997.49
675.29	28077.07
675.43	27901.53
675.56	28133.24
675.70	28268.99
675.84	28046.64
675.98	27513.00
676.12	27929.61
676.26	27592.58
676.40	27290.65
676.54	27096.38
676.68	27065.96
676.82	26654.02
676.96	27171.28
677.10	26637.64
677.23	26712.53
677.37	26876.37
677.51	26649.34
677.65	26651.68
677.79	26431.67
677.93	26394.22
678.07	26085.27
678.21	25940.16
678.34	25680.36
678.48	25600.78
678.62	25383.11
678.76	25907.39
678.90	25855.90
679.04	25425.24
679.18	25785.68
679.31	25495.46
679.45	25322.26
679.59	25048.41
679.73	25563.33
679.87	25301.19
680.00	24973.52
680.14	24891.60
680.28	24793.29
680.42	24350.93
680.56	24350.93
680.70	24077.09
680.83	24121.56
680.97	23896.87
681.11	24112.20
681.25	23679.20
681.39	23903.89
681.52	23590.26
681.66	23936.66
681.80	23796.23
681.94	23814.95
682.07	23630.05
682.21	24067.73
682.35	23300.03
682.49	23239.18
682.62	23026.19
682.76	22801.50
682.90	22726.60
683.04	22946.61
683.17	23541.11
683.31	23014.49
683.45	22436.38
683.59	21954.22
683.72	22120.40
683.86	21771.66
684.00	21603.14
684.13	21635.91
684.27	21774.00
684.41	21575.06
684.55	21441.65
684.68	21472.07
684.82	21523.57
684.96	21612.51
685.09	20891.62
685.23	20936.09
685.37	20751.19
685.50	20498.41
685.64	20444.58
685.78	20575.65
685.91	20943.11
686.05	20423.51
686.19	19805.61
686.32	18750.03
686.46	16456.31
686.60	14560.47
686.73	13413.61
686.87	12863.58
687.01	12945.50
687.14	13064.87
687.28	13371.48
687.42	13893.42
687.55	14618.99
687.69	15740.10
687.82	16194.17
687.96	16702.06
688.10	16547.59
688.23	16596.74
688.37	16360.34
688.50	16126.29
688.64	15555.20
688.78	15470.94
688.91	15974.16
689.05	15536.48
689.18	15587.97
689.32	15124.54
689.46	15260.29
689.59	15733.08
689.73	15861.81
689.86	15791.59
690.00	15538.82
690.13	15920.32
690.27	15925.00
690.41	16060.76
690.54	15868.83
690.68	16011.60
690.81	16166.08
690.95	15796.28
691.08	15962.45
691.22	16243.32
691.35	15964.79
691.49	15852.45
691.62	15934.37
691.76	16336.94
691.89	15822.02
692.03	15709.68
692.16	15704.99
692.30	15651.16
692.43	15470.94
692.57	15602.01
692.70	15321.15
692.84	15318.81
692.97	14906.87
693.11	15257.95
693.24	14956.02
693.38	14757.08
693.51	15215.82
693.65	14513.66
693.78	14389.61
693.92	14310.04
694.05	14295.99
694.19	14359.19
694.32	14335.78
694.45	14071.30
694.59	14155.56
694.72	14380.25
694.86	14214.07
694.99	14174.28
695.13	14167.26
695.26	13659.37
695.39	13769.37
695.53	14003.43
695.66	13720.22
695.80	13944.91
695.93	13802.14
696.07	13923.85
696.20	13984.70
696.33	14193.01
696.47	14541.75
696.60	14340.46
696.73	14291.31
696.87	14270.25
697.00	14293.65
697.14	14106.41
697.27	13949.59
697.40	13439.36
697.54	13554.04
697.67	13298.92
697.80	12877.63
697.94	13139.77
698.07	12868.27
698.21	12959.55
698.34	13041.46
698.47	12594.42
698.61	12383.77
698.74	12461.01
698.87	12507.82
699.01	12133.34
699.14	12428.24
699.27	12491.44
699.40	12603.78
699.54	12245.68
699.67	12154.40
699.80	12084.19
699.94	12191.85
700.07	11838.43
700.20	11808.00
700.34	11410.11
700.47	11339.90
700.60	11538.84
700.73	11529.48
700.87	11597.35
701.00	11138.61
701.13	11316.49
701.26	11363.30
701.40	11131.59
701.53	11101.16
701.66	11375.00
701.79	11122.23
701.93	11035.63
702.06	11000.52
702.19	10855.40
702.32	11042.65
702.46	10860.09
702.59	10951.37
702.72	10768.80
702.85	10876.47
702.99	11009.88
703.12	10778.17
703.25	10834.34
703.38	10729.02
703.51	10764.12
703.65	10478.58
703.78	10298.36
703.91	10235.16
704.04	10532.41
704.17	10441.13
704.31	10654.12
704.44	10621.35
704.57	10855.40
704.70	10616.67
704.83	10399.00
704.96	10101.75
705.10	10054.94
705.23	9834.93
>>>>>End Processed Spectral Data<<<<<
