SpectraSuite Data File
++++++++++++++++++++++++++++++++++++
Date: Mon Oct 07 14:54:56 GMT-05:00 2013
User: price-jones
Dark Spectrum Present: No
Reference Spectrum Present: No
Number of Sampled Component Spectra: 1
Spectrometers: USB2+H05261
Integration Time (usec): 10000 (USB2+H05261)
Spectra Averaged: 1 (USB2+H05261)
Boxcar Smoothing: 0 (USB2+H05261)
Correct for Electrical Dark: No (USB2+H05261)
Strobe/Lamp Enabled: No (USB2+H05261)
Correct for Detector Non-linearity: No (USB2+H05261)
Correct for Stray Light: No (USB2+H05261)
Number of Pixels in Processed Spectrum: 2048
>>>>>Begin Processed Spectral Data<<<<<
365.73	0.00
365.92	0.00
366.12	0.00
366.32	0.00
366.52	0.00
366.72	0.00
366.91	0.00
367.11	0.00
367.31	0.00
367.51	0.00
367.70	0.00
367.90	0.00
368.10	0.00
368.30	0.00
368.49	0.00
368.69	0.00
368.89	0.00
369.09	0.00
369.28	0.00
369.48	0.00
369.68	0.00
369.87	0.00
370.07	0.00
370.27	0.00
370.47	0.00
370.66	259.80
370.86	346.40
371.06	411.93
371.25	379.17
371.45	252.78
371.65	337.04
371.84	248.10
372.04	308.95
372.24	400.23
372.44	484.49
372.63	388.53
372.83	339.38
373.03	294.91
373.22	177.88
373.42	271.50
373.62	266.82
373.81	418.96
374.01	381.51
374.21	372.15
374.40	287.89
374.60	330.02
374.79	395.55
374.99	458.74
375.19	482.15
375.38	524.28
375.58	507.90
375.78	440.02
375.97	500.87
376.17	477.47
376.37	435.34
376.56	517.26
376.76	631.94
376.95	620.24
377.15	671.73
377.35	709.18
377.54	770.04
377.74	641.31
377.93	688.12
378.13	753.65
378.33	629.60
378.52	589.82
378.72	557.05
378.91	624.92
379.11	571.09
379.31	397.89
379.50	496.19
379.70	540.66
379.89	662.37
380.09	709.18
380.28	692.80
380.48	732.59
380.68	599.18
380.87	643.65
381.07	571.09
381.26	479.81
381.46	407.25
381.65	388.53
381.85	489.17
382.04	355.76
382.24	351.08
382.43	374.49
382.63	355.76
382.83	285.55
383.02	231.71
383.22	292.57
383.41	252.78
383.61	404.91
383.80	444.70
384.00	566.41
384.19	610.88
384.39	603.86
384.58	624.92
384.78	603.86
384.97	617.90
385.17	624.92
385.36	580.45
385.56	505.56
385.75	538.32
385.95	617.90
386.14	751.31
386.34	702.16
386.53	624.92
386.72	564.07
386.92	645.99
387.11	573.43
387.31	645.99
387.50	594.50
387.70	718.54
387.89	608.54
388.09	631.94
388.28	641.31
388.48	631.94
388.67	676.41
388.86	798.12
389.06	868.34
389.25	983.02
389.45	915.15
389.64	938.55
389.84	905.79
390.03	861.32
390.22	847.27
390.42	926.85
390.61	957.28
390.81	1001.75
391.00	1114.10
391.19	1125.80
391.39	915.15
391.58	802.80
391.78	851.96
391.97	866.00
392.16	791.10
392.36	706.84
392.55	421.30
392.75	393.21
392.94	203.63
393.13	255.12
393.33	241.08
393.52	451.72
393.71	519.60
393.91	725.57
394.10	732.59
394.29	842.59
394.49	926.85
394.68	1095.37
394.88	1083.67
395.07	1177.29
395.26	1142.18
395.46	997.07
395.65	961.96
395.84	851.96
396.04	657.69
396.23	491.51
396.42	465.77
396.62	393.21
396.81	479.81
397.00	662.37
397.19	802.80
397.39	1090.69
397.58	1247.51
397.77	1275.59
397.97	1378.58
398.16	1401.98
398.35	1399.64
398.55	1446.45
398.74	1542.41
398.93	1678.16
399.12	1600.93
399.32	1495.60
399.51	1453.47
399.70	1591.56
399.90	1703.91
400.09	1614.97
400.28	1652.42
400.47	1605.61
400.67	1657.10
400.86	1727.32
401.05	1689.87
401.24	1820.94
401.44	1844.34
401.63	1788.17
401.82	1774.13
402.01	1696.89
402.21	1834.98
402.40	1809.23
402.59	1696.89
402.78	1638.38
402.97	1577.52
403.17	1568.16
403.36	1785.83
403.55	1891.15
403.74	1818.60
403.93	1746.04
404.13	1696.89
404.32	1624.33
404.51	1621.99
404.70	1769.44
404.89	1795.19
405.09	1760.08
405.28	1720.29
405.47	1734.34
405.66	1673.48
405.85	1619.65
406.05	1626.67
406.24	1598.59
406.43	1703.91
406.62	1823.28
406.81	1820.94
407.00	1743.70
407.20	1598.59
407.39	1727.32
407.58	1706.25
407.77	1790.51
407.96	1891.15
408.15	2001.16
408.34	1942.64
408.54	2054.99
408.73	2031.58
408.92	1914.56
409.11	1980.09
409.30	1827.96
409.49	1757.74
409.68	1568.16
409.87	1451.13
410.07	1621.99
410.26	1743.70
410.45	1930.94
410.64	1989.46
410.83	1980.09
411.02	2101.80
411.21	2200.10
411.40	2015.20
411.59	2176.70
411.78	2090.10
411.98	2078.40
412.17	2104.14
412.36	2008.18
412.55	1998.82
412.74	2118.18
412.93	2015.20
413.12	2040.95
413.31	2195.42
413.50	2282.02
413.69	2265.64
413.88	2094.78
414.07	2104.14
414.26	2169.68
414.45	2256.28
414.64	2122.87
414.83	2272.66
415.02	2047.97
415.22	2150.95
415.41	2387.35
415.60	2139.25
415.79	2389.69
415.98	2403.73
416.17	2328.83
416.36	2300.75
416.55	2445.86
416.74	2256.28
416.93	2275.00
417.12	2221.17
417.31	2216.49
417.50	2239.89
417.69	2286.70
417.88	2279.68
418.07	2251.60
418.26	2279.68
418.45	2328.83
418.64	2286.70
418.83	2385.01
419.02	2319.47
419.21	2394.37
419.39	2181.38
419.58	2097.12
419.77	2085.42
419.96	2324.15
420.15	2333.51
420.34	2403.73
420.53	2539.48
420.72	2593.31
420.91	2567.57
421.10	2511.39
421.29	2394.37
421.48	2406.07
421.67	2597.99
421.86	2452.88
422.05	2291.38
422.24	2038.61
422.43	1949.67
422.61	2197.76
422.80	2427.14
422.99	2326.49
423.18	2260.96
423.37	2349.90
423.56	2230.53
423.75	2324.15
423.94	2347.56
424.13	2169.68
424.32	2237.55
424.50	2167.34
424.69	2181.38
424.88	2267.98
425.07	2260.96
425.26	2143.93
425.45	2305.43
425.64	2239.89
425.83	2181.38
426.01	2284.36
426.20	2359.26
426.39	2319.47
426.58	2181.38
426.77	1975.41
426.96	1846.68
427.15	1937.96
427.33	2165.00
427.52	2104.14
427.71	2314.79
427.90	2270.32
428.09	2094.78
428.28	2118.18
428.46	2033.93
428.65	1963.71
428.84	2033.93
429.03	2078.40
429.22	2026.90
429.40	1954.35
429.59	1703.91
429.78	1507.30
429.97	1448.79
430.16	1448.79
430.34	1507.30
430.53	1526.03
430.72	1493.26
430.91	1671.14
431.10	1949.67
431.28	2476.29
431.47	2740.77
431.66	2731.41
431.85	2340.54
432.03	2150.95
432.22	2106.48
432.41	2228.19
432.60	2368.62
432.79	2455.22
432.97	2700.98
433.16	2504.37
433.35	2321.81
433.54	2040.95
433.72	1952.01
433.91	2036.27
434.10	2209.47
434.28	2485.65
434.47	2518.42
434.66	2469.27
434.85	2333.51
435.03	2275.00
435.22	2349.90
435.41	2658.85
435.59	2537.14
435.78	2698.64
435.97	2778.22
436.16	2822.69
436.34	2722.04
436.53	2579.27
436.72	2705.66
436.90	2487.99
437.09	2473.95
437.28	2377.98
437.46	2539.48
437.65	2572.25
437.84	2282.02
438.02	2143.93
438.21	2118.18
438.40	2300.75
438.58	2485.65
438.77	2471.61
438.96	2487.99
439.14	2651.83
439.33	2717.36
439.52	2789.92
439.70	2696.30
439.89	2569.91
440.08	2513.74
440.26	2698.64
440.45	2775.88
440.63	2920.99
440.82	2963.12
441.01	2860.13
441.19	2876.52
441.38	3028.65
441.57	2998.23
441.75	3094.19
441.94	3110.57
442.12	3152.70
442.31	3162.06
442.50	3098.87
442.68	3178.45
442.87	2995.89
443.05	2986.52
443.24	2928.01
443.43	3166.74
443.61	3251.00
443.80	3328.24
443.98	3073.12
444.17	2972.48
444.35	3260.37
444.54	3300.16
444.73	3194.83
444.91	3122.27
445.10	2860.13
445.28	2855.45
445.47	2705.66
445.65	2841.41
445.84	2897.58
446.02	2965.46
446.21	3117.59
446.39	2965.46
446.58	3096.53
446.77	3131.64
446.95	3267.39
447.14	3192.49
447.32	3272.07
447.51	3112.91
447.69	3068.44
447.88	3068.44
448.06	3089.51
448.25	3103.55
448.43	3169.09
448.62	3138.66
448.80	3016.95
448.99	3049.72
449.17	3047.38
449.36	3131.64
449.54	3283.77
449.73	3342.28
449.91	3302.50
450.10	3339.94
450.28	3513.14
450.46	3618.47
450.65	3592.72
450.83	3393.78
451.02	3375.05
451.20	3272.07
451.39	3330.58
451.57	3258.03
451.76	3279.09
451.94	3232.28
452.13	3152.70
452.31	3119.93
452.49	2780.56
452.68	2932.69
452.86	3087.17
453.05	2939.71
453.23	3056.74
453.42	3159.72
453.60	3274.41
453.78	3398.46
453.97	3199.51
454.15	3248.66
454.34	3103.55
454.52	3290.79
454.70	3009.93
454.89	3056.74
455.07	3045.04
455.26	3166.74
455.44	3389.10
455.62	3365.69
455.81	3478.04
455.99	3321.22
456.17	3269.73
456.36	3459.31
456.54	3351.65
456.73	3447.61
456.91	3480.38
457.09	3569.32
457.28	3611.45
457.46	3503.78
457.64	3398.46
457.83	3183.13
458.01	3164.40
458.19	3368.03
458.38	3384.41
458.56	3438.25
458.74	3361.01
458.93	3222.92
459.11	3316.54
459.29	3236.96
459.48	3251.00
459.66	3129.30
459.84	3344.63
460.03	3410.16
460.21	3445.27
460.39	3428.88
460.57	3496.76
460.76	3541.23
460.94	3485.06
461.12	3461.65
461.31	3442.93
461.49	3529.53
461.67	3356.33
461.85	3698.05
462.04	3463.99
462.22	3555.27
462.40	3543.57
462.59	3552.93
462.77	3548.25
462.95	3550.59
463.13	3412.50
463.32	3426.54
463.50	3480.38
463.68	3496.76
463.86	3449.95
464.05	3386.76
464.23	3337.60
464.41	3295.47
464.59	3183.13
464.78	3475.70
464.96	3375.05
465.14	3344.63
465.32	3391.44
465.50	3440.59
465.69	3391.44
465.87	3377.39
466.05	3311.86
466.23	3166.74
466.41	3152.70
466.60	3234.62
466.78	3234.62
466.96	3295.47
467.14	3323.56
467.32	3456.97
467.51	3503.78
467.69	3201.85
467.87	3316.54
468.05	3323.56
468.23	3456.97
468.41	3463.99
468.60	3356.33
468.78	3361.01
468.96	3316.54
469.14	3494.42
469.32	3349.31
469.50	3150.36
469.69	3368.03
469.87	3342.28
470.05	3281.43
470.23	3260.37
470.41	3279.09
470.59	3251.00
470.77	3337.60
470.95	3386.76
471.14	3466.33
471.32	3531.87
471.50	3737.84
471.68	3627.83
471.86	3770.60
472.04	3852.52
472.22	3676.98
472.40	3588.04
472.58	3386.76
472.77	3496.76
472.95	3449.95
473.13	3616.13
473.31	3410.16
473.49	3531.87
473.67	3531.87
473.85	3726.13
474.03	3681.66
474.21	3740.18
474.39	3782.31
474.57	3770.60
474.75	3735.50
474.93	3721.45
475.12	3712.09
475.30	3686.34
475.48	3669.96
475.66	3719.11
475.84	3775.28
476.02	3648.90
476.20	3403.14
476.38	3705.07
476.56	3740.18
476.74	3957.85
476.92	3833.80
477.10	3896.99
477.28	4086.58
477.46	3983.59
477.64	4028.06
477.82	3920.40
478.00	4133.39
478.18	4011.68
478.36	4004.66
478.54	3957.85
478.72	4053.81
478.90	4049.13
479.08	4217.65
479.26	4304.25
479.44	4156.79
479.62	4259.78
479.80	4142.75
479.98	4315.95
480.16	4400.21
480.34	4348.72
480.52	4425.95
480.70	4344.03
480.88	4255.09
481.06	4337.01
481.24	4283.18
481.41	4650.64
481.59	4493.83
481.77	4442.34
481.95	4432.97
482.13	4606.17
482.31	4444.68
482.49	4601.49
482.67	4547.66
482.85	4692.77
483.03	4521.92
483.21	4610.86
483.39	4734.90
483.57	4496.17
483.74	4512.55
483.92	4582.77
484.10	4587.45
484.28	4781.71
484.46	4924.49
484.64	4830.87
484.82	4828.53
485.00	4706.82
485.18	4512.55
485.35	4493.83
485.53	4018.70
485.71	3735.50
485.89	3719.11
486.07	3936.78
486.25	4231.69
486.43	4386.16
486.61	4545.32
486.78	4505.53
486.96	4545.32
487.14	4737.24
487.32	4880.02
487.50	4826.18
487.68	5153.86
487.85	5291.95
488.03	5135.14
488.21	5146.84
488.39	4966.62
488.57	5029.81
488.75	4882.36
488.92	5050.88
489.10	5408.98
489.28	5654.73
489.46	5692.18
489.64	5591.54
489.81	5738.99
489.99	5636.01
490.17	5598.56
490.35	5820.91
490.53	5610.26
490.70	5462.81
490.88	5460.47
491.06	5731.97
491.24	5664.10
491.41	5530.69
491.59	5324.72
491.77	5069.60
491.95	5369.19
492.13	5472.17
492.30	5687.50
492.48	5792.83
492.66	5961.34
492.84	5839.64
493.01	5942.62
493.19	5872.40
493.37	5750.70
493.54	5874.74
493.72	5905.17
493.90	6033.90
494.08	6087.73
494.25	6291.36
494.43	6277.32
494.61	6352.21
494.79	6464.56
494.96	6303.06
495.14	6092.41
495.32	6033.90
495.49	5818.57
495.67	6094.76
495.85	6291.36
496.02	6590.95
496.20	6366.26
496.38	6223.48
496.55	6263.27
496.73	6359.24
496.91	6497.33
497.09	6527.75
497.26	6649.46
497.44	6457.54
497.62	6223.48
497.79	6389.66
497.97	5827.93
498.14	5900.49
498.32	6155.61
498.50	6532.44
498.67	6537.12
498.85	6480.94
499.03	6530.09
499.20	6686.91
499.38	6537.12
499.56	6478.60
499.73	6567.54
499.91	6298.38
500.08	6122.84
500.26	6183.70
500.44	6188.38
500.61	6291.36
500.79	6389.66
500.97	6043.26
501.14	6076.03
501.32	5926.24
501.49	6129.86
501.67	6143.91
501.84	6352.21
502.02	6417.75
502.20	6427.11
502.37	6513.71
502.55	6420.09
502.72	6443.49
502.90	6590.95
503.07	6600.31
503.25	6633.08
503.43	6363.92
503.60	6001.13
503.78	5959.00
503.95	6171.99
504.13	6494.99
504.30	6698.61
504.48	6555.84
504.65	6602.65
504.83	6579.25
505.01	6717.34
505.18	6775.85
505.36	6862.45
505.53	6892.88
505.71	6810.96
505.88	7019.27
506.06	6827.34
506.23	6747.76
506.41	6792.23
506.58	6647.12
506.76	6836.70
506.93	6722.02
507.11	6544.14
507.28	6700.95
507.46	6619.04
507.63	6401.37
507.81	6317.11
507.98	6469.24
508.16	6434.13
508.33	6801.60
508.50	6700.95
508.68	6944.37
508.85	6937.35
509.03	6944.37
509.20	6981.82
509.38	6665.85
509.55	6544.14
509.73	6401.37
509.90	6700.95
510.08	6796.92
510.25	6839.05
510.42	6670.53
510.60	6705.63
510.77	6623.72
510.95	6827.34
511.12	6930.33
511.30	6916.28
511.47	7012.24
511.64	6981.82
511.82	7007.56
511.99	6789.89
512.17	6504.35
512.34	6597.97
512.51	6593.29
512.69	6626.06
512.86	6677.55
513.04	6799.26
513.21	6719.68
513.38	6745.42
513.56	6544.14
513.73	6546.48
513.90	6441.15
514.08	6333.49
514.25	6562.86
514.43	6773.51
514.60	6607.33
514.77	6700.95
514.95	6604.99
515.12	6623.72
515.29	6628.40
515.47	7019.27
515.64	6869.47
515.81	6808.62
515.99	6719.68
516.16	6162.63
516.33	5701.54
516.51	5420.68
516.68	5270.89
516.85	5298.97
517.03	5320.04
517.20	5731.97
517.37	6380.30
517.54	6516.05
517.72	6576.91
517.89	5893.47
518.06	5408.98
518.24	5591.54
518.41	5968.37
518.58	6083.05
518.75	6263.27
518.93	6258.59
519.10	6225.82
519.27	6459.88
519.45	6317.11
519.62	6693.93
519.79	6874.15
519.96	6686.91
520.14	6523.07
520.31	6263.27
520.48	6368.60
520.65	6387.32
520.83	6658.82
521.00	6736.06
521.17	6581.59
521.34	6373.28
521.52	6700.95
521.69	6726.70
521.86	6827.34
522.03	6939.69
522.20	6682.23
522.38	6462.22
522.55	6190.72
522.72	6267.95
522.89	6415.41
523.07	6511.37
523.24	6544.14
523.41	6885.86
523.58	6904.58
523.75	6918.62
523.92	6939.69
524.10	6871.81
524.27	6981.82
524.44	6960.75
524.61	6916.28
524.78	6836.70
524.96	6740.74
525.13	6614.35
525.30	6715.00
525.47	6707.98
525.64	6890.54
525.81	6588.61
525.98	6473.92
526.16	6090.07
526.33	5694.52
526.50	5703.89
526.67	5673.46
526.84	5806.87
527.01	6141.57
527.18	6218.80
527.36	6445.84
527.53	6642.44
527.70	6541.80
527.87	6628.40
528.04	6569.88
528.21	6546.48
528.38	6825.00
528.55	6951.39
528.72	6916.28
528.89	7007.56
529.07	6932.67
529.24	6857.77
529.41	6623.72
529.58	6544.14
529.75	6445.84
529.92	6553.50
530.09	6803.94
530.26	6803.94
530.43	6935.01
530.60	6883.52
530.77	6923.30
530.94	7094.16
531.11	6815.64
531.28	6712.66
531.46	6764.15
531.63	6780.53
531.80	6832.02
531.97	6612.01
532.14	6487.96
532.31	6125.18
532.48	6115.82
532.65	6040.92
532.82	6296.04
532.99	6490.31
533.16	6541.80
533.33	6558.18
533.50	6567.54
533.67	6359.24
533.84	6471.58
534.01	6546.48
534.18	6604.99
534.35	6436.47
534.52	6679.89
534.69	6764.15
534.86	6757.13
535.03	6644.78
535.20	6944.37
535.37	6787.55
535.54	6909.26
535.71	6904.58
535.88	6651.80
536.05	6534.78
536.22	6565.20
536.38	6354.55
536.55	6361.58
536.72	6200.08
536.89	6237.53
537.06	6303.06
537.23	6637.76
537.40	6626.06
537.57	6499.67
537.74	6396.68
537.91	6626.06
538.08	6485.62
538.25	6733.72
538.42	6677.55
538.59	6546.48
538.75	6326.47
538.92	6445.84
539.09	6296.04
539.26	6345.19
539.43	6314.77
539.60	6291.36
539.77	6143.91
539.94	6462.22
540.11	6052.63
540.28	5973.05
540.44	5996.45
540.61	5909.85
540.78	6033.90
540.95	6174.33
541.12	6296.04
541.29	6443.49
541.46	6415.41
541.62	6499.67
541.79	6225.82
541.96	6195.40
542.13	6282.00
542.30	6230.51
542.47	6214.12
542.63	6190.72
542.80	6155.61
542.97	6118.16
543.14	6265.61
543.31	6090.07
543.48	6424.77
543.64	6452.86
543.81	6621.38
543.98	6513.71
544.15	6392.00
544.32	6424.77
544.48	6356.90
544.65	6265.61
544.82	6614.35
544.99	6401.37
545.16	6485.62
545.32	6338.17
545.49	6429.45
545.66	6445.84
545.83	6249.23
546.00	6267.95
546.16	6267.95
546.33	6179.01
546.50	6349.87
546.67	6527.75
546.83	6211.78
547.00	6289.02
547.17	6069.01
547.34	5909.85
547.50	5816.23
547.67	5989.43
547.84	6183.70
548.00	6260.93
548.17	6478.60
548.34	6202.42
548.51	6101.78
548.67	6258.59
548.84	6235.19
549.01	6256.25
549.18	6005.81
549.34	6045.60
549.51	6146.25
549.68	6274.98
549.84	6153.27
550.01	6038.58
550.18	6066.67
550.34	6045.60
550.51	6127.52
550.68	6183.70
550.84	6008.16
551.01	6076.03
551.18	5893.47
551.34	6139.23
551.51	6092.41
551.68	6207.10
551.84	6127.52
552.01	6307.74
552.18	5966.03
552.34	5870.06
552.51	5734.31
552.68	5806.87
552.84	5877.09
553.01	6080.71
553.18	6022.20
553.34	5891.13
553.51	6017.52
553.67	6162.63
553.84	6078.37
554.01	6061.99
554.17	6064.33
554.34	6209.44
554.51	6216.46
554.67	6157.95
554.84	6162.63
555.00	6104.12
555.17	6122.84
555.33	6122.84
555.50	6181.35
555.67	6101.78
555.83	6085.39
556.00	5748.36
556.16	5923.90
556.33	5760.06
556.50	5994.11
556.66	5729.63
556.83	5661.76
556.99	5738.99
557.16	5708.57
557.32	5753.04
557.49	5919.21
557.65	5654.73
557.82	5823.25
557.98	5837.30
558.15	5757.72
558.32	5645.37
558.48	5324.72
558.65	5336.42
558.81	5472.17
558.98	5636.01
559.14	5643.03
559.31	5490.90
559.47	5776.44
559.64	5582.18
559.80	5380.89
559.97	5369.19
560.13	5413.66
560.30	5710.91
560.46	5881.77
560.63	5769.42
560.79	6069.01
560.96	5830.27
561.12	5643.03
561.29	5518.98
561.45	5430.04
561.61	5561.11
561.78	5504.94
561.94	5579.84
562.11	5579.84
562.27	5502.60
562.44	5640.69
562.60	5844.32
562.77	5652.39
562.93	5736.65
563.10	5636.01
563.26	5549.41
563.42	5401.96
563.59	5490.90
563.75	5500.26
563.92	5481.53
564.08	5596.22
564.24	5486.22
564.41	5729.63
564.57	5577.50
564.74	5502.60
564.90	5561.11
565.07	5504.94
565.23	5497.92
565.39	5301.31
565.56	5203.01
565.72	5210.03
565.88	5181.95
566.05	5268.55
566.21	5455.79
566.38	5406.64
566.54	5228.76
566.70	5392.59
566.87	5483.88
567.03	5570.48
567.19	5636.01
567.36	5638.35
567.52	5423.02
567.68	5259.18
567.85	5320.04
568.01	5177.26
568.17	5256.84
568.34	5057.90
568.50	5231.10
568.66	5128.11
568.83	5132.79
568.99	5226.42
569.15	5273.23
569.32	5207.69
569.48	5160.88
569.64	5268.55
569.81	5100.03
569.97	5303.65
570.13	5107.05
570.30	4957.25
570.46	4994.70
570.62	4814.48
570.78	4730.22
570.95	4980.66
571.11	5076.62
571.27	4940.87
571.43	5165.56
571.60	5109.39
571.76	5146.84
571.92	4992.36
572.09	5114.07
572.25	5137.48
572.41	5284.93
572.57	5142.16
572.74	5142.16
572.90	5013.43
573.06	5149.18
573.22	5076.62
573.38	5277.91
573.55	5041.51
573.71	5233.44
573.87	5181.95
574.03	5198.33
574.20	4990.02
574.36	5022.79
574.52	4828.53
574.68	4798.10
574.84	4889.38
575.01	4835.55
575.17	4774.69
575.33	4945.55
575.49	4896.40
575.65	4814.48
575.82	4997.04
575.98	4828.53
576.14	4933.85
576.30	4915.12
576.46	5053.22
576.62	4917.47
576.79	4929.17
576.95	4887.04
577.11	4746.61
577.27	4671.71
577.43	4821.50
577.59	4828.53
577.75	4688.09
577.92	4739.58
578.08	4526.60
578.24	4624.90
578.40	4695.11
578.56	4802.78
578.72	4730.22
578.88	4699.80
579.04	4837.89
579.21	4826.18
579.37	4877.68
579.53	4711.50
579.69	4847.25
579.85	4812.14
580.01	4741.93
580.17	4723.20
580.33	4809.80
580.49	4767.67
580.65	4760.65
580.82	4870.65
580.98	4723.20
581.14	4905.76
581.30	4950.23
581.46	4744.27
581.62	4863.63
581.78	4812.14
581.94	4917.47
582.10	4861.29
582.26	4861.29
582.42	4912.78
582.58	4706.82
582.74	4809.80
582.90	4795.76
583.06	4692.77
583.22	4734.90
583.38	4772.35
583.54	4727.88
583.70	4819.16
583.86	4786.40
584.02	4847.25
584.18	4760.65
584.34	4716.18
584.50	4627.24
584.66	4746.61
584.82	4807.46
584.98	4615.54
585.14	4615.54
585.30	4571.07
585.46	4381.48
585.62	4318.29
585.78	4318.29
585.94	4472.76
586.10	4484.47
586.26	4528.94
586.42	4423.61
586.58	4739.58
586.74	4596.81
586.90	4638.94
587.06	4702.14
587.22	4542.98
587.38	4652.98
587.54	4603.83
587.70	4472.76
587.86	4299.56
588.02	4339.35
588.18	4369.78
588.34	4318.29
588.49	3864.22
588.65	3754.22
588.81	3908.69
588.97	3786.99
589.13	3791.67
589.29	3616.13
589.45	3779.97
589.61	3950.82
589.77	4060.83
589.93	4198.92
590.08	4238.71
590.24	4322.97
590.40	4276.16
590.56	4327.65
590.72	4348.72
590.88	4037.42
591.04	4102.96
591.20	4095.94
591.35	4081.89
591.51	4189.56
591.67	4100.62
591.83	4194.24
591.99	4208.28
592.15	4264.46
592.31	4248.07
592.46	4131.05
592.62	4161.47
592.78	4189.56
592.94	4070.19
593.10	4269.14
593.26	4304.25
593.41	4021.04
593.57	4231.69
593.73	4067.85
593.89	4093.60
594.05	4217.65
594.20	4058.49
594.36	4051.47
594.52	3971.89
594.68	3861.88
594.84	3932.10
594.99	3889.97
595.15	3953.16
595.31	4173.18
595.47	4128.70
595.62	4133.39
595.78	4121.68
595.94	4184.88
596.10	4039.76
596.25	4154.45
596.41	4133.39
596.57	4198.92
596.73	4007.00
596.88	4016.36
597.04	3864.22
597.20	4112.32
597.36	4133.39
597.51	3955.51
597.67	4030.40
597.83	3967.21
597.99	4049.13
598.14	4009.34
598.30	3962.53
598.46	3899.33
598.61	4037.42
598.77	3833.80
598.93	3957.85
599.09	4035.08
599.24	4044.45
599.40	4014.02
599.56	4002.32
599.71	3974.23
599.87	4028.06
600.03	3861.88
600.18	4093.60
600.34	3932.10
600.50	3936.78
600.65	3941.46
600.81	3939.12
600.97	3906.35
601.12	3920.40
601.28	3894.65
601.44	3817.41
601.59	3843.16
601.75	3808.05
601.91	3676.98
602.06	3836.14
602.22	3920.40
602.37	3875.93
602.53	3955.51
602.69	3782.31
602.84	3957.85
603.00	3974.23
603.16	3995.29
603.31	3894.65
603.47	3889.97
603.62	3936.78
603.78	3964.87
603.94	3786.99
604.09	3918.06
604.25	3822.09
604.40	3815.07
604.56	3819.75
604.71	3927.42
604.87	3887.63
605.03	3805.71
605.18	3716.77
605.34	3829.12
605.49	3779.97
605.65	3927.42
605.80	3735.50
605.96	3833.80
606.12	3693.37
606.27	3871.25
606.43	3836.14
606.58	3684.00
606.74	3791.67
606.89	3808.05
607.05	3812.73
607.20	3992.95
607.36	3763.58
607.51	3655.92
607.67	3822.09
607.82	3796.35
607.98	3660.60
608.13	3646.55
608.29	3564.64
608.44	3597.40
608.60	3698.05
608.75	3466.33
608.91	3707.41
609.06	3684.00
609.22	3595.06
609.37	3611.45
609.53	3602.08
609.68	3552.93
609.84	3541.23
609.99	3447.61
610.15	3475.70
610.30	3585.70
610.46	3662.94
610.61	3534.21
610.76	3590.38
610.92	3609.11
611.07	3566.98
611.23	3616.13
611.38	3616.13
611.54	3571.66
611.69	3559.95
611.84	3569.32
612.00	3382.07
612.15	3421.86
612.31	3365.69
612.46	3353.99
612.62	3454.63
612.77	3396.12
612.92	3536.55
613.08	3627.83
613.23	3386.76
613.39	3372.71
613.54	3428.88
613.69	3309.52
613.85	3274.41
614.00	3405.48
614.15	3363.35
614.31	3328.24
614.46	3428.88
614.62	3468.67
614.77	3384.41
614.92	3314.20
615.08	3255.69
615.23	3302.50
615.38	3400.80
615.54	3370.37
615.69	3150.36
615.84	3075.46
616.00	3103.55
616.15	3262.71
616.30	3185.47
616.46	3112.91
616.61	3152.70
616.76	3328.24
616.92	3361.01
617.07	3073.12
617.22	3166.74
617.37	3318.88
617.53	3260.37
617.68	3279.09
617.83	3342.28
617.99	3335.26
618.14	3159.72
618.29	3119.93
618.45	3236.96
618.60	3218.24
618.75	3211.22
618.90	3281.43
619.06	3084.83
619.21	3155.04
619.36	3187.81
619.51	3274.41
619.67	3286.11
619.82	3236.96
619.97	3178.45
620.12	3229.94
620.28	3199.51
620.43	3166.74
620.58	3208.87
620.73	3239.30
620.89	3119.93
621.04	3194.83
621.19	3239.30
621.34	3171.43
621.49	3068.44
621.65	3056.74
621.80	3129.30
621.95	3007.59
622.10	3103.55
622.25	3096.53
622.41	3052.06
622.56	3038.02
622.71	3054.40
622.86	2998.23
623.01	3082.49
623.16	3038.02
623.32	3014.61
623.47	2930.35
623.62	2958.44
623.77	3026.31
623.92	2920.99
624.07	2939.71
624.23	2862.48
624.38	2923.33
624.53	2888.22
624.68	2913.97
624.83	2834.39
624.98	2764.17
625.13	2937.37
625.29	2832.05
625.44	2813.32
625.59	3014.61
625.74	2825.03
625.89	2930.35
626.04	2895.24
626.19	2942.05
626.34	2836.73
626.49	2724.38
626.65	2820.35
626.80	2935.03
626.95	2846.09
627.10	2818.00
627.25	2806.30
627.40	2752.47
627.55	2754.81
627.70	2579.27
627.85	2635.44
628.00	2759.49
628.15	2815.66
628.30	2871.84
628.45	2759.49
628.60	2766.51
628.76	2836.73
628.91	2803.96
629.06	2778.22
629.21	2822.69
629.36	2761.83
629.51	2696.30
629.66	2595.65
629.81	2562.89
629.96	2588.63
630.11	2682.25
630.26	2668.21
630.41	2670.55
630.56	2651.83
630.71	2633.10
630.86	2710.34
631.01	2637.78
631.16	2743.11
631.31	2609.70
631.46	2572.25
631.61	2558.21
631.76	2525.44
631.91	2602.68
632.06	2686.94
632.21	2586.29
632.36	2626.08
632.51	2691.62
632.66	2682.25
632.81	2516.08
632.96	2654.17
633.10	2607.36
633.25	2485.65
633.40	2520.76
633.55	2504.37
633.70	2649.49
633.85	2520.76
634.00	2672.89
634.15	2583.95
634.30	2473.95
634.45	2626.08
634.60	2539.48
634.75	2635.44
634.90	2628.42
635.05	2647.15
635.19	2506.71
635.34	2530.12
635.49	2567.57
635.64	2466.92
635.79	2459.90
635.94	2436.50
636.09	2539.48
636.24	2511.39
636.39	2527.78
636.53	2642.46
636.68	2609.70
636.83	2466.92
636.98	2504.37
637.13	2473.95
637.28	2567.57
637.43	2462.24
637.57	2661.19
637.72	2544.16
637.87	2588.63
638.02	2553.52
638.17	2581.61
638.32	2441.18
638.46	2495.01
638.61	2511.39
638.76	2394.37
638.91	2345.22
639.06	2492.67
639.20	2368.62
639.35	2443.52
639.50	2464.58
639.65	2502.03
639.80	2387.35
639.94	2434.16
640.09	2413.09
640.24	2457.56
640.39	2394.37
640.54	2513.74
640.68	2478.63
640.83	2354.58
640.98	2246.91
641.13	2452.88
641.27	2363.94
641.42	2286.70
641.57	2312.45
641.72	2307.77
641.86	2230.53
642.01	2349.90
642.16	2359.26
642.31	2373.30
642.45	2284.36
642.60	2417.77
642.75	2284.36
642.90	2286.70
643.04	2354.58
643.19	2392.03
643.34	2317.13
643.48	2282.02
643.63	2246.91
643.78	2338.20
643.93	2256.28
644.07	2303.09
644.22	2349.90
644.37	2246.91
644.51	2289.04
644.66	2277.34
644.81	2275.00
644.95	2296.07
645.10	2216.49
645.25	2319.47
645.39	2359.26
645.54	2277.34
645.69	2188.40
645.83	2160.31
645.98	2190.74
646.13	2237.55
646.27	2176.70
646.42	2204.78
646.57	2188.40
646.71	2275.00
646.86	2094.78
647.00	2094.78
647.15	2225.85
647.30	2118.18
647.44	2246.91
647.59	2071.37
647.74	2085.42
647.88	2071.37
648.03	1975.41
648.17	2054.99
648.32	2246.91
648.47	2221.17
648.61	2162.66
648.76	2181.38
648.90	1973.07
649.05	1907.54
649.20	1952.01
649.34	1961.37
649.49	1919.24
649.63	2040.95
649.78	1963.71
649.92	2038.61
650.07	2127.55
650.21	2062.01
650.36	2062.01
650.51	2265.64
650.65	2157.97
650.80	2076.06
650.94	2094.78
651.09	2076.06
651.23	2012.86
651.38	2050.31
651.52	1956.69
651.67	1954.35
651.81	2122.87
651.96	2001.16
652.10	1952.01
652.25	1987.11
652.39	1973.07
652.54	1989.46
652.68	2040.95
652.83	2040.95
652.97	2031.58
653.12	2078.40
653.26	2015.20
653.41	2045.63
653.55	2026.90
653.70	2066.69
653.84	1940.30
653.99	1975.41
654.13	2031.58
654.27	2038.61
654.42	1923.92
654.56	1902.86
654.71	1893.49
654.85	1886.47
655.00	1900.52
655.14	1795.19
655.29	1959.03
655.43	1788.17
655.57	1657.10
655.72	1533.05
655.86	1366.87
656.01	1425.39
656.15	1413.68
656.30	1488.58
656.44	1570.50
656.58	1685.19
656.73	1860.73
656.87	1703.91
657.01	1727.32
657.16	1895.83
657.30	1827.96
657.45	1898.17
657.59	1935.62
657.73	1839.66
657.88	1762.42
658.02	1865.41
658.16	1844.34
658.31	1872.43
658.45	1839.66
658.60	1795.19
658.74	1856.04
658.88	1935.62
659.03	1898.17
659.17	1771.79
659.31	1788.17
659.46	1806.89
659.60	1865.41
659.74	1710.93
659.89	1877.11
660.03	1757.74
660.17	1804.55
660.32	1879.45
660.46	1823.28
660.60	1781.15
660.74	1886.47
660.89	1886.47
661.03	1816.26
661.17	1736.68
661.32	1820.94
661.46	1781.15
661.60	1837.32
661.74	1834.98
661.89	1827.96
662.03	1886.47
662.17	1919.24
662.31	1720.29
662.46	1771.79
662.60	1734.34
662.74	1778.81
662.88	1715.61
663.03	1760.08
663.17	1776.47
663.31	1743.70
663.45	1692.21
663.60	1687.53
663.74	1682.85
663.88	1554.12
664.02	1715.61
664.17	1666.46
664.31	1820.94
664.45	1746.04
664.59	1774.13
664.73	1774.13
664.88	1853.70
665.02	1823.28
665.16	1739.02
665.30	1727.32
665.44	1774.13
665.59	1685.19
665.73	1692.21
665.87	1668.80
666.01	1664.12
666.15	1589.22
666.29	1593.90
666.44	1612.63
666.58	1671.14
666.72	1636.03
666.86	1687.53
667.00	1638.38
667.14	1692.21
667.28	1694.55
667.43	1563.48
667.57	1659.44
667.71	1643.06
667.85	1577.52
667.99	1661.78
668.13	1746.04
668.27	1526.03
668.41	1617.31
668.56	1586.88
668.70	1600.93
668.84	1600.93
668.98	1586.88
669.12	1614.97
669.26	1570.50
669.40	1699.23
669.54	1514.33
669.68	1497.94
669.82	1521.35
669.96	1523.69
670.10	1586.88
670.25	1530.71
670.39	1650.08
670.53	1500.28
670.67	1511.99
670.81	1495.60
670.95	1455.81
671.09	1409.00
671.23	1444.11
671.37	1511.99
671.51	1549.43
671.65	1551.78
671.79	1493.26
671.93	1331.76
672.07	1500.28
672.21	1486.24
672.35	1458.15
672.49	1390.28
672.63	1472.20
672.77	1462.83
672.91	1409.00
673.05	1423.05
673.19	1455.81
673.33	1465.18
673.47	1458.15
673.61	1380.92
673.75	1313.04
673.89	1380.92
674.03	1472.20
674.17	1357.51
674.31	1345.81
674.45	1371.55
674.59	1406.66
674.73	1336.45
674.87	1313.04
675.01	1397.30
675.15	1371.55
675.29	1434.75
675.43	1373.89
675.56	1394.96
675.70	1315.38
675.84	1394.96
675.98	1212.40
676.12	1296.66
676.26	1291.98
676.40	1254.53
676.54	1275.59
676.68	1299.00
676.82	1240.48
676.96	1224.10
677.10	1172.61
677.23	1287.29
677.37	1228.78
677.51	1270.91
677.65	1291.98
677.79	1329.42
677.93	1242.82
678.07	1322.40
678.21	1238.14
678.34	1226.44
678.48	1259.21
678.62	1315.38
678.76	1256.87
678.90	1270.91
679.04	1151.54
679.18	1254.53
679.31	1137.50
679.45	1212.40
679.59	1221.76
679.73	1256.87
679.87	1181.97
680.00	1217.08
680.14	1163.25
680.28	1156.22
680.42	1109.41
680.56	1240.48
680.70	1146.86
680.83	1139.84
680.97	1132.82
681.11	1167.93
681.25	1053.24
681.39	1130.48
681.52	1240.48
681.66	1093.03
681.80	1053.24
681.94	1071.97
682.07	1135.16
682.21	1121.12
682.35	1177.29
682.49	1116.44
682.62	1100.05
682.76	983.02
682.90	1130.48
683.04	1109.41
683.17	1055.58
683.31	1032.18
683.45	1039.20
683.59	1057.92
683.72	1055.58
683.86	1008.77
684.00	1008.77
684.13	840.25
684.27	1011.11
684.41	1074.31
684.55	992.39
684.68	926.85
684.82	959.62
684.96	1036.86
685.09	1015.79
685.23	880.04
685.37	1039.20
685.50	938.55
685.64	908.13
685.78	931.53
685.91	898.77
686.05	929.19
686.19	952.60
686.32	858.98
686.46	706.84
686.60	587.47
686.73	528.96
686.87	472.79
687.01	416.62
687.14	521.94
687.28	564.07
687.42	531.30
687.55	638.97
687.69	704.50
687.82	751.31
687.96	711.52
688.10	702.16
688.23	713.86
688.37	585.13
688.50	667.05
688.64	662.37
688.78	592.16
688.91	648.33
689.05	643.65
689.18	669.39
689.32	603.86
689.46	657.69
689.59	648.33
689.73	697.48
689.86	631.94
690.00	655.35
690.13	697.48
690.27	669.39
690.41	655.35
690.54	709.18
690.68	702.16
690.81	716.20
690.95	702.16
691.08	711.52
691.22	671.73
691.35	620.24
691.49	669.39
691.62	641.31
691.76	655.35
691.89	674.07
692.03	664.71
692.16	732.59
692.30	685.78
692.43	636.63
692.57	732.59
692.70	662.37
692.84	631.94
692.97	678.76
693.11	615.56
693.24	580.45
693.38	622.58
693.51	603.86
693.65	674.07
693.78	634.29
693.92	702.16
694.05	519.60
694.19	622.58
694.32	641.31
694.45	629.60
694.59	671.73
694.72	690.46
694.86	603.86
694.99	589.82
695.13	617.90
695.26	578.11
695.39	653.01
695.53	578.11
695.66	550.03
695.80	557.05
695.93	585.13
696.07	479.81
696.20	571.09
696.33	671.73
696.47	543.00
696.60	617.90
696.73	606.20
696.87	578.11
697.00	603.86
697.14	638.97
697.27	517.26
697.40	533.64
697.54	512.58
697.67	475.13
697.80	482.15
697.94	402.57
698.07	521.94
698.21	491.51
698.34	477.47
698.47	533.64
698.61	447.04
698.74	507.90
698.87	587.47
699.01	449.38
699.14	456.40
699.27	451.72
699.40	428.32
699.54	454.06
699.67	461.09
699.80	475.13
699.94	479.81
700.07	486.83
700.20	308.95
700.34	503.22
700.47	458.74
700.60	400.23
700.73	376.83
700.87	512.58
701.00	409.59
701.13	475.13
701.26	433.00
701.40	341.72
701.53	376.83
701.66	376.83
701.79	433.00
701.93	376.83
702.06	332.36
702.19	451.72
702.32	433.00
702.46	355.76
702.59	409.59
702.72	348.74
702.85	407.25
702.99	353.42
703.12	433.00
703.25	393.21
703.38	367.46
703.51	386.19
703.65	346.40
703.78	355.76
703.91	404.91
704.04	313.63
704.17	351.08
704.31	306.61
704.44	330.02
704.57	304.27
704.70	341.72
704.83	416.62
704.96	337.04
705.10	390.87
705.23	397.89
>>>>>End Processed Spectral Data<<<<<
