SpectraSuite Data File
++++++++++++++++++++++++++++++++++++
Date: Mon Oct 07 14:55:01 GMT-05:00 2013
User: price-jones
Dark Spectrum Present: No
Reference Spectrum Present: No
Number of Sampled Component Spectra: 1
Spectrometers: USB2+H05261
Integration Time (usec): 10000 (USB2+H05261)
Spectra Averaged: 1 (USB2+H05261)
Boxcar Smoothing: 0 (USB2+H05261)
Correct for Electrical Dark: No (USB2+H05261)
Strobe/Lamp Enabled: No (USB2+H05261)
Correct for Detector Non-linearity: No (USB2+H05261)
Correct for Stray Light: No (USB2+H05261)
Number of Pixels in Processed Spectrum: 2048
>>>>>Begin Processed Spectral Data<<<<<
365.73	0.00
365.92	0.00
366.12	0.00
366.32	0.00
366.52	0.00
366.72	0.00
366.91	0.00
367.11	0.00
367.31	0.00
367.51	0.00
367.70	0.00
367.90	0.00
368.10	0.00
368.30	0.00
368.49	0.00
368.69	0.00
368.89	0.00
369.09	0.00
369.28	0.00
369.48	0.00
369.68	0.00
369.87	0.00
370.07	0.00
370.27	0.00
370.47	433.00
370.66	2298.41
370.86	2523.10
371.06	2785.24
371.25	2829.71
371.45	2485.65
371.65	2197.76
371.84	2120.53
372.04	2347.56
372.24	2579.27
372.44	2656.51
372.63	2565.23
372.83	2347.56
373.03	2054.99
373.22	1923.92
373.42	2080.74
373.62	2394.37
373.81	2513.74
374.01	2499.69
374.21	2253.94
374.40	2045.63
374.60	2174.36
374.79	2576.93
374.99	3026.31
375.19	3091.85
375.38	3145.68
375.58	2986.52
375.78	2932.69
375.97	2953.76
376.17	3084.83
376.37	3096.53
376.56	3246.32
376.76	3478.04
376.95	3698.05
377.15	3957.85
377.35	4053.81
377.54	4182.54
377.74	4299.56
377.93	4449.36
378.13	4212.96
378.33	3840.82
378.52	3632.51
378.72	3410.16
378.91	3569.32
379.11	3300.16
379.31	3260.37
379.50	3281.43
379.70	3503.78
379.89	3817.41
380.09	4191.90
380.28	4203.60
380.48	4257.43
380.68	4098.28
380.87	4025.72
381.07	3688.68
381.26	3349.31
381.46	3321.22
381.65	3218.24
381.85	3047.38
382.04	2883.54
382.24	2708.00
382.43	2483.31
382.63	2450.54
382.83	2487.99
383.02	2539.48
383.22	2483.31
383.41	2532.46
383.61	2928.01
383.80	3262.71
384.00	3737.84
384.19	4046.79
384.39	4194.24
384.58	4257.43
384.78	4072.53
384.97	4126.36
385.17	3908.69
385.36	3609.11
385.56	3557.61
385.75	3719.11
385.95	4140.41
386.14	4217.65
386.34	4159.13
386.53	4063.17
386.72	3997.64
386.92	3992.95
387.11	4369.78
387.31	4402.55
387.50	4374.46
387.70	4234.03
387.89	4318.29
388.09	4173.18
388.28	4292.54
388.48	4437.66
388.67	4706.82
388.86	5198.33
389.06	5441.75
389.25	5636.01
389.45	5914.53
389.64	5504.94
389.84	5479.19
390.03	5434.72
390.22	5741.33
390.42	5818.57
390.61	6232.85
390.81	6642.44
391.00	6794.58
391.19	6707.98
391.39	6384.98
391.58	5963.68
391.78	5720.27
391.97	5462.81
392.16	5245.14
392.36	4327.65
392.55	3431.23
392.75	2715.02
392.94	2279.68
393.13	2525.44
393.33	3098.87
393.52	4051.47
393.71	4636.60
393.91	5198.33
394.10	5696.86
394.29	6162.63
394.49	6686.91
394.68	7091.82
394.88	7192.47
395.07	7311.83
395.26	7133.95
395.46	6988.84
395.65	6502.01
395.84	5549.41
396.04	4648.30
396.23	3740.18
396.42	3236.96
396.62	3290.79
396.81	4053.81
397.00	5153.86
397.19	6284.34
397.39	7351.62
397.58	8435.29
397.77	8512.53
397.97	8784.03
398.16	9116.39
398.35	9451.08
398.55	9713.22
398.74	10094.73
398.93	10003.45
399.12	9888.76
399.32	9640.67
399.51	9998.77
399.70	10616.67
399.90	10239.84
400.09	10207.08
400.28	10228.14
400.47	10775.83
400.67	10963.07
400.86	11176.06
401.05	11152.65
401.24	11250.96
401.44	11438.20
401.63	11438.20
401.82	11515.44
402.01	11307.13
402.21	11667.57
402.40	11730.76
402.59	11215.85
402.78	10504.32
402.97	10647.10
403.17	11218.19
403.36	11831.41
403.55	12236.32
403.74	12191.85
403.93	11403.09
404.13	10572.20
404.32	10768.80
404.51	11159.67
404.70	12060.78
404.89	11639.48
405.09	11529.48
405.28	11606.72
405.47	11660.55
405.66	11452.24
405.85	11080.10
406.05	11007.54
406.24	11054.35
406.43	11695.66
406.62	11906.31
406.81	12013.97
407.00	11602.04
407.20	11534.16
407.39	11543.52
407.58	11988.22
407.77	12650.60
407.96	13121.04
408.15	13191.26
408.34	13422.97
408.54	13376.16
408.73	13605.53
408.92	13532.98
409.11	12868.27
409.30	12360.37
409.49	11489.69
409.68	10834.34
409.87	10848.38
410.07	11770.55
410.26	12156.74
410.45	12894.01
410.64	13170.19
410.83	13905.12
411.02	13785.76
411.21	14347.48
411.40	14347.48
411.59	14670.48
411.78	14373.23
411.98	14656.43
412.17	14780.48
412.36	14534.73
412.55	14270.25
412.74	13872.36
412.93	13804.48
413.12	14092.37
413.31	15393.70
413.50	15304.76
413.69	15414.77
413.88	14565.15
414.07	14508.98
414.26	15169.01
414.45	15410.09
414.64	15199.44
414.83	15229.87
415.02	15105.82
415.22	15154.97
415.41	15978.84
415.60	15875.85
415.79	16423.54
415.98	16774.62
416.17	16556.95
416.36	16521.84
416.55	16105.23
416.74	15433.49
416.93	15077.73
417.12	15508.39
417.31	15431.15
417.50	16023.31
417.69	16240.98
417.88	16308.85
418.07	16271.40
418.26	15831.38
418.45	16149.70
418.64	16575.67
418.83	17249.75
419.02	16699.72
419.21	16362.69
419.39	15712.02
419.58	15286.04
419.77	15662.86
419.96	16540.57
420.15	17240.39
420.34	17671.04
420.53	18087.66
420.72	18251.50
420.91	18024.47
421.10	17851.27
421.29	17483.80
421.48	17366.78
421.67	17902.76
421.86	17097.61
422.05	15751.81
422.24	14546.43
422.43	15421.79
422.61	16781.64
422.80	17488.48
422.99	17076.55
423.18	16655.25
423.37	16547.59
423.56	16608.44
423.75	16996.97
423.94	17390.18
424.13	16264.38
424.32	16166.08
424.50	16772.28
424.69	16676.32
424.88	16791.00
425.07	16430.56
425.26	16421.20
425.45	15927.35
425.64	15716.70
425.83	16379.07
426.01	16929.09
426.20	17003.99
426.39	16690.36
426.58	15585.63
426.77	14867.08
426.96	14422.38
427.15	15257.95
427.33	16203.53
427.52	16669.30
427.71	16945.48
427.90	16580.36
428.09	16409.50
428.28	15950.75
428.46	15091.77
428.65	15026.24
428.84	15791.59
429.03	15779.89
429.22	14581.54
429.40	13987.04
429.59	12446.97
429.78	11180.74
429.97	11569.27
430.16	11417.13
430.34	11552.88
430.53	11782.26
430.72	12521.87
430.91	14003.43
431.10	16311.19
431.28	18885.78
431.47	20070.09
431.66	19587.94
431.85	17614.87
432.03	16198.85
432.22	16329.92
432.41	17542.32
432.60	18841.31
432.79	19587.94
432.97	20168.40
433.16	18876.42
433.35	17268.47
433.54	15295.40
433.72	14728.99
433.91	15934.37
434.10	17724.88
434.28	18684.50
434.47	19616.03
434.66	18925.57
434.85	18265.54
435.03	18813.23
435.22	19234.52
435.41	20374.36
435.59	20259.68
435.78	20163.72
435.97	20519.48
436.16	21146.74
436.34	20655.23
436.53	20313.51
436.72	20432.88
436.90	19049.62
437.09	19768.16
437.28	19035.58
437.46	19836.04
437.65	19150.26
437.84	17811.48
438.02	16542.91
438.21	17284.86
438.40	17614.87
438.58	18867.06
438.77	19929.66
438.96	19772.85
439.14	20772.25
439.33	21067.16
439.52	21291.85
439.70	20608.42
439.89	19880.51
440.08	19414.74
440.26	19742.42
440.45	20847.15
440.63	22319.35
440.82	23187.69
441.01	22647.02
441.19	22408.29
441.38	23126.83
441.57	24325.19
441.75	24142.63
441.94	24404.77
442.12	24306.46
442.31	24467.96
442.50	24301.78
442.68	24154.33
442.87	24046.66
443.05	23300.03
443.24	24121.56
443.43	24149.65
443.61	24362.64
443.80	25039.05
443.98	24191.78
444.17	23896.87
444.35	25149.06
444.54	26073.57
444.73	25226.29
444.91	23520.04
445.10	22991.08
445.28	22443.40
445.47	21874.65
445.65	22239.77
445.84	23140.88
446.02	23487.28
446.21	24266.67
446.39	23978.79
446.58	24751.17
446.77	24943.09
446.95	25029.69
447.14	25820.79
447.32	25891.01
447.51	25387.79
447.69	24222.20
447.88	24491.37
448.06	24919.68
448.25	24903.30
448.43	25027.35
448.62	24790.95
448.80	24800.32
448.99	24390.72
449.17	25090.54
449.36	25310.55
449.54	26113.36
449.73	26068.89
449.91	26588.49
450.10	27229.79
450.28	27524.70
450.46	27819.61
450.65	27702.58
450.83	27234.47
451.02	26654.02
451.20	26611.89
451.39	27080.00
451.57	26764.03
451.76	26869.35
451.94	26462.10
452.13	25965.90
452.31	24049.00
452.49	23180.67
452.68	23941.34
452.86	24006.87
453.05	24453.92
453.23	25668.66
453.42	25741.21
453.60	26637.64
453.78	26314.64
453.97	26120.38
454.15	25933.14
454.34	24816.70
454.52	25013.31
454.70	25153.74
454.89	25294.17
455.07	25584.40
455.26	25879.30
455.44	27000.42
455.62	27882.80
455.81	27227.45
455.99	27283.62
456.17	27730.67
456.36	28194.09
456.54	28498.36
456.73	27896.85
456.91	28210.48
457.09	28222.18
457.28	29413.51
457.46	27683.86
457.64	27201.71
457.83	27021.48
458.01	26286.56
458.19	27262.56
458.38	27934.29
458.56	28510.07
458.74	27782.16
458.93	27730.67
459.11	27456.82
459.29	26703.17
459.48	27658.11
459.66	27304.69
459.84	27824.29
460.03	28151.96
460.21	28613.05
460.39	28779.23
460.57	28643.48
460.76	28662.20
460.94	28748.80
461.12	28985.19
461.31	29249.67
461.49	29069.45
461.67	28774.55
461.85	29640.54
462.04	29317.55
462.22	29502.45
462.40	29256.70
462.59	28851.78
462.77	29294.14
462.95	29326.91
463.13	28926.68
463.32	28407.08
463.50	28030.26
463.68	28680.92
463.86	29130.31
464.05	27716.62
464.23	27262.56
464.41	27742.37
464.59	27559.81
464.78	29118.60
464.96	28982.85
465.14	28009.19
465.32	29240.31
465.50	30099.29
465.69	30494.84
465.87	28947.75
466.05	28367.29
466.23	27096.38
466.41	26803.82
466.60	27639.39
466.78	27683.86
466.96	27985.79
467.14	28339.21
467.32	28318.14
467.51	28779.23
467.69	27433.42
467.87	27812.59
468.05	28779.23
468.23	28400.06
468.41	28451.55
468.60	28533.47
468.78	29511.81
468.96	28924.34
469.14	28917.32
469.32	29261.38
469.50	27503.64
469.69	28369.63
469.87	28048.98
470.05	27721.30
470.23	27765.78
470.41	28194.09
470.59	28737.10
470.77	28231.54
470.95	29457.98
471.14	29378.40
471.32	29769.27
471.50	31016.78
471.68	31440.42
471.86	31405.31
472.04	30691.44
472.22	31318.71
472.40	30010.35
472.58	29921.41
472.77	29736.51
472.95	29811.40
473.13	30998.06
473.31	29556.28
473.49	29785.66
473.67	30569.74
473.85	30993.37
474.03	32505.36
474.21	32589.62
474.39	32446.85
474.57	32360.25
474.75	32840.06
474.93	32023.21
475.12	31358.50
475.30	31545.74
475.48	31035.50
475.66	31267.22
475.84	30829.54
476.02	31178.28
476.20	30864.64
476.38	31548.08
476.56	32921.98
476.74	33350.29
476.92	33406.47
477.10	33593.71
477.28	34532.26
477.46	34433.96
477.64	34864.62
477.82	35536.35
478.00	35065.91
478.18	34160.12
478.36	33670.95
478.54	34426.94
478.72	34618.86
478.90	36180.00
479.08	38003.28
479.26	37481.34
479.44	37652.20
479.62	36538.10
479.80	36783.86
479.98	37118.56
480.16	37715.39
480.34	36840.03
480.52	38256.06
480.70	38391.81
480.88	37680.28
481.06	38859.91
481.24	38658.63
481.41	39571.44
481.59	40439.78
481.77	39447.39
481.95	38660.97
482.13	38361.38
482.31	39409.94
482.49	39274.19
482.67	39337.38
482.85	39143.12
483.03	39531.65
483.21	40594.25
483.39	39971.67
483.57	39154.82
483.74	39335.04
483.92	40758.09
484.10	39807.83
484.28	40528.72
484.46	40004.44
484.64	41841.76
484.82	41010.87
485.00	40411.69
485.18	39344.41
485.35	37675.60
485.53	33439.23
485.71	31505.95
485.89	31887.46
486.07	33949.47
486.25	36886.84
486.43	39058.86
486.61	38864.60
486.78	38897.36
486.96	40224.45
487.14	41340.88
487.32	41748.14
487.50	42703.07
487.68	44406.98
487.85	45455.54
488.03	44144.84
488.21	44182.29
488.39	43562.05
488.57	42333.27
488.75	42274.76
488.92	44086.33
489.10	45876.84
489.28	47367.76
489.46	48935.92
489.64	48575.48
489.81	48814.21
489.99	47222.65
490.17	47948.21
490.35	48179.93
490.53	47653.31
490.70	46756.88
490.88	46969.87
491.06	48212.70
491.24	48224.40
491.41	47119.66
491.59	45031.91
491.77	45177.02
491.95	47107.96
492.13	48683.14
492.30	49034.22
492.48	49851.07
492.66	50534.51
492.84	50164.70
493.01	49745.75
493.19	49565.52
493.37	48467.81
493.54	49663.83
493.72	50464.29
493.90	50735.79
494.08	51318.59
494.25	51374.76
494.43	52027.77
494.61	52432.68
494.79	52374.17
494.96	52734.61
495.14	52189.27
495.32	50550.89
495.49	51178.15
495.67	51735.20
495.85	53214.42
496.02	53757.42
496.20	53490.60
496.38	52816.53
496.55	52753.33
496.73	53947.01
496.91	53736.36
497.09	53890.83
497.26	53902.54
497.44	53413.37
497.62	52285.23
497.79	51168.79
497.97	50358.97
498.14	51159.43
498.32	52879.72
498.50	52884.40
498.67	52790.78
498.85	53357.19
499.03	54188.08
499.20	54468.95
499.38	53797.21
499.56	53045.90
499.73	52664.39
499.91	52353.10
500.08	51711.80
500.26	51414.55
500.44	52154.16
500.61	52919.51
500.79	52282.89
500.97	52428.00
501.14	51194.54
501.32	51241.35
501.49	51510.51
501.67	51852.23
501.84	52289.91
502.02	52783.76
502.20	53532.73
502.37	53925.94
502.55	54103.82
502.72	54171.70
502.90	54618.74
503.07	54326.17
503.25	52861.00
503.43	52144.80
503.60	51756.27
503.78	51049.42
503.95	51847.55
504.13	53598.27
504.30	53769.13
504.48	53284.64
504.65	53371.24
504.83	53790.19
505.01	54375.33
505.18	54623.42
505.36	54979.18
505.53	55320.90
505.71	55660.28
505.88	55716.45
506.06	54850.45
506.23	54670.23
506.41	54358.94
506.58	54768.54
506.76	54892.58
506.93	54000.84
507.11	54190.42
507.28	54262.98
507.46	53741.04
507.63	53586.57
507.81	52645.67
507.98	53727.00
508.16	54726.41
508.33	54805.98
508.50	55138.34
508.68	55648.58
508.85	55999.66
509.03	56161.15
509.20	55512.83
509.38	54265.32
509.55	54176.38
509.73	54309.79
509.90	54628.10
510.08	55100.89
510.25	54387.03
510.42	54281.70
510.60	55107.91
510.77	55356.01
510.95	55323.24
511.12	55454.31
511.30	56332.01
511.47	56327.33
511.64	56430.32
511.82	56332.01
511.99	55009.61
512.17	55133.66
512.34	54438.52
512.51	54415.11
512.69	54796.62
512.86	54962.80
513.04	54859.82
513.21	54852.80
513.38	53556.14
513.56	53514.01
513.73	53024.84
513.90	53708.27
514.08	53951.69
514.25	53499.97
514.43	54246.60
514.60	54525.12
514.77	55004.93
514.95	54742.79
515.12	54710.02
515.29	55398.14
515.47	55901.36
515.64	55613.47
515.81	55276.43
515.99	53996.16
516.16	51828.82
516.33	48856.34
516.51	49272.96
516.68	47274.14
516.85	46043.02
517.03	48980.39
517.20	51735.20
517.37	53949.35
517.54	54906.63
517.72	53434.43
517.89	50305.13
518.06	48486.54
518.24	50223.22
518.41	52458.43
518.58	53045.90
518.75	53008.45
518.93	53286.98
519.10	52690.14
519.27	53801.89
519.45	54410.43
519.62	54852.80
519.79	55192.17
519.96	54677.25
520.14	54380.01
520.31	52711.20
520.48	53209.74
520.65	54293.41
520.83	55236.64
521.00	55320.90
521.17	54349.58
521.34	54593.00
521.52	55250.69
521.69	55407.50
521.86	55789.01
522.03	55854.54
522.20	53888.49
522.38	53375.92
522.55	53970.41
522.72	54784.92
522.89	53986.80
523.07	54487.67
523.24	55182.81
523.41	56301.59
523.58	56767.35
523.75	56926.51
523.92	56647.99
524.10	55852.20
524.27	55934.12
524.44	55744.54
524.61	55447.29
524.78	56079.24
524.96	55730.50
525.13	55779.65
525.30	56273.50
525.47	56416.27
525.64	56306.27
525.81	55402.82
525.98	52992.07
526.16	51929.47
526.33	52046.49
526.50	51517.53
526.67	51791.37
526.84	51774.99
527.01	53324.43
527.18	53862.75
527.36	54878.54
527.53	55835.82
527.70	55063.44
527.87	53841.68
528.04	54988.55
528.21	55503.46
528.38	56130.73
528.55	57235.46
528.72	56720.54
528.89	56360.10
529.07	56083.92
529.24	54770.88
529.41	54602.36
529.58	54536.82
529.75	55440.27
529.92	55730.50
530.09	55587.72
530.26	56280.52
530.43	57137.16
530.60	55767.94
530.77	56409.25
530.94	56617.56
531.11	56163.50
531.28	56427.98
531.46	56523.94
531.63	56102.64
531.80	55281.11
531.97	54422.14
532.14	54625.76
532.31	53525.71
532.48	52631.63
532.65	52945.26
532.82	53731.68
532.99	55531.55
533.16	55611.13
533.33	55372.39
533.50	55711.77
533.67	55789.01
533.84	54869.18
534.01	55285.79
534.18	55632.19
534.35	55313.88
534.52	54798.96
534.69	55274.09
534.86	55899.01
535.03	56002.00
535.20	55906.04
535.37	56746.29
535.54	57020.13
535.71	56432.66
535.88	56961.62
536.05	55468.36
536.22	54653.85
536.38	54450.22
536.55	53439.11
536.72	53183.99
536.89	54155.32
537.06	54167.02
537.23	55269.41
537.40	55442.61
537.57	54890.24
537.74	55519.85
537.91	55206.22
538.08	54688.96
538.25	54869.18
538.42	55533.89
538.59	54691.30
538.75	53766.79
538.92	53565.50
539.09	53570.18
539.26	53897.86
539.43	53680.19
539.60	54351.92
539.77	54756.83
539.94	54080.42
540.11	53542.10
540.28	53158.25
540.44	52385.87
540.61	52629.29
540.78	53347.83
540.95	54309.79
541.12	54555.55
541.29	54925.35
541.46	55285.79
541.62	54946.42
541.79	54255.96
541.96	53490.60
542.13	53301.02
542.30	54202.13
542.47	54553.21
542.63	53881.47
542.80	53806.58
542.97	53396.98
543.14	53371.24
543.31	53378.26
543.48	54817.69
543.64	55072.81
543.81	56303.93
543.98	55700.07
544.15	53851.05
544.32	54602.36
544.48	54330.86
544.65	54314.47
544.82	55058.76
544.99	52947.60
545.16	52963.98
545.32	52999.09
545.49	54199.79
545.66	54497.03
545.83	54003.18
546.00	54651.51
546.16	54742.79
546.33	54167.02
546.50	54129.57
546.67	54958.12
546.83	53734.02
547.00	54527.46
547.17	53315.06
547.34	52238.42
547.50	52549.71
547.67	53911.90
547.84	54237.23
548.00	54115.53
548.17	54141.27
548.34	54206.81
548.51	54712.36
548.67	55304.52
548.84	55000.25
549.01	54831.73
549.18	54003.18
549.34	54206.81
549.51	54113.19
549.68	54052.33
549.84	53731.68
550.01	53378.26
550.18	52889.09
550.34	53476.56
550.51	53855.73
550.68	53900.20
550.84	54000.84
551.01	53251.87
551.18	52903.13
551.34	52631.63
551.51	54019.56
551.68	53783.17
551.84	53392.30
552.01	53546.78
552.18	52989.73
552.34	52236.08
552.51	52718.23
552.68	52193.95
552.84	52420.98
553.01	52753.33
553.18	54038.29
553.34	53975.09
553.51	53694.23
553.67	53387.62
553.84	52671.42
554.01	53265.91
554.17	52612.90
554.34	53223.78
554.51	53504.65
554.67	52678.44
554.84	52715.89
555.00	52662.05
555.17	53146.54
555.33	51786.69
555.50	51791.37
555.67	52617.58
555.83	52758.02
556.00	52460.77
556.16	51716.48
556.33	51318.59
556.50	52257.14
556.66	52739.29
556.83	51971.60
556.99	51395.82
557.16	51849.89
557.32	51803.08
557.49	52154.16
557.65	51669.67
557.82	52683.12
557.98	52601.20
558.15	51498.81
558.32	50148.32
558.48	49462.54
558.65	49670.85
558.81	50403.44
558.98	51199.22
559.14	51412.21
559.31	51161.77
559.47	50494.72
559.64	49834.69
559.80	49633.40
559.97	50237.26
560.13	51903.72
560.30	52776.74
560.46	53347.83
560.63	53584.22
560.79	53434.43
560.96	52360.12
561.12	50777.92
561.29	50176.40
561.45	50700.68
561.61	52114.37
561.78	51000.27
561.94	52205.65
562.11	51945.85
562.27	51194.54
562.44	51667.33
562.60	51936.49
562.77	52317.99
562.93	50696.00
563.10	50857.50
563.26	50813.03
563.42	51723.50
563.59	50424.50
563.75	50319.18
563.92	50791.97
564.08	49736.38
564.24	50808.35
564.41	50431.52
564.57	51215.60
564.74	51224.96
564.90	49729.36
565.07	50307.47
565.23	48889.11
565.39	48367.17
565.56	49106.78
565.72	49202.74
565.88	47580.75
566.05	50307.47
566.21	51320.93
566.38	50211.51
566.54	50192.79
566.70	50873.88
566.87	50597.70
567.03	49727.02
567.19	50796.65
567.36	51519.87
567.52	49907.24
567.68	49687.23
567.85	48189.29
568.01	48212.70
568.17	49310.41
568.34	49535.10
568.50	49446.16
568.66	49815.96
568.83	48765.06
568.99	47955.24
569.15	48823.58
569.32	49106.78
569.48	48589.52
569.64	48023.11
569.81	48318.02
569.97	47690.76
570.13	47625.22
570.30	47016.68
570.46	45916.63
570.62	44818.92
570.78	45675.55
570.95	47042.43
571.11	46981.57
571.27	46216.22
571.43	46553.26
571.60	46279.41
571.76	48643.35
571.92	48397.60
572.09	48748.68
572.25	49165.29
572.41	49825.32
572.57	49528.08
572.74	49462.54
572.90	50440.89
573.06	49186.36
573.22	49331.47
573.38	49137.21
573.55	50473.65
573.71	49155.93
573.87	48830.60
574.03	49284.66
574.20	48294.61
574.36	48259.51
574.52	47285.84
574.68	47091.58
574.84	46291.12
575.01	46471.34
575.17	47337.33
575.33	47019.02
575.49	47407.55
575.65	46712.41
575.82	47063.49
575.98	46684.33
576.14	47632.24
576.30	48186.95
576.46	46625.81
576.62	47260.10
576.79	46342.61
576.95	46663.26
577.11	47260.10
577.27	47126.69
577.43	47508.19
577.59	46550.91
577.75	44886.79
577.92	44734.66
578.08	45132.55
578.24	46342.61
578.40	45947.06
578.56	45120.85
578.72	45525.76
578.88	45158.30
579.04	46185.79
579.21	44776.79
579.37	45460.23
579.53	46567.30
579.69	45357.24
579.85	45588.95
580.01	45874.50
580.17	45436.82
580.33	46419.84
580.49	46508.79
580.65	44566.14
580.82	45298.73
580.98	46265.37
581.14	47033.07
581.30	46705.39
581.46	45890.88
581.62	46396.44
581.78	46962.85
581.94	46770.93
582.10	47349.04
582.26	47269.46
582.42	47241.37
582.58	45200.43
582.74	45294.05
582.90	45151.27
583.06	45591.30
583.22	46178.77
583.38	45525.76
583.54	45942.38
583.70	46904.34
583.86	45925.99
584.02	46239.62
584.18	45647.47
584.34	45090.42
584.50	44484.22
584.66	44032.50
584.82	44858.71
584.98	45450.86
585.14	44346.13
585.30	44769.77
585.46	44343.79
585.62	45633.42
585.78	45645.13
585.94	44432.73
586.10	43941.22
586.26	43536.30
586.42	43983.35
586.58	43971.64
586.74	45368.94
586.90	45467.25
587.06	45085.74
587.22	45490.65
587.38	45471.93
587.54	44435.07
587.70	44449.11
587.86	44346.13
588.02	45022.54
588.18	44116.76
588.34	40432.75
588.49	38529.90
588.65	37743.48
588.81	37141.96
588.97	36070.00
589.13	36271.28
589.29	37675.60
589.45	38073.49
589.61	39414.62
589.77	41792.61
589.93	43592.48
590.08	42597.75
590.24	42712.44
590.40	42281.78
590.56	41832.39
590.72	41776.22
590.88	40863.41
591.04	42227.95
591.20	41167.68
591.35	41170.02
591.51	40500.63
591.67	40435.10
591.83	40589.57
591.99	41680.26
592.15	41418.12
592.31	42038.36
592.46	42660.94
592.62	43138.41
592.78	43210.97
592.94	40886.82
593.10	41799.63
593.26	43386.51
593.41	41820.69
593.57	41528.13
593.73	40802.56
593.89	41188.75
594.05	41663.88
594.20	40423.39
594.36	38483.09
594.52	39007.37
594.68	39332.70
594.84	39739.96
594.99	41790.27
595.15	40893.84
595.31	39894.43
595.47	41528.13
595.62	42052.41
595.78	41064.70
595.94	41846.44
596.10	41659.20
596.25	41347.90
596.41	40975.76
596.57	42043.04
596.73	41186.41
596.88	40275.94
597.04	41605.36
597.20	41326.84
597.36	40266.58
597.51	40868.09
597.67	39154.82
597.83	39473.13
597.99	39639.31
598.14	39119.71
598.30	39962.31
598.46	39922.52
598.61	40566.16
598.77	39749.32
598.93	39732.93
599.09	39257.81
599.24	39971.67
599.40	39473.13
599.56	39629.95
599.71	40060.61
599.87	40470.20
600.03	40020.82
600.18	38820.13
600.34	38483.09
600.50	39299.94
600.65	39271.85
600.81	39988.05
600.97	39189.93
601.12	38946.51
601.28	39292.91
601.44	37935.40
601.59	39035.45
601.75	39131.42
601.91	38295.85
602.06	38424.57
602.22	38562.67
602.37	38824.81
602.53	38892.68
602.69	40343.81
602.84	39072.90
603.00	38913.75
603.16	39756.34
603.31	39758.68
603.47	39215.68
603.62	41153.64
603.78	40563.82
603.94	39047.16
604.09	40533.40
604.25	39309.30
604.40	38768.63
604.56	38181.16
604.71	38169.46
604.87	37867.53
605.03	38017.32
605.18	37839.44
605.34	36865.78
605.49	36797.90
605.65	37507.08
605.80	37443.89
605.96	38293.50
606.12	38113.28
606.27	38022.00
606.43	35632.32
606.58	36711.30
606.74	36610.66
606.89	37275.37
607.05	37811.35
607.20	37717.73
607.36	36636.41
607.51	37457.93
607.67	37284.73
607.82	36236.17
607.98	37106.85
608.13	36016.16
608.29	36638.75
608.44	37151.32
608.60	37268.35
608.75	37179.41
608.91	37645.18
609.06	35676.79
609.22	35353.79
609.37	35178.25
609.53	37097.49
609.68	35398.26
609.84	34682.06
609.99	34749.93
610.15	35695.51
610.30	36795.56
610.46	37099.83
610.61	36493.63
610.76	35796.15
610.92	34642.27
611.07	35445.07
611.23	36861.10
611.38	38899.70
611.54	37736.46
611.69	36231.49
611.84	34689.08
612.00	34073.52
612.15	34274.80
612.31	33947.13
612.46	34911.43
612.62	35136.12
612.77	34436.30
612.92	35246.13
613.08	34604.82
613.23	35108.04
613.39	34703.12
613.54	34031.39
613.69	33247.31
613.85	35222.72
614.00	35335.07
614.15	34597.80
614.31	34836.53
614.46	33773.93
614.62	34878.66
614.77	33769.25
614.92	34054.79
615.08	34752.27
615.23	33692.01
615.38	33834.78
615.54	34223.31
615.69	33347.95
615.84	32261.94
616.00	33577.33
616.15	33785.63
616.30	33268.37
616.46	32940.70
616.61	33645.20
616.76	34361.40
616.92	33874.57
617.07	34370.77
617.22	33912.02
617.37	34330.98
617.53	34464.39
617.68	33511.79
617.83	34026.71
617.99	34249.06
618.14	34120.33
618.29	33708.40
618.45	33750.52
618.60	34038.41
618.75	33530.51
618.90	33390.08
619.06	34153.10
619.21	34944.20
619.36	33883.94
619.51	34043.09
619.67	34806.11
619.82	34939.52
619.97	34927.81
620.12	34515.88
620.28	33120.92
620.43	33656.90
620.58	33703.71
620.73	34127.35
620.89	32851.76
621.04	31667.45
621.19	31407.65
621.34	32072.36
621.49	31241.47
621.65	32400.04
621.80	32290.03
621.95	32484.30
622.10	32493.66
622.25	32528.77
622.41	31098.70
622.56	31285.94
622.71	31044.87
622.86	31372.54
623.01	30487.82
623.16	30670.38
623.32	30188.23
623.47	29788.00
623.62	30281.85
623.77	31023.80
623.92	30583.78
624.07	30808.47
624.23	29951.84
624.38	30338.02
624.53	30291.21
624.68	31037.84
624.83	30204.61
624.98	30445.69
625.13	29755.23
625.29	30052.48
625.44	30462.07
625.59	30513.56
625.74	30995.71
625.89	29940.13
626.04	30118.01
626.19	30595.48
626.34	30679.74
626.49	29687.36
626.65	30087.59
626.80	29979.92
626.95	30108.65
627.10	28676.24
627.25	28797.95
627.40	28252.61
627.55	27459.16
627.70	27267.24
627.85	28032.60
628.00	28432.83
628.15	28236.22
628.30	29186.48
628.45	28849.44
628.60	28311.12
628.76	27850.03
628.91	27342.14
629.06	27372.57
629.21	29762.25
629.36	29457.98
629.51	27875.78
629.66	26396.56
629.81	26909.14
629.96	27608.96
630.11	27807.90
630.26	28208.14
630.41	29621.82
630.56	29759.91
630.71	28861.15
630.86	28084.09
631.01	27063.61
631.16	27733.01
631.31	27072.98
631.46	27122.13
631.61	26501.89
631.76	27007.44
631.91	27962.38
632.06	27454.48
632.21	27845.35
632.36	28926.68
632.51	28833.06
632.66	28095.79
632.81	27915.57
632.96	28477.30
633.10	28584.96
633.25	27534.06
633.40	26115.70
633.55	26295.92
633.70	26836.58
633.85	27068.30
634.00	26682.11
634.15	26785.09
634.30	26298.26
634.45	27590.24
634.60	26984.04
634.75	25977.61
634.90	26693.81
635.05	26967.65
635.19	26810.84
635.34	27419.38
635.49	26052.50
635.64	26614.23
635.79	27702.58
635.94	27938.97
636.09	27960.04
636.24	26670.40
636.39	26010.37
636.53	26848.29
636.68	26361.45
636.83	25717.81
636.98	26331.03
637.13	26197.62
637.28	26782.75
637.43	27744.71
637.57	28549.85
637.72	26625.93
637.87	26918.50
638.02	27154.90
638.17	27604.28
638.32	27803.22
638.46	28077.07
638.61	26328.69
638.76	26139.10
638.91	26803.82
639.06	27051.91
639.20	26012.71
639.35	24774.57
639.50	24875.21
639.65	25970.58
639.80	26066.55
639.94	25846.54
640.09	26572.10
640.24	25371.41
640.39	25223.95
640.54	24697.33
640.68	25106.93
640.83	24950.11
640.98	25415.88
641.13	25118.63
641.27	25010.96
641.42	24648.18
641.57	25006.28
641.72	25640.57
641.86	25883.98
642.01	25516.52
642.16	24699.67
642.31	25142.03
642.45	25640.57
642.60	25656.95
642.75	25055.43
642.90	25378.43
643.04	25345.66
643.19	24432.85
643.34	24790.95
643.48	24404.77
643.63	24734.78
643.78	23524.72
643.93	24201.14
644.07	24137.94
644.22	24477.32
644.37	24542.86
644.51	23931.98
644.66	24210.50
644.81	24123.90
644.95	24917.34
645.10	24716.06
645.25	24154.33
645.39	24341.57
645.54	23981.13
645.69	23243.86
645.83	23587.92
645.98	22764.05
646.13	22024.44
646.27	21841.88
646.42	21867.63
646.57	21811.45
646.71	22361.48
646.86	22455.10
647.00	22125.08
647.15	22326.37
647.30	22450.42
647.44	23077.68
647.59	22078.27
647.74	21678.04
647.88	22417.65
648.03	21750.60
648.17	22878.74
648.32	23187.69
648.47	23854.74
648.61	23683.88
648.76	23929.64
648.90	23131.51
649.05	22171.89
649.20	21235.68
649.34	21125.68
649.49	20720.76
649.63	21315.26
649.78	22284.24
649.92	22417.65
650.07	21792.73
650.21	21715.49
650.36	22373.18
650.51	22574.47
650.65	22045.51
650.80	21516.54
650.94	21701.45
651.09	21612.51
651.23	20404.79
651.38	20652.89
651.52	21343.35
651.67	21198.23
651.81	21757.62
651.96	21977.63
652.10	23295.35
652.25	22785.12
652.39	22616.60
652.54	22291.26
652.68	22244.45
652.83	21926.14
652.97	21563.36
653.12	21235.68
653.26	21406.54
653.41	21090.57
653.55	21401.86
653.70	20734.81
653.84	21387.82
653.99	21783.37
654.13	21085.89
654.27	21273.13
654.42	20519.48
654.56	20119.24
654.71	20339.26
654.85	20573.31
655.00	21003.97
655.14	20828.43
655.29	20449.26
655.43	18953.66
655.57	18246.82
655.72	16741.85
655.86	15630.10
656.01	15655.84
656.15	16414.18
656.30	17106.98
656.44	17565.72
656.58	18209.37
656.73	19087.07
656.87	19138.56
657.01	19550.49
657.16	19269.63
657.30	19548.15
657.45	19866.47
657.59	19391.34
657.73	19709.65
657.88	19768.16
658.02	19576.24
658.16	20297.13
658.31	20109.88
658.45	19822.00
658.60	20056.05
658.74	20126.27
658.88	20205.84
659.03	19711.99
659.17	19201.76
659.31	18991.11
659.46	19117.50
659.60	19934.34
659.74	20093.50
659.89	20126.27
660.03	20292.44
660.17	19461.55
660.32	19889.87
660.46	19159.63
660.60	20325.21
660.74	19875.83
660.89	19939.02
661.03	19000.47
661.17	19700.29
661.32	20617.78
661.46	20390.75
661.60	20058.39
661.74	19536.45
661.89	20034.99
662.03	19501.34
662.17	19051.96
662.31	20369.68
662.46	20109.88
662.60	19590.28
662.74	18511.30
662.88	18635.35
663.03	19831.36
663.17	19564.54
663.31	18445.76
663.45	18897.49
663.60	19042.60
663.74	17855.95
663.88	18305.33
664.02	18260.86
664.17	17444.01
664.31	16744.19
664.45	17406.56
664.59	18073.62
664.73	19037.92
664.88	18162.56
665.02	17696.79
665.16	17610.19
665.30	18569.81
665.44	19185.37
665.59	20257.34
665.73	19201.76
665.87	18705.56
666.01	18391.93
666.15	17362.09
666.29	17207.62
666.44	17518.91
666.58	17067.19
666.72	18347.46
666.86	19370.27
667.00	19183.03
667.14	19417.08
667.28	18590.88
667.43	18349.80
667.57	17584.44
667.71	17561.04
667.85	17336.35
667.99	16957.18
668.13	16606.10
668.27	16409.50
668.41	16418.86
668.56	17638.28
668.70	18024.47
668.84	19082.39
668.98	19290.70
669.12	18668.11
669.26	18232.77
669.40	18122.77
669.54	17694.45
669.68	17556.36
669.82	16311.19
669.96	16952.50
670.10	17694.45
670.25	18059.57
670.39	17968.29
670.53	17642.96
670.67	16999.31
670.81	16402.47
670.95	16226.93
671.09	16257.36
671.23	16353.32
671.37	16587.38
671.51	16828.45
671.65	16255.02
671.79	16592.06
671.93	16886.97
672.07	16411.84
672.21	16100.55
672.35	15934.37
672.49	16528.86
672.63	16538.23
672.77	15950.75
672.91	15733.08
673.05	15391.36
673.19	15241.57
673.33	16194.17
673.47	17165.49
673.61	16849.52
673.75	15983.52
673.89	15564.56
674.03	15187.74
674.17	14984.11
674.31	15438.17
674.45	15810.32
674.59	15845.43
674.73	15658.18
674.87	15473.28
675.01	15147.95
675.15	15159.65
675.29	15602.01
675.43	14995.81
675.56	14647.07
675.70	14518.34
675.84	14469.19
675.98	14719.63
676.12	14050.24
676.26	14338.12
676.40	14483.24
676.54	14190.67
676.68	14059.60
676.82	14487.92
676.96	14445.79
677.10	14185.99
677.23	14972.41
677.37	15470.94
677.51	14785.16
677.65	13921.51
677.79	13390.20
677.93	13605.53
678.07	13537.66
678.21	13973.00
678.34	14223.44
678.48	14059.60
678.62	13612.56
678.76	13680.43
678.90	13612.56
679.04	13467.44
679.18	13151.47
679.31	13439.36
679.45	13324.67
679.59	13401.91
679.73	13795.12
679.87	14171.94
680.00	14778.14
680.14	13570.43
680.28	13696.82
680.42	13242.75
680.56	12814.43
680.70	13259.13
680.83	13760.01
680.97	13217.01
681.11	13411.27
681.25	13036.78
681.39	13516.59
681.52	13095.30
681.66	12741.88
681.80	12727.83
681.94	12858.90
682.07	12833.16
682.21	12496.12
682.35	13039.12
682.49	12428.24
682.62	12699.75
682.76	12585.06
682.90	11985.88
683.04	11604.38
683.17	11316.49
683.31	11524.80
683.45	12004.61
683.59	12461.01
683.72	11796.30
683.86	11398.41
684.00	11154.99
684.13	11056.69
684.27	11330.53
684.41	11639.48
684.55	11749.49
684.68	11784.60
684.82	11438.20
684.96	11164.36
685.09	11173.72
685.23	11087.12
685.37	10918.60
685.50	10871.79
685.64	10857.75
685.78	10408.36
685.91	10368.57
686.05	10497.30
686.19	10740.72
686.32	9937.91
686.46	8791.05
686.60	7833.77
686.73	7201.83
686.87	6661.16
687.01	6689.25
687.14	7143.32
687.28	7052.03
687.42	7805.69
687.55	8145.06
687.69	8367.42
687.82	8945.53
687.96	9195.96
688.10	9352.78
688.23	9359.80
688.37	8975.95
688.50	8681.05
688.64	8564.02
688.78	8304.22
688.91	8496.14
689.05	8278.47
689.18	8280.82
689.32	8674.03
689.46	8432.95
689.59	8390.82
689.73	8496.14
689.86	8477.42
690.00	8372.10
690.13	8454.02
690.27	8549.98
690.41	8613.17
690.54	8547.64
690.68	8875.31
690.81	8975.95
690.95	8772.33
691.08	8549.98
691.22	8613.17
691.35	8760.63
691.49	8917.44
691.62	8800.41
691.76	9455.76
691.89	8423.59
692.03	7955.48
692.16	7836.11
692.30	8156.77
692.43	8271.45
692.57	8252.73
692.70	8299.54
692.84	8264.43
692.97	8262.09
693.11	8571.04
693.24	8203.58
693.38	7777.60
693.51	8477.42
693.65	8674.03
693.78	8278.47
693.92	7915.69
694.05	7892.29
694.19	7742.49
694.32	7250.98
694.45	7808.03
694.59	7946.12
694.72	7564.61
694.86	7456.95
694.99	7555.25
695.13	7494.40
695.26	7508.44
695.39	7445.24
695.53	7073.10
695.66	6885.86
695.80	7089.48
695.93	7368.01
696.07	7414.82
696.20	7707.38
696.33	7941.44
696.47	7929.74
696.60	7417.16
696.73	7419.50
696.87	7419.50
697.00	7585.68
697.14	7588.02
697.27	7648.87
697.40	7300.13
697.54	7070.76
697.67	6967.77
697.80	7070.76
697.94	7290.77
698.07	7091.82
698.21	6471.58
698.34	6513.71
698.47	6810.96
698.61	6574.56
698.74	6722.02
698.87	6513.71
699.01	6370.94
699.14	6719.68
699.27	6607.33
699.40	6930.33
699.54	6974.80
699.67	6864.79
699.80	6787.55
699.94	6789.89
700.07	6490.31
700.20	5940.28
700.34	6286.68
700.47	6139.23
700.60	5970.71
700.73	6319.45
700.87	6132.20
701.00	5757.72
701.13	5816.23
701.26	6038.58
701.40	6061.99
701.53	6038.58
701.66	6380.30
701.79	6160.29
701.93	6080.71
702.06	6026.88
702.19	5832.62
702.32	5668.78
702.46	5771.76
702.59	5666.44
702.72	5699.20
702.85	5614.95
702.99	5811.55
703.12	5685.16
703.25	5900.49
703.38	5762.40
703.51	5345.78
703.65	5680.48
703.78	5643.03
703.91	5593.88
704.04	5767.08
704.17	5743.67
704.31	5678.14
704.44	5825.59
704.57	5757.72
704.70	5830.27
704.83	5959.00
704.96	6029.22
705.10	5727.29
705.23	5769.42
>>>>>End Processed Spectral Data<<<<<
