SpectraSuite Data File
++++++++++++++++++++++++++++++++++++
Date: Mon Oct 07 14:54:01 GMT-05:00 2013
User: price-jones
Dark Spectrum Present: No
Reference Spectrum Present: No
Number of Sampled Component Spectra: 1
Spectrometers: USB2+H05261
Integration Time (usec): 100000 (USB2+H05261)
Spectra Averaged: 1 (USB2+H05261)
Boxcar Smoothing: 0 (USB2+H05261)
Correct for Electrical Dark: No (USB2+H05261)
Strobe/Lamp Enabled: No (USB2+H05261)
Correct for Detector Non-linearity: No (USB2+H05261)
Correct for Stray Light: No (USB2+H05261)
Number of Pixels in Processed Spectrum: 2048
>>>>>Begin Processed Spectral Data<<<<<
365.73	0.00
365.92	0.00
366.12	0.00
366.32	0.00
366.52	0.00
366.72	0.00
366.91	0.00
367.11	0.00
367.31	0.00
367.51	0.00
367.70	0.00
367.90	0.00
368.10	0.00
368.30	0.00
368.49	0.00
368.69	0.00
368.89	0.00
369.09	0.00
369.28	0.00
369.48	0.00
369.68	0.00
369.87	0.00
370.07	0.00
370.27	0.00
370.47	690.46
370.66	3379.73
370.86	3812.73
371.06	4163.81
371.25	4437.66
371.45	4016.36
371.65	3517.83
371.84	3346.97
372.04	3534.21
372.24	3868.91
372.44	4227.01
372.63	4002.32
372.83	3606.77
373.03	3323.56
373.22	2951.42
373.42	3260.37
373.62	3588.04
373.81	4051.47
374.01	4079.55
374.21	3574.00
374.40	3255.69
374.60	3510.80
374.79	4035.08
374.99	4704.48
375.19	5064.92
375.38	5039.17
375.58	4620.22
375.78	4376.80
375.97	4582.77
376.17	4807.46
376.37	4809.80
376.56	4933.85
376.76	5200.67
376.95	5483.88
377.15	5935.60
377.35	6171.99
377.54	6286.68
377.74	6487.96
377.93	6663.51
378.13	6380.30
378.33	6160.29
378.52	5563.45
378.72	5371.53
378.91	5259.18
379.11	5203.01
379.31	4971.30
379.50	4964.28
379.70	5313.02
379.89	5710.91
380.09	6141.57
380.28	6590.95
380.48	6443.49
380.68	6179.01
380.87	6001.13
381.07	5715.59
381.26	5394.93
381.46	4870.65
381.65	4814.48
381.85	4519.57
382.04	4486.81
382.24	4229.35
382.43	3918.06
382.63	3859.54
382.83	3808.05
383.02	3960.19
383.22	3936.78
383.41	3831.46
383.61	4063.17
383.80	4655.33
384.00	5334.08
384.19	6061.99
384.39	6258.59
384.58	6445.84
384.78	6246.89
384.97	6296.04
385.17	5753.04
385.36	5652.39
385.56	5444.09
385.75	5343.44
385.95	5989.43
386.14	6483.28
386.34	6511.37
386.53	6216.46
386.72	5933.26
386.92	5916.87
387.11	6335.83
387.31	6494.99
387.50	6476.26
387.70	6134.54
387.89	6225.82
388.09	6167.31
388.28	6228.17
388.48	6394.34
388.67	6691.59
388.86	7447.58
389.06	8006.97
389.25	8463.38
389.45	8301.88
389.64	8463.38
389.84	8294.86
390.03	8236.35
390.22	8301.88
390.42	8262.09
390.61	9060.21
390.81	9486.19
391.00	9795.14
391.19	9893.44
391.39	9523.64
391.58	8844.88
391.78	8358.05
391.97	8147.40
392.16	7632.49
392.36	6949.05
392.55	5411.32
392.75	4383.82
392.94	3569.32
393.13	3478.04
393.33	4126.36
393.52	5259.18
393.71	6478.60
393.91	7492.05
394.10	7913.35
394.29	8788.71
394.49	9401.93
394.68	10263.25
394.88	10057.28
395.07	10857.75
395.26	10450.49
395.46	9916.85
395.65	9710.88
395.84	8449.33
396.04	7096.50
396.23	5858.36
396.42	4823.84
396.62	4627.24
396.81	5430.04
397.00	6736.06
397.19	8711.47
397.39	10216.44
397.58	11857.15
397.77	12142.70
397.97	12465.69
398.16	12908.05
398.35	13312.97
398.55	13692.13
398.74	14127.47
398.93	14513.66
399.12	14349.82
399.32	13738.94
399.51	14270.25
399.70	14951.34
399.90	14988.79
400.09	14913.89
400.28	14876.44
400.47	14590.90
400.67	15463.92
400.86	16032.67
401.05	16046.71
401.24	16070.12
401.44	16306.51
401.63	16280.77
401.82	16135.65
402.01	16292.47
402.21	16596.74
402.40	16678.66
402.59	16273.74
402.78	15501.37
402.97	14920.92
403.17	15304.76
403.36	16533.54
403.55	17317.62
403.74	17462.74
403.93	16650.57
404.13	15342.21
404.32	14843.68
404.51	15861.81
404.70	17015.69
404.89	16933.78
405.09	16386.09
405.28	16531.20
405.47	16250.34
405.66	16446.94
405.85	15791.59
406.05	15119.86
406.24	15365.62
406.43	16325.24
406.62	16910.37
406.81	16964.20
407.00	16493.76
407.20	16058.42
407.39	16350.98
407.58	16620.14
407.77	17509.55
407.96	17921.48
408.15	18237.45
408.34	18279.58
408.54	19290.70
408.73	19297.72
408.92	18637.69
409.11	18579.17
409.30	17694.45
409.49	16519.50
409.68	15398.38
409.87	14934.96
410.07	15784.57
410.26	17111.66
410.45	17994.04
410.64	18469.17
410.83	19335.17
411.02	19637.09
411.21	20091.16
411.40	19941.36
411.59	20252.66
411.78	20004.56
411.98	19697.95
412.17	20423.51
412.36	19826.68
412.55	19913.28
412.74	19302.40
412.93	18925.57
413.12	19166.65
413.31	20664.59
413.50	20908.01
413.69	21671.02
413.88	20657.57
414.07	20027.96
414.26	20236.27
414.45	20896.30
414.64	21067.16
414.83	21193.55
415.02	20748.85
415.22	20624.80
415.41	21319.94
415.60	21912.10
415.79	22967.68
415.98	23426.42
416.17	23393.65
416.36	22511.27
416.55	22295.94
416.74	21586.76
416.93	20748.85
417.12	20713.74
417.31	21462.71
417.50	21497.82
417.69	22288.92
417.88	22176.58
418.07	21741.24
418.26	21509.52
418.45	21598.46
418.64	22424.67
418.83	23318.76
419.02	23396.00
419.21	22899.80
419.39	21909.75
419.58	20655.23
419.77	20947.79
419.96	21565.70
420.15	23211.09
420.34	23749.42
420.53	24641.16
420.72	24718.40
420.91	24662.22
421.10	24287.74
421.29	24261.99
421.48	23407.70
421.67	24259.65
421.86	23711.97
422.05	22719.58
422.24	19971.79
422.43	19571.56
422.61	21549.31
422.80	23508.34
422.99	23662.82
423.18	22661.07
423.37	22366.16
423.56	22118.06
423.75	22595.53
423.94	23028.53
424.13	22061.89
424.32	22045.51
424.50	22127.42
424.69	21575.06
424.88	22024.44
425.07	22073.59
425.26	21914.44
425.45	21771.66
425.64	21006.31
425.83	21015.67
426.01	22419.99
426.20	23269.61
426.39	22955.97
426.58	21172.49
426.77	19737.74
426.96	18890.46
427.15	19459.21
427.33	21593.78
427.52	22373.18
427.71	22228.07
427.90	22008.06
428.09	22080.61
428.28	21099.93
428.46	20507.77
428.65	20166.06
428.84	21022.69
429.03	21273.13
429.22	19955.41
429.40	19005.15
429.59	17252.09
429.78	15440.51
429.97	15166.67
430.16	15632.44
430.34	15431.15
430.53	15396.04
430.72	15878.19
430.91	17530.61
431.10	20432.88
431.28	24168.37
431.47	26333.37
431.66	26256.13
431.85	24273.70
432.03	22125.08
432.22	21179.51
432.41	21961.25
432.60	24428.17
432.79	25745.89
432.97	26106.34
433.16	25577.37
433.35	23140.88
433.54	21329.30
433.72	19599.65
433.91	20210.53
434.10	22548.72
434.28	24135.60
434.47	25348.00
434.66	25057.78
434.85	24676.27
435.03	24133.26
435.22	24856.49
435.41	26459.76
435.59	26401.24
435.78	26401.24
435.97	27557.47
436.16	27716.62
436.34	27522.36
436.53	26426.99
436.72	26307.62
436.90	25275.45
437.09	24819.04
437.28	24458.60
437.46	25827.81
437.65	25516.52
437.84	23873.46
438.02	21710.81
438.21	21649.96
438.40	22977.04
438.58	24833.08
438.77	25142.03
438.96	25818.45
439.14	26998.08
439.33	27379.59
439.52	27651.09
439.70	27236.81
439.89	26675.09
440.08	26078.25
440.26	25876.96
440.45	26668.06
440.63	28510.07
440.82	29951.84
441.01	29420.53
441.19	29062.43
441.38	29467.34
441.57	30642.29
441.75	31002.74
441.94	31550.42
442.12	30871.67
442.31	31665.11
442.50	31548.08
442.68	31667.45
442.87	30691.44
443.05	30422.28
443.24	31002.74
443.43	31557.44
443.61	32250.24
443.80	32451.53
443.98	30775.70
444.17	30431.65
444.35	32512.38
444.54	33186.46
444.73	32634.09
444.91	31171.25
445.10	30272.49
445.28	28716.03
445.47	28489.00
445.65	28325.16
445.84	29149.03
446.02	30609.53
446.21	30522.93
446.39	30829.54
446.58	30913.80
446.77	31482.55
446.95	31988.10
447.14	32521.74
447.32	33319.87
447.51	32645.79
447.69	31285.94
447.88	31206.36
448.06	31344.45
448.25	31990.44
448.43	32060.66
448.62	31721.28
448.80	31648.72
448.99	32091.09
449.17	32130.87
449.36	32283.01
449.54	33172.41
449.73	33790.31
449.91	34195.23
450.10	34817.81
450.28	35416.99
450.46	34906.75
450.65	35482.52
450.83	35175.91
451.02	34211.61
451.20	34022.03
451.39	34146.08
451.57	33642.86
451.76	33680.31
451.94	33504.77
452.13	33266.03
452.31	31594.89
452.49	30258.45
452.68	30478.46
452.86	30574.42
453.05	30911.46
453.23	31913.20
453.42	32526.42
453.60	33340.93
453.78	33291.78
453.97	33106.88
454.15	32872.82
454.34	32657.49
454.52	32751.12
454.70	32114.49
454.89	32563.87
455.07	32601.32
455.26	33291.78
455.44	34096.92
455.62	34820.15
455.81	34953.56
455.99	34998.03
456.17	34099.26
456.36	34300.55
456.54	35438.05
456.73	35400.60
456.91	35901.48
457.09	35873.39
457.28	36535.76
457.46	35391.24
457.64	34899.73
457.83	34469.07
458.01	33486.04
458.19	34466.73
458.38	34424.60
458.56	35585.50
458.74	35819.56
458.93	34899.73
459.11	34635.25
459.29	34433.96
459.48	34827.17
459.66	34525.24
459.84	34529.92
460.03	35182.93
460.21	35129.10
460.39	36313.41
460.57	36421.08
460.76	36109.78
460.94	36552.15
461.12	35959.99
461.31	36149.57
461.49	35974.03
461.67	36170.64
461.85	37422.83
462.04	37029.62
462.22	37523.47
462.40	36767.48
462.59	36795.56
462.77	36809.61
462.95	37031.96
463.13	36282.98
463.32	35978.72
463.50	35894.46
463.68	35887.43
463.86	35971.69
464.05	35756.36
464.23	34803.77
464.41	34572.05
464.59	33675.63
464.78	35459.12
464.96	35498.91
465.14	35229.74
465.32	36215.11
465.50	36760.45
465.69	37563.26
465.87	36392.99
466.05	35665.08
466.23	33876.91
466.41	33460.30
466.60	33769.25
466.78	33731.80
466.96	34691.42
467.14	35229.74
467.32	36081.70
467.51	36348.52
467.69	34162.46
467.87	34703.12
468.05	35208.68
468.23	35433.37
468.41	35641.68
468.60	35833.60
468.78	35952.97
468.96	35573.80
469.14	36531.08
469.32	35988.08
469.50	34820.15
469.69	35147.82
469.87	34139.05
470.05	34206.93
470.23	34354.38
470.41	34813.13
470.59	35054.20
470.77	35269.53
470.95	35805.52
471.14	36519.38
471.32	36107.44
471.50	38541.60
471.68	38532.24
471.86	38710.12
472.04	39019.07
472.22	39175.89
472.40	36961.74
472.58	36861.10
472.77	36032.55
472.95	37521.13
473.13	37998.60
473.31	36790.88
473.49	37371.33
473.67	38176.48
473.85	38036.05
474.03	39026.09
474.21	38878.64
474.39	39426.32
474.57	39695.49
474.75	39690.80
474.93	39578.46
475.12	38433.94
475.30	38557.99
475.48	39115.03
475.66	39182.91
475.84	38895.02
476.02	38525.22
476.20	38113.28
476.38	38656.29
476.56	39997.41
476.74	39974.01
476.92	40397.65
477.10	41148.96
477.28	41954.10
477.46	42136.66
477.64	42471.36
477.82	42838.83
478.00	43133.73
478.18	42520.51
478.36	41820.69
478.54	41677.92
478.72	42092.19
478.90	43442.68
479.08	44601.25
479.26	45027.23
479.44	44804.88
479.62	44371.88
479.80	44711.25
479.98	44641.04
480.16	45221.49
480.34	44697.21
480.52	45090.42
480.70	45240.21
480.88	45202.77
481.06	45965.78
481.24	46277.07
481.41	47262.44
481.59	47997.37
481.77	47400.53
481.95	47342.02
482.13	47021.36
482.31	46923.06
482.49	47632.24
482.67	47285.84
482.85	47377.12
483.03	48004.39
483.21	48774.42
483.39	48655.06
483.57	47950.56
483.74	47824.17
483.92	47746.93
484.10	48095.67
484.28	49310.41
484.46	49357.22
484.64	49647.44
484.82	48477.18
485.00	48488.88
485.18	47583.09
485.35	46267.71
485.53	42995.64
485.71	39136.10
485.89	38834.17
486.07	40669.15
486.25	44313.36
486.43	46499.42
486.61	47224.99
486.78	47398.19
486.96	47208.61
487.14	49015.50
487.32	49783.19
487.50	50871.54
487.68	51571.36
487.85	52327.36
488.03	52018.41
488.21	51428.59
488.39	50646.85
488.57	50087.46
488.75	49780.85
488.92	51096.24
489.10	53097.39
489.28	54185.74
489.46	54925.35
489.64	54813.01
489.81	54925.35
489.99	54578.95
490.17	54553.21
490.35	54876.20
490.53	54527.46
490.70	54059.35
490.88	54080.42
491.06	55140.68
491.24	54859.82
491.41	53975.09
491.59	52371.83
491.77	51498.81
491.95	52650.35
492.13	53741.04
492.30	54913.65
492.48	55559.64
492.66	56212.65
492.84	56119.02
493.01	55882.63
493.19	55491.76
493.37	55203.88
493.54	54752.15
493.72	55695.39
493.90	56563.73
494.08	57368.87
494.25	57595.90
494.43	57396.96
494.61	58073.37
494.79	58007.84
494.96	57696.55
495.14	57289.29
495.32	56299.25
495.49	55512.83
495.67	56893.74
495.85	58085.07
496.02	58101.46
496.20	58330.83
496.38	57752.72
496.55	57546.75
496.73	58061.67
496.91	58225.51
497.09	58663.19
497.26	58962.78
497.44	58461.90
497.62	58190.40
497.79	57237.80
497.97	56137.75
498.14	56189.24
498.32	57270.57
498.50	58279.34
498.67	58635.10
498.85	58419.77
499.03	58625.74
499.20	58726.38
499.38	58930.01
499.56	59000.22
499.73	58206.78
499.91	57904.85
500.08	57366.53
500.26	56750.97
500.44	57270.57
500.61	57942.30
500.79	57703.57
500.97	57476.54
501.14	56893.74
501.32	57130.14
501.49	56961.62
501.67	57598.24
501.84	57663.78
502.02	58031.24
502.20	58333.17
502.37	58370.62
502.55	58394.03
502.72	58911.28
502.90	59482.37
503.07	59082.14
503.25	58724.04
503.43	57989.11
503.60	57474.20
503.78	56722.88
503.95	57022.47
504.13	58281.68
504.30	59229.60
504.48	58960.44
504.65	58599.99
504.83	58553.18
505.01	59351.30
505.18	59526.84
505.36	60301.56
505.53	60273.48
505.71	60266.45
505.88	60523.91
506.06	59744.51
506.23	59728.13
506.41	59257.68
506.58	59620.47
506.76	59325.56
506.93	59316.20
507.11	58979.16
507.28	59384.07
507.46	58646.80
507.63	58295.72
507.81	57970.39
507.98	58145.93
508.16	59037.67
508.33	59447.27
508.50	59812.39
508.68	60189.22
508.85	60460.72
509.03	60413.91
509.20	60437.31
509.38	59746.86
509.55	58986.18
509.73	58915.96
509.90	59482.37
510.08	59812.39
510.25	59758.56
510.42	59358.33
510.60	59353.65
510.77	59662.60
510.95	60317.95
511.12	60107.30
511.30	60736.90
511.47	60711.16
511.64	60844.57
511.82	60566.04
511.99	59674.30
512.17	59379.39
512.34	58848.09
512.51	59189.81
512.69	59227.26
512.86	59182.79
513.04	59779.62
513.21	59774.94
513.38	59426.20
513.56	58915.96
513.73	58246.57
513.90	58550.84
514.08	58656.17
514.25	58944.05
514.43	59180.45
514.60	59253.00
514.77	59487.06
514.95	59536.21
515.12	59217.89
515.29	59529.19
515.47	60037.08
515.64	60360.08
515.81	59983.25
515.99	59498.76
516.16	58033.58
516.33	55978.59
516.51	54562.57
516.68	53560.82
516.85	53284.64
517.03	53602.95
517.20	56247.75
517.37	58464.24
517.54	59363.01
517.72	59175.76
517.89	56776.72
518.06	54562.57
518.24	54705.34
518.41	56938.21
518.58	57968.05
518.75	58286.36
518.93	58230.19
519.10	58394.03
519.27	58714.68
519.45	58864.47
519.62	59667.28
519.79	59929.42
519.96	59873.24
520.14	59344.28
520.31	58611.70
520.48	58564.88
520.65	58791.92
520.83	59751.54
521.00	60165.81
521.17	59966.87
521.34	59451.95
521.52	59803.03
521.69	60100.28
521.86	60706.47
522.03	60308.58
522.20	59245.98
522.38	58094.44
522.55	58124.86
522.72	58815.32
522.89	58836.39
523.07	59105.55
523.24	59423.86
523.41	60128.36
523.58	60589.45
523.75	60928.83
523.92	60498.17
524.10	60814.14
524.27	60643.28
524.44	60364.76
524.61	60341.35
524.78	60097.94
524.96	60116.66
525.13	59969.21
525.30	60434.97
525.47	60652.64
525.64	60575.40
525.81	59847.50
525.98	58557.86
526.16	57062.26
526.33	56678.41
526.50	56371.80
526.67	55819.44
526.84	56666.71
527.01	57502.28
527.18	58042.95
527.36	59025.97
527.53	59868.56
527.70	60065.17
527.87	59594.72
528.04	59138.32
528.21	59510.46
528.38	60116.66
528.55	60793.07
528.72	60970.96
528.89	61256.50
529.07	60959.25
529.24	60182.19
529.41	59604.08
529.58	59054.06
529.75	59199.17
529.92	59580.68
530.09	59997.29
530.26	60439.65
530.43	60828.18
530.60	60790.73
530.77	60942.87
530.94	61092.66
531.11	60662.00
531.28	60301.56
531.46	60023.04
531.63	60175.17
531.80	60275.82
531.97	59517.48
532.14	59145.34
532.31	57982.09
532.48	57715.27
532.65	57633.35
532.82	58211.46
532.99	59309.18
533.16	59770.26
533.33	60076.87
533.50	60086.23
533.67	59526.84
533.84	59009.59
534.01	59215.55
534.18	59449.61
534.35	59636.85
534.52	59440.24
534.69	59751.54
534.86	59910.69
535.03	60133.04
535.20	60556.68
535.37	60779.03
535.54	60933.51
535.71	60603.49
535.88	60287.52
536.05	59920.05
536.22	59430.88
536.38	59028.31
536.55	58679.57
536.72	58145.93
536.89	58014.86
537.06	58812.98
537.23	59700.04
537.40	59767.92
537.57	59763.24
537.74	59613.44
537.91	59849.84
538.08	59545.57
538.25	59683.66
538.42	59655.57
538.59	59627.49
538.75	58995.54
538.92	58674.89
539.09	58518.07
539.26	58384.66
539.43	58375.30
539.60	58260.62
539.77	58555.52
539.94	58387.00
540.11	57738.68
540.28	57275.25
540.44	57277.59
540.61	57462.49
540.78	57729.31
540.95	58178.70
541.12	58614.04
541.29	58691.27
541.46	58993.20
541.62	59171.08
541.79	59051.72
541.96	58403.39
542.13	58358.92
542.30	58710.00
542.47	58780.21
542.63	58576.59
542.80	58218.49
542.97	58382.32
543.14	58307.43
543.31	58340.19
543.48	58705.32
543.64	59568.97
543.81	59863.88
543.98	59917.71
544.15	59264.70
544.32	58391.68
544.48	58667.87
544.65	59044.69
544.82	59241.30
544.99	59159.38
545.16	58714.68
545.32	58253.59
545.49	59098.53
545.66	59477.69
545.83	59206.19
546.00	58841.07
546.16	58585.95
546.33	58571.91
546.50	58658.51
546.67	59229.60
546.83	58518.07
547.00	58522.76
547.17	57949.32
547.34	57621.65
547.50	57312.70
547.67	57724.63
547.84	58024.22
548.00	58092.10
548.17	58745.11
548.34	58773.19
548.51	58541.48
548.67	58557.86
548.84	58562.54
549.01	58515.73
549.18	58522.76
549.34	58394.03
549.51	58471.26
549.68	58209.12
549.84	58232.53
550.01	58281.68
550.18	57778.46
550.34	58124.86
550.51	58145.93
550.68	58092.10
550.84	57518.67
551.01	57946.98
551.18	57696.55
551.34	58056.99
551.51	58117.84
551.68	58478.28
551.84	58532.12
552.01	58429.13
552.18	58258.27
552.34	57315.04
552.51	56919.49
552.68	56966.30
552.84	57457.81
553.01	57717.61
553.18	57626.33
553.34	57799.53
553.51	57968.05
553.67	58293.38
553.84	58379.98
554.01	58014.86
554.17	57958.69
554.34	57832.30
554.51	58010.18
554.67	58604.67
554.84	58281.68
555.00	57801.87
555.17	57532.71
555.33	57855.70
555.50	57595.90
555.67	57705.91
555.83	57408.66
556.00	57104.39
556.16	57310.36
556.33	56921.83
556.50	56727.56
556.66	56626.92
556.83	56369.46
556.99	56507.55
557.16	56587.13
557.32	56907.79
557.49	57141.84
557.65	57209.71
557.82	57221.42
557.98	56732.25
558.15	56334.35
558.32	55681.34
558.48	54684.28
558.65	55182.81
558.81	55405.16
558.98	55545.59
559.14	55852.20
559.31	56023.06
559.47	55863.91
559.64	55791.35
559.80	55426.23
559.97	55655.60
560.13	55873.27
560.30	56624.58
560.46	57176.95
560.63	57614.63
560.79	57441.43
560.96	56891.40
561.12	56130.73
561.29	54906.63
561.45	55222.60
561.61	55840.50
561.78	56137.75
561.94	55985.61
562.11	55887.31
562.27	55512.83
562.44	55973.91
562.60	56226.69
562.77	56470.11
562.93	56617.56
563.10	56385.85
563.26	55723.47
563.42	55842.84
563.59	55508.14
563.75	55545.59
563.92	55753.90
564.08	55728.16
564.24	56004.34
564.41	55814.76
564.57	55592.40
564.74	55732.84
564.90	55576.02
565.07	55306.86
565.23	55037.70
565.39	54625.76
565.56	54138.93
565.72	54049.99
565.88	54298.09
566.05	54511.08
566.21	54649.17
566.38	54773.22
566.54	55035.36
566.70	55561.98
566.87	55402.82
567.03	55426.23
567.19	55814.76
567.36	55711.77
567.52	55150.04
567.68	54995.57
567.85	54312.13
568.01	53900.20
568.17	53471.88
568.34	53792.53
568.50	53516.35
568.66	53581.88
568.83	54089.78
568.99	54382.35
569.15	54621.08
569.32	54316.81
569.48	53839.34
569.64	53860.41
569.81	53570.18
569.97	53310.38
570.13	53427.41
570.30	52924.19
570.46	52704.18
570.62	52172.88
570.78	51620.52
570.95	52350.76
571.11	53113.78
571.27	53076.33
571.43	53279.96
571.60	53579.54
571.76	53790.19
571.92	54155.32
572.09	54260.64
572.25	54026.59
572.41	53975.09
572.57	53998.50
572.74	53813.60
572.90	53567.84
573.06	53806.58
573.22	53553.80
573.38	53666.14
573.55	53560.82
573.71	53785.51
573.87	53565.50
574.03	53385.28
574.20	53078.67
574.36	52945.26
574.52	52914.83
574.68	52856.32
574.84	52666.73
575.01	52079.26
575.17	51594.77
575.33	51948.19
575.49	52210.33
575.65	52327.36
575.82	52062.88
575.98	52048.83
576.14	52559.07
576.30	52512.26
576.46	52605.88
576.62	52743.97
576.79	52577.79
576.95	52060.54
577.11	51987.98
577.27	52236.08
577.43	52460.77
577.59	51980.96
577.75	51583.07
577.92	51065.81
578.08	50515.78
578.24	50410.46
578.40	50784.94
578.56	51154.75
578.72	51334.97
578.88	51447.32
579.04	51997.34
579.21	51880.31
579.37	51711.80
579.53	51973.94
579.69	52055.85
579.85	51929.47
580.01	52009.04
580.17	51243.69
580.33	51136.02
580.49	51283.48
580.65	51765.63
580.82	51793.71
580.98	51522.21
581.14	51796.06
581.30	51683.71
581.46	51784.35
581.62	51826.48
581.78	51948.19
581.94	51805.42
582.10	51819.46
582.26	52112.03
582.42	51920.10
582.58	51924.78
582.74	51732.86
582.90	51702.43
583.06	51814.78
583.22	51856.91
583.38	51620.52
583.54	51732.86
583.70	51613.49
583.86	51613.49
584.02	51227.31
584.18	51625.20
584.34	51278.80
584.50	51629.88
584.66	51210.92
584.82	50663.24
584.98	50866.86
585.14	50021.93
585.30	49270.62
585.46	49329.13
585.62	48884.43
585.78	49860.43
585.94	49537.44
586.10	49975.12
586.26	50211.51
586.42	50291.09
586.58	50859.84
586.74	50628.13
586.90	50246.62
587.06	50347.26
587.22	50263.00
587.38	49968.10
587.54	49628.72
587.70	49958.73
587.86	49289.34
588.02	48900.81
588.18	48680.80
588.34	47519.90
588.49	44968.71
588.65	43086.92
588.81	42712.44
588.97	43089.26
589.13	43150.12
589.29	43056.50
589.45	43676.74
589.61	45216.81
589.77	46033.66
589.93	47377.12
590.08	47826.51
590.24	48149.50
590.40	48257.17
590.56	48381.21
590.72	48123.75
590.88	47831.19
591.04	47332.65
591.20	47445.00
591.35	47559.69
591.51	47657.99
591.67	47339.68
591.83	47349.04
591.99	47224.99
592.15	47573.73
592.31	47948.21
592.46	47430.96
592.62	47304.57
592.78	46899.65
592.94	47206.26
593.10	47157.11
593.26	47646.29
593.41	47693.10
593.57	47391.17
593.73	46934.76
593.89	46794.33
594.05	46525.17
594.20	45998.55
594.36	45965.78
594.52	45350.22
594.68	45258.94
594.84	46106.21
594.99	46686.67
595.15	46019.61
595.31	46511.13
595.47	46429.21
595.62	46813.05
595.78	47182.86
595.94	47077.54
596.10	47407.55
596.25	46904.34
596.41	46651.56
596.57	45968.12
596.73	46630.49
596.88	46436.23
597.04	46651.56
597.20	46197.49
597.36	45642.79
597.51	46028.98
597.67	46162.39
597.83	45780.88
597.99	45399.37
598.14	45375.97
598.30	45282.34
598.46	45165.32
598.61	45595.98
598.77	45050.63
598.93	45394.69
599.09	45846.41
599.24	45996.21
599.40	45818.33
599.56	45752.79
599.71	45352.56
599.87	45858.12
600.03	45497.67
600.18	45113.83
600.34	44566.14
600.50	44566.14
600.65	44758.06
600.81	45036.59
600.97	44994.46
601.12	44657.42
601.28	44690.19
601.44	44713.59
601.59	44105.06
601.75	43618.22
601.91	43288.21
602.06	43756.32
602.22	44320.38
602.37	44226.76
602.53	44540.39
602.69	45045.95
602.84	44477.20
603.00	44917.22
603.16	45408.73
603.31	45298.73
603.47	45113.83
603.62	44772.11
603.78	44491.24
603.94	44711.25
604.09	45013.18
604.25	44451.45
604.40	44495.92
604.56	44423.37
604.71	44914.88
604.87	44884.45
605.03	44322.72
605.18	43906.11
605.34	44198.68
605.49	43683.76
605.65	44350.81
605.80	43519.92
605.96	43681.42
606.12	43274.16
606.27	43182.88
606.43	43180.54
606.58	43681.42
606.74	43791.42
606.89	43880.36
607.05	44018.46
607.20	44023.14
607.36	43166.50
607.51	43124.37
607.67	42623.50
607.82	42284.12
607.98	42541.58
608.13	42471.36
608.29	42094.53
608.44	42316.89
608.60	41865.16
608.75	42389.44
608.91	42281.78
609.06	41745.80
609.22	42597.75
609.37	41961.12
609.53	42415.19
609.68	41549.19
609.84	41043.63
609.99	40449.14
610.15	40835.33
610.30	41619.41
610.46	41406.42
610.61	41954.10
610.76	42220.92
610.92	42291.14
611.07	42454.98
611.23	42349.65
611.38	42333.27
611.54	42089.85
611.69	41134.92
611.84	40722.98
612.00	40304.02
612.15	40449.14
612.31	40765.11
612.46	40666.81
612.62	40774.47
612.77	40584.89
612.92	41123.21
613.08	40245.51
613.23	39725.91
613.39	39182.91
613.54	38515.86
613.69	39278.87
613.85	39047.16
614.00	39384.19
614.15	39342.06
614.31	39304.62
614.46	39835.92
614.62	39690.80
614.77	39882.73
614.92	39653.36
615.08	39484.84
615.23	39372.49
615.38	39533.99
615.54	38323.93
615.69	37834.76
615.84	36746.41
616.00	36982.80
616.15	36849.39
616.30	37233.24
616.46	37247.29
616.61	37366.65
616.76	37467.30
616.92	38089.88
617.07	38185.84
617.22	38490.11
617.37	38190.52
617.53	38789.70
617.68	38572.03
617.83	38794.38
617.99	38803.74
618.14	38679.69
618.29	38476.07
618.45	38347.34
618.60	37544.53
618.75	37912.00
618.90	36889.18
619.06	37933.06
619.21	38117.96
619.36	38485.43
619.51	37745.82
619.67	37717.73
619.82	37773.91
619.97	37652.20
620.12	37457.93
620.28	37701.35
620.43	38192.86
620.58	37720.07
620.73	37778.59
620.89	37546.87
621.04	37116.22
621.19	37055.36
621.34	36943.02
621.49	36247.88
621.65	36364.90
621.80	36308.73
621.95	36039.57
622.10	36432.78
622.25	36629.38
622.41	36381.29
622.56	35768.07
622.71	35669.76
622.86	35442.73
623.01	35763.39
623.16	35688.49
623.32	35566.78
623.47	35690.83
623.62	35342.09
623.77	35168.89
623.92	35093.99
624.07	34550.99
624.23	34284.17
624.38	34438.64
624.53	34621.20
624.68	34281.83
624.83	34206.93
624.98	34188.21
625.13	33666.27
625.29	33799.68
625.44	33673.29
625.59	33818.40
625.74	34073.52
625.89	34359.06
626.04	34401.19
626.19	34022.03
626.34	34117.99
626.49	33947.13
626.65	34197.57
626.80	34394.17
626.95	34059.48
627.10	33972.88
627.25	33383.06
627.40	32437.48
627.55	31517.65
627.70	31325.73
627.85	31428.71
628.00	32238.54
628.15	32109.81
628.30	32383.65
628.45	33071.77
628.60	32996.87
628.76	32781.54
628.91	32783.88
629.06	32772.18
629.21	32322.80
629.36	32126.19
629.51	31969.38
629.66	31878.10
629.81	31234.45
629.96	31335.09
630.11	31723.62
630.26	31824.26
630.41	32098.11
630.56	32650.47
630.71	31718.94
630.86	31922.57
631.01	31613.62
631.16	31943.63
631.31	30878.69
631.46	30661.02
631.61	31126.78
631.76	31072.95
631.91	30962.95
632.06	31861.71
632.21	32041.93
632.36	31740.00
632.51	31618.30
632.66	31386.58
632.81	31620.64
632.96	31302.32
633.10	31220.41
633.25	30923.16
633.40	30895.07
633.55	31075.29
633.70	31260.20
633.85	30869.33
634.00	30787.41
634.15	30979.33
634.30	30934.86
634.45	31000.40
634.60	31276.58
634.75	31229.77
634.90	31199.34
635.05	31044.87
635.19	30712.51
635.34	31079.97
635.49	30881.03
635.64	30307.60
635.79	30246.74
635.94	30176.53
636.09	30380.15
636.24	30251.42
636.39	30534.63
636.53	30455.05
636.68	30382.49
636.83	30263.13
636.98	30623.57
637.13	30560.37
637.28	30749.96
637.43	30836.56
637.57	30866.98
637.72	30239.72
637.87	30110.99
638.02	29895.66
638.17	30408.24
638.32	30508.88
638.46	30384.83
638.61	30078.22
638.76	29771.61
638.91	29493.09
639.06	29366.70
639.20	29401.81
639.35	29284.78
639.50	29186.48
639.65	29132.65
639.80	29184.14
639.94	28870.51
640.09	29317.55
640.24	29149.03
640.39	28980.51
640.54	28463.25
640.68	28842.42
640.83	28336.87
640.98	28137.92
641.13	28301.76
641.27	28577.94
641.42	28442.19
641.57	28304.10
641.72	28088.77
641.86	28517.09
642.01	28137.92
642.16	28652.84
642.31	28844.76
642.45	29165.42
642.60	28601.35
642.75	28266.65
642.90	28198.77
643.04	27749.39
643.19	28074.73
643.34	27929.61
643.48	27665.13
643.63	27828.97
643.78	28006.85
643.93	27864.08
644.07	28095.79
644.22	28615.39
644.37	28507.72
644.51	27740.03
644.66	27634.71
644.81	27405.33
644.95	27541.08
645.10	27346.82
645.25	27232.13
645.39	26998.08
645.54	27061.27
645.69	26820.20
645.83	26579.12
645.98	26326.35
646.13	26134.42
646.27	26373.16
646.42	26410.60
646.57	26810.84
646.71	26464.44
646.86	26583.80
647.00	26164.85
647.15	25968.24
647.30	25724.83
647.44	25717.81
647.59	25921.43
647.74	25734.19
647.88	25589.08
648.03	25603.12
648.17	25661.63
648.32	25773.98
648.47	26148.46
648.61	25586.74
648.76	25549.29
648.90	25263.74
649.05	24334.55
649.20	24212.84
649.34	23908.57
649.49	23866.44
649.63	24622.44
649.78	24812.02
649.92	25230.98
650.07	25778.66
650.21	25853.56
650.36	26001.01
650.51	25940.16
650.65	26036.12
650.80	25968.24
650.94	25535.24
651.09	25050.75
651.23	24439.87
651.38	24034.96
651.52	24205.82
651.67	24587.33
651.81	24680.95
651.96	24924.36
652.10	24996.92
652.25	24842.45
652.39	24800.32
652.54	25027.35
652.68	24947.77
652.83	24830.74
652.97	24704.35
653.12	24790.95
653.26	24828.40
653.41	24737.12
653.55	25076.50
653.70	24760.53
653.84	24538.18
653.99	24542.86
654.13	23885.17
654.27	23707.29
654.42	23578.56
654.56	23431.10
654.71	23269.61
654.85	23325.78
655.00	23300.03
655.14	23061.30
655.29	22841.29
655.43	22197.64
655.57	21493.14
655.72	20245.63
655.86	18476.19
656.01	17291.88
656.15	17820.84
656.30	18691.52
656.44	19646.46
656.58	20800.34
656.73	21156.10
656.87	21654.64
657.01	21928.48
657.16	22501.91
657.30	22403.61
657.45	22927.89
657.59	22965.34
657.73	22890.44
657.88	23295.35
658.02	23126.83
658.16	22862.35
658.31	22967.68
658.45	23133.86
658.60	23225.14
658.74	22712.56
658.88	22696.17
659.03	22382.54
659.17	22396.59
659.31	22302.96
659.46	22530.00
659.60	22527.66
659.74	22759.37
659.89	22958.31
660.03	23028.53
660.17	22860.01
660.32	22845.97
660.46	22824.90
660.60	22665.75
660.74	22551.06
660.89	22649.36
661.03	22253.81
661.17	22628.30
661.32	22614.26
661.46	22387.22
661.60	22405.95
661.74	22314.67
661.89	22508.93
662.03	22375.52
662.17	22326.37
662.31	22464.46
662.46	22267.86
662.60	22141.47
662.74	21928.48
662.88	21717.83
663.03	21546.97
663.17	21139.72
663.31	21441.65
663.45	21312.92
663.60	21874.65
663.74	21427.60
663.88	21422.92
664.02	21223.98
664.17	21139.72
664.31	21216.96
664.45	21193.55
664.59	21392.50
664.73	21476.76
664.88	21605.49
665.02	21387.82
665.16	21228.66
665.30	21565.70
665.44	21308.24
665.59	20891.62
665.73	20758.21
665.87	20538.20
666.01	20512.46
666.15	20173.08
666.29	20404.79
666.44	20472.67
666.58	20332.23
666.72	20496.07
666.86	20624.80
667.00	20755.87
667.14	20727.78
667.28	20531.18
667.43	20285.42
667.57	20072.43
667.71	19831.36
667.85	19896.89
667.99	20058.39
668.13	20102.86
668.27	19936.68
668.41	20262.02
668.56	19807.95
668.70	19704.97
668.84	20002.22
668.98	19625.39
669.12	19941.36
669.26	19733.06
669.40	19812.63
669.54	19793.91
669.68	19658.16
669.82	19351.55
669.96	19522.41
670.10	19403.04
670.25	19449.85
670.39	18934.93
670.53	18862.38
670.67	19000.47
670.81	18785.14
670.95	18953.66
671.09	19026.21
671.23	18766.42
671.37	18455.12
671.51	18200.01
671.65	18553.43
671.79	18377.89
671.93	18689.18
672.07	18845.99
672.21	18693.86
672.35	18541.72
672.49	18342.78
672.63	18438.74
672.77	18366.18
672.91	18185.96
673.05	17949.57
673.19	18141.49
673.33	18122.77
673.47	17877.01
673.61	17900.42
673.75	18015.10
673.89	17891.06
674.03	17720.20
674.17	18012.76
674.31	17877.01
674.45	17649.98
674.59	17755.30
674.73	17469.76
674.87	17261.45
675.01	17394.86
675.15	17104.64
675.29	17312.94
675.43	17509.55
675.56	17247.41
675.70	16999.31
675.84	17544.66
675.98	16908.03
676.12	17266.13
676.26	17191.23
676.40	16706.74
676.54	17064.85
676.68	17022.72
676.82	16465.67
676.96	16844.84
677.10	16500.78
677.23	16655.25
677.37	16624.83
677.51	16720.79
677.65	16603.76
677.79	16229.27
677.93	16037.35
678.07	16210.55
678.21	15700.31
678.34	15934.37
678.48	15609.03
678.62	15569.24
678.76	15908.62
678.90	15793.94
679.04	15709.68
679.18	15941.39
679.31	15852.45
679.45	15513.07
679.59	15279.02
679.73	15318.81
679.87	15515.41
680.00	15435.83
680.14	15274.34
680.28	15040.28
680.42	15040.28
680.56	15068.37
680.70	14949.00
680.83	14977.09
680.97	14696.22
681.11	14689.20
681.25	15047.30
681.39	14677.50
681.52	14808.57
681.66	14909.21
681.80	14520.68
681.94	14431.74
682.07	14633.03
682.21	14569.83
682.35	14382.59
682.49	14230.46
682.62	14073.64
682.76	14008.11
682.90	14169.60
683.04	14221.10
683.17	14052.58
683.31	13799.80
683.45	13701.50
683.59	13755.33
683.72	13469.78
683.86	13371.48
684.00	13259.13
684.13	13317.65
684.27	13312.97
684.41	13095.30
684.55	13469.78
684.68	13371.48
684.82	13226.37
684.96	12971.25
685.09	13071.89
685.23	13022.74
685.37	12554.63
685.50	12624.85
685.64	12844.86
685.78	12666.98
685.91	12643.57
686.05	12472.71
686.19	12166.10
686.32	11592.67
686.46	10391.98
686.60	9043.83
686.73	8463.38
686.87	7934.42
687.01	7852.50
687.14	8166.13
687.28	8273.79
687.42	8540.61
687.55	8910.42
687.69	9586.83
687.82	10050.26
687.96	10143.88
688.10	10443.47
688.23	10305.38
688.37	10214.10
688.50	9865.36
688.64	9841.95
688.78	9504.92
688.91	9544.70
689.05	9542.36
689.18	9474.49
689.32	9401.93
689.46	9596.20
689.59	9619.60
689.73	9423.00
689.86	9509.60
690.00	9645.35
690.13	9689.82
690.27	9661.73
690.41	9799.82
690.54	9731.95
690.68	9708.54
690.81	9870.04
690.95	9792.80
691.08	9816.21
691.22	9832.59
691.35	9863.02
691.49	10083.03
691.62	10073.67
691.76	9738.97
691.89	9788.12
692.03	9596.20
692.16	9668.75
692.30	9762.37
692.43	9701.52
692.57	9146.81
692.70	9373.85
692.84	9186.60
692.97	9165.54
693.11	9118.73
693.24	9015.74
693.38	9153.84
693.51	9270.86
693.65	9008.72
693.78	8795.73
693.92	8798.07
694.05	8828.50
694.19	8903.40
694.32	9142.13
694.45	8711.47
694.59	8800.41
694.72	8765.31
694.86	8812.12
694.99	8713.81
695.13	8514.87
695.26	8791.05
695.39	8713.81
695.53	8432.95
695.66	8652.96
695.80	8437.63
695.93	8423.59
696.07	8552.32
696.20	8643.60
696.33	8786.37
696.47	8891.70
696.60	8919.78
696.73	8933.82
696.87	8737.22
697.00	8830.84
697.14	8727.86
697.27	8676.37
697.40	8348.69
697.54	8173.15
697.67	8102.93
697.80	8124.00
697.94	8077.19
698.07	7983.57
698.21	7955.48
698.34	7868.88
698.47	7805.69
698.61	7669.94
698.74	7564.61
698.87	7683.98
699.01	7808.03
699.14	7683.98
699.27	7698.02
699.40	7770.58
699.54	7515.46
699.67	7627.81
699.80	7370.35
699.94	7328.22
700.07	7297.79
700.20	7124.59
700.34	6974.80
700.47	7124.59
700.60	7061.40
700.73	7052.03
700.87	7037.99
701.00	7115.23
701.13	7059.06
701.26	7052.03
701.40	6686.91
701.53	6729.04
701.66	6843.73
701.79	6801.60
701.93	6778.19
702.06	6698.61
702.19	6707.98
702.32	6918.62
702.46	6665.85
702.59	6581.59
702.72	6719.68
702.85	6520.73
702.99	6757.13
703.12	6715.00
703.25	6635.42
703.38	6516.05
703.51	6307.74
703.65	6462.22
703.78	6333.49
703.91	6523.07
704.04	6572.22
704.17	6455.20
704.31	6321.79
704.44	6413.07
704.57	6256.25
704.70	6267.95
704.83	6202.42
704.96	6164.97
705.10	6225.82
705.23	6242.21
>>>>>End Processed Spectral Data<<<<<
