SpectraSuite Data File
++++++++++++++++++++++++++++++++++++
Date: Mon Oct 07 14:53:54 GMT-05:00 2013
User: price-jones
Dark Spectrum Present: No
Reference Spectrum Present: No
Number of Sampled Component Spectra: 1
Spectrometers: USB2+H05261
Integration Time (usec): 100000 (USB2+H05261)
Spectra Averaged: 1 (USB2+H05261)
Boxcar Smoothing: 0 (USB2+H05261)
Correct for Electrical Dark: No (USB2+H05261)
Strobe/Lamp Enabled: No (USB2+H05261)
Correct for Detector Non-linearity: No (USB2+H05261)
Correct for Stray Light: No (USB2+H05261)
Number of Pixels in Processed Spectrum: 2048
>>>>>Begin Processed Spectral Data<<<<<
365.73	0.00
365.92	0.00
366.12	0.00
366.32	0.00
366.52	0.00
366.72	0.00
366.91	0.00
367.11	0.00
367.31	0.00
367.51	0.00
367.70	0.00
367.90	0.00
368.10	0.00
368.30	0.00
368.49	0.00
368.69	0.00
368.89	0.00
369.09	0.00
369.28	0.00
369.48	0.00
369.68	0.00
369.87	0.00
370.07	0.00
370.27	0.00
370.47	613.22
370.66	3061.42
370.86	3691.02
371.06	3861.88
371.25	4025.72
371.45	3564.64
371.65	3148.02
371.84	3070.78
372.04	3150.36
372.24	3515.48
372.44	3871.25
372.63	3597.40
372.83	3403.14
373.03	3124.62
373.22	2729.06
373.42	2832.05
373.62	3396.12
373.81	3726.13
374.01	3597.40
374.21	3332.92
374.40	3038.02
374.60	3159.72
374.79	3524.85
374.99	4105.30
375.19	4538.30
375.38	4383.82
375.58	4114.66
375.78	4147.43
375.97	4231.69
376.17	4533.62
376.37	4308.93
376.56	4369.78
376.76	4692.77
376.95	5078.96
377.15	5420.68
377.35	5687.50
377.54	5830.27
377.74	5849.00
377.93	5940.28
378.13	5865.38
378.33	5366.85
378.52	5221.74
378.72	4924.49
378.91	4805.12
379.11	4629.58
379.31	4561.70
379.50	4526.60
379.70	4964.28
379.89	5336.42
380.09	5643.03
380.28	5984.75
380.48	5731.97
380.68	5720.27
380.87	5760.06
381.07	5205.35
381.26	4903.42
381.46	4496.17
381.65	4280.84
381.85	4301.90
382.04	4032.74
382.24	3918.06
382.43	3655.92
382.63	3681.66
382.83	3410.16
383.02	3471.01
383.22	3452.29
383.41	3700.39
383.61	3922.74
383.80	4379.14
384.00	4828.53
384.19	5490.90
384.39	5881.77
384.58	5935.60
384.78	5748.36
384.97	5659.42
385.17	5420.68
385.36	5034.49
385.56	4903.42
385.75	5062.58
385.95	5612.60
386.14	5984.75
386.34	5975.39
386.53	5865.38
386.72	5238.12
386.92	5359.83
387.11	5652.39
387.31	6024.54
387.50	5743.67
387.70	5678.14
387.89	5516.64
388.09	5647.71
388.28	5713.25
388.48	5825.59
388.67	6143.91
388.86	6796.92
389.06	7234.60
389.25	7520.14
389.45	7744.83
389.64	7822.07
389.84	7501.42
390.03	7440.56
390.22	7377.37
390.42	7871.22
390.61	8271.45
390.81	8875.31
391.00	8994.68
391.19	9062.55
391.39	8552.32
391.58	7990.59
391.78	7662.91
391.97	7438.22
392.16	6780.53
392.36	6396.68
392.55	5085.98
392.75	3999.98
392.94	3323.56
393.13	3295.47
393.33	3751.88
393.52	4985.34
393.71	5970.71
393.91	6654.14
394.10	7325.88
394.29	8145.06
394.49	8685.73
394.68	9294.27
394.88	9659.39
395.07	9727.27
395.26	9781.10
395.46	9275.54
395.65	8688.07
395.84	7669.94
396.04	6661.16
396.23	5308.34
396.42	4458.72
396.62	4145.09
396.81	4994.70
397.00	6366.26
397.19	8042.08
397.39	9312.99
397.58	10672.84
397.77	11335.21
397.97	11826.73
398.16	11892.26
398.35	12276.11
398.55	12652.94
398.74	13018.06
398.93	13483.83
399.12	13128.06
399.32	12575.70
399.51	12868.27
399.70	13764.69
399.90	13741.29
400.09	13940.23
400.28	13511.91
400.47	13535.32
400.67	14286.63
400.86	14640.05
401.05	14766.44
401.24	14508.98
401.44	15309.44
401.63	15297.74
401.82	15206.46
402.01	15232.21
402.21	15051.99
402.40	15393.70
402.59	15073.05
402.78	14319.40
402.97	13977.68
403.17	14291.31
403.36	15494.35
403.55	15864.15
403.74	16238.64
403.93	15344.55
404.13	14298.33
404.32	13888.74
404.51	14384.93
404.70	15592.65
404.89	15695.63
405.09	15578.61
405.28	15129.22
405.47	14904.53
405.66	15044.96
405.85	14635.37
406.05	14038.53
406.24	14443.45
406.43	14946.66
406.62	15475.62
406.81	15569.24
407.00	14965.39
407.20	14518.34
407.39	14761.76
407.58	15374.98
407.77	15627.76
407.96	16325.24
408.15	16727.81
408.34	16861.22
408.54	17495.50
408.73	17673.39
408.92	17287.20
409.11	16901.01
409.30	16255.02
409.49	15161.99
409.68	14256.20
409.87	13612.56
410.07	14750.06
410.26	15786.91
410.45	16659.93
410.64	17181.87
410.83	17561.04
411.02	18092.34
411.21	18621.30
411.40	18368.52
411.59	18792.16
411.78	18363.84
411.98	18244.48
412.17	18541.72
412.36	17907.44
412.55	18494.91
412.74	17825.52
412.93	17521.25
413.12	17680.41
413.31	18991.11
413.50	19316.44
413.69	19721.35
413.88	19037.92
414.07	18338.10
414.26	18899.83
414.45	19342.19
414.64	19662.84
414.83	19641.78
415.02	19215.80
415.22	18913.87
415.41	19775.19
415.60	20252.66
415.79	21013.33
415.98	21474.42
416.17	21591.44
416.36	20872.90
416.55	20465.64
416.74	19936.68
416.93	19215.80
417.12	19047.28
417.31	19417.08
417.50	20081.80
417.69	20482.03
417.88	20500.75
418.07	20381.38
418.26	19969.45
418.45	19939.02
418.64	21067.16
418.83	21542.29
419.02	21413.56
419.21	21448.67
419.39	20449.26
419.58	19161.97
419.77	19515.39
419.96	20032.65
420.15	21214.62
420.34	21820.81
420.53	22602.55
420.72	23229.82
420.91	23016.83
421.10	22506.59
421.29	22431.69
421.48	21738.90
421.67	22848.31
421.86	21865.28
422.05	20606.08
422.24	18274.90
422.43	18368.52
422.61	20589.69
422.80	21951.88
422.99	22150.83
423.18	21312.92
423.37	20570.97
423.56	20695.02
423.75	20975.88
423.94	21502.50
424.13	20343.94
424.32	20608.42
424.50	20601.40
424.69	20159.03
424.88	20339.26
425.07	20205.84
425.26	20262.02
425.45	19742.42
425.64	19601.99
425.83	19658.16
426.01	21062.48
426.20	21303.56
426.39	21467.39
426.58	19630.07
426.77	18204.69
426.96	17640.62
427.15	18019.78
427.33	19545.81
427.52	20528.84
427.71	20437.56
427.90	20348.62
428.09	20114.56
428.28	19786.89
428.46	19199.41
428.65	18611.94
428.84	19367.93
429.03	19903.92
429.22	18436.40
429.40	17818.50
429.59	15943.73
429.78	13858.31
429.97	14368.55
430.16	14228.12
430.34	14448.13
430.53	14207.05
430.72	14501.96
430.91	16063.10
431.10	19197.07
431.28	22300.62
431.47	24210.50
431.66	24521.79
431.85	22211.68
432.03	20545.22
432.22	19506.02
432.41	20685.65
432.60	22504.25
432.79	23304.71
432.97	23927.30
433.16	23718.99
433.35	21577.40
433.54	19351.55
433.72	18045.53
433.91	18752.37
434.10	20650.55
434.28	22555.74
434.47	23697.92
434.66	23187.69
434.85	22740.64
435.03	22469.14
435.22	22977.04
435.41	24528.81
435.59	24519.45
435.78	24739.46
435.97	25703.76
436.16	25813.77
436.34	25156.08
436.53	24702.01
436.72	24893.94
436.90	23477.91
437.09	23711.97
437.28	22675.11
437.46	24013.90
437.65	23604.30
437.84	22104.02
438.02	20297.13
438.21	19983.49
438.40	21022.69
438.58	23227.48
438.77	23761.12
438.96	23906.23
439.14	24814.36
439.33	25394.81
439.52	25788.02
439.70	25216.93
439.89	24482.00
440.08	23910.91
440.26	23920.28
440.45	24559.24
440.63	26230.38
440.82	27793.86
441.01	27847.69
441.19	27168.94
441.38	27861.74
441.57	28664.54
441.75	29209.89
441.94	29200.52
442.12	29001.58
442.31	29338.62
442.50	29504.79
442.68	28975.83
442.87	28535.81
443.05	28226.86
443.24	28800.29
443.43	29467.34
443.61	29996.31
443.80	30066.52
443.98	28535.81
444.17	28428.15
444.35	30141.42
444.54	30684.42
444.73	30164.82
444.91	28982.85
445.10	27709.60
445.28	26745.30
445.47	26515.93
445.65	26618.91
445.84	27161.92
446.02	28151.96
446.21	28540.49
446.39	28428.15
446.58	28856.46
446.77	29439.26
446.95	29860.55
447.14	30651.66
447.32	31131.47
447.51	30185.89
447.69	29149.03
447.88	28545.17
448.06	29029.66
448.25	29748.21
448.43	30169.51
448.62	29502.45
448.80	29502.45
448.99	29680.33
449.17	29954.18
449.36	29834.81
449.54	31070.61
449.73	31365.52
449.91	31608.93
450.10	32786.22
450.28	32929.00
450.46	32725.37
450.65	32896.23
450.83	32683.24
451.02	31611.28
451.20	31990.44
451.39	31786.82
451.57	31119.76
451.76	31772.77
451.94	31477.86
452.13	30864.64
452.31	29439.26
452.49	27997.49
452.68	28418.78
452.86	28617.73
453.05	29017.96
453.23	29755.23
453.42	30403.56
453.60	31309.35
453.78	31407.65
453.97	31129.12
454.15	30866.98
454.34	30352.07
454.52	30810.81
454.70	29724.80
454.89	30169.51
455.07	30745.28
455.26	30899.75
455.44	31756.39
455.62	32706.65
455.81	32662.18
455.99	32346.20
456.17	31969.38
456.36	32503.02
456.54	33048.36
456.73	33092.83
456.91	33474.34
457.09	33191.14
457.28	34242.04
457.46	32992.19
457.64	32676.22
457.83	31929.59
458.01	30897.41
458.19	31868.73
458.38	31608.93
458.56	33390.08
458.74	32933.68
458.93	32369.61
459.11	32376.63
459.29	32123.85
459.48	32243.22
459.66	31878.10
459.84	32357.91
460.03	32603.66
460.21	32598.98
460.39	33425.19
460.57	33755.21
460.76	33834.78
460.94	34162.46
461.12	33638.18
461.31	33610.09
461.49	33481.36
461.67	33621.80
461.85	34958.24
462.04	34359.06
462.22	35145.48
462.40	34330.98
462.59	34497.16
462.77	34593.12
462.95	34653.97
463.13	34089.90
463.32	33811.38
463.50	33212.20
463.68	33457.96
463.86	33818.40
464.05	33191.14
464.23	32790.91
464.41	32772.18
464.59	31798.52
464.78	33675.63
464.96	33443.91
465.14	32788.56
465.32	33483.70
465.50	34724.19
465.69	34857.60
465.87	34017.35
466.05	33130.28
466.23	31892.14
466.41	30869.33
466.60	32226.84
466.78	31508.29
466.96	32994.53
467.14	32851.76
467.32	33235.61
467.51	33677.97
467.69	32180.03
467.87	32538.13
468.05	33048.36
468.23	32818.99
468.41	33366.68
468.60	33354.97
468.78	33809.04
468.96	33027.30
469.14	34059.48
469.32	34082.88
469.50	33015.60
469.69	32704.31
469.87	32428.12
470.05	32194.07
470.23	32264.28
470.41	32751.12
470.59	33172.41
470.77	32938.36
470.95	33450.94
471.14	33860.53
471.32	33893.30
471.50	35672.10
471.68	36348.52
471.86	35959.99
472.04	36676.19
472.22	36531.08
472.40	34979.31
472.58	34246.72
472.77	34129.69
472.95	34588.44
473.13	35447.41
473.31	34265.44
473.49	35044.84
473.67	35543.38
473.85	35821.90
474.03	36851.73
474.21	36266.60
474.39	37359.63
474.57	37930.72
474.75	37610.07
474.93	36980.46
475.12	36460.87
475.30	36187.02
475.48	36388.31
475.66	36587.25
475.84	36617.68
476.02	35938.93
476.20	35770.41
476.38	36116.81
476.56	37628.79
476.74	37832.42
476.92	37914.34
477.10	38745.23
477.28	39480.16
477.46	40037.20
477.64	40247.85
477.82	40327.43
478.00	40526.38
478.18	39938.90
478.36	39784.43
478.54	39739.96
478.72	40299.34
478.90	40811.92
479.08	41825.37
479.26	42265.39
479.44	42251.35
479.62	41902.61
479.80	41572.60
479.98	42227.95
480.16	42349.65
480.34	41830.05
480.52	42738.18
480.70	42562.64
480.88	42899.68
481.06	43026.07
481.24	43821.85
481.41	44538.05
481.59	45160.64
481.77	45125.53
481.95	44397.62
482.13	44030.16
482.31	44069.95
482.49	44851.69
482.67	44699.55
482.85	44737.00
483.03	45904.93
483.21	45977.48
483.39	45797.26
483.57	45062.33
483.74	45361.92
483.92	45317.45
484.10	45308.09
484.28	46618.79
484.46	46937.10
484.64	47136.05
484.82	46021.95
485.00	46101.53
485.18	44933.60
485.35	43845.26
485.53	40311.05
485.71	37687.31
485.89	36168.30
486.07	38574.37
486.25	41488.34
486.43	43950.58
486.61	44694.87
486.78	44465.50
486.96	44587.21
487.14	46600.07
487.32	47370.10
487.50	48371.85
487.68	49272.96
487.85	49942.35
488.03	49448.50
488.21	49279.98
488.39	48168.22
488.57	48189.29
488.75	47267.12
488.92	48722.93
489.10	50834.10
489.28	52617.58
489.46	52985.05
489.64	52559.07
489.81	53001.43
489.99	52301.61
490.17	52413.96
490.35	52821.21
490.53	52594.18
490.70	52301.61
490.88	51971.60
491.06	52842.27
491.24	53052.92
491.41	51800.74
491.59	50543.87
491.77	49385.30
491.95	50789.62
492.13	51468.38
492.30	52793.12
492.48	53815.94
492.66	54466.61
492.84	54644.49
493.01	54138.93
493.19	53549.12
493.37	53492.94
493.54	53092.71
493.72	53614.65
493.90	54894.92
494.08	55540.91
494.25	55873.27
494.43	55847.52
494.61	56135.41
494.79	56147.11
494.96	56198.60
495.14	55377.08
495.32	54490.01
495.49	53942.33
495.67	55030.68
495.85	56207.97
496.02	56790.76
496.20	56643.30
496.38	56147.11
496.55	55908.38
496.73	56442.02
496.91	56484.15
497.09	57031.83
497.26	57125.46
497.44	56736.93
497.62	56404.57
497.79	55468.36
497.97	54300.43
498.14	54162.34
498.32	55573.68
498.50	56430.32
498.67	56961.62
498.85	56746.29
499.03	57022.47
499.20	57317.38
499.38	57305.68
499.56	56931.19
499.73	56718.20
499.91	56303.93
500.08	55711.77
500.26	54962.80
500.44	55561.98
500.61	56051.15
500.79	56240.73
500.97	55501.12
501.14	55456.65
501.32	55327.92
501.49	55456.65
501.67	55571.34
501.84	56182.22
502.02	56442.02
502.20	56488.83
502.37	56816.50
502.55	56631.60
502.72	57366.53
502.90	57722.29
503.07	57528.03
503.25	57258.87
503.43	56317.97
503.60	55700.07
503.78	54805.98
503.95	55580.70
504.13	56722.88
504.30	57551.43
504.48	57432.07
504.65	57155.88
504.83	57209.71
505.01	57701.23
505.18	57895.49
505.36	58665.53
505.53	58674.89
505.71	58911.28
505.88	59014.27
506.06	58216.14
506.23	57958.69
506.41	57392.28
506.58	57993.79
506.76	57609.95
506.93	57883.79
507.11	57389.94
507.28	57659.10
507.46	57036.51
507.63	56720.54
507.81	56324.99
507.98	56467.76
508.16	57256.53
508.33	57932.94
508.50	58141.25
508.68	58749.79
508.85	58969.80
509.03	59091.51
509.20	58726.38
509.38	57977.41
509.55	57057.58
509.73	57345.47
509.90	58176.36
510.08	58340.19
510.25	58078.05
510.42	58159.97
510.60	57872.09
510.77	58096.78
510.95	58686.59
511.12	58817.66
511.30	59128.95
511.47	59503.44
511.64	59468.33
511.82	58946.39
511.99	58307.43
512.17	57904.85
512.34	57563.14
512.51	57626.33
512.69	57586.54
512.86	57982.09
513.04	58099.12
513.21	58117.84
513.38	57996.13
513.56	57551.43
513.73	56596.49
513.90	57036.51
514.08	57198.01
514.25	57158.22
514.43	57696.55
514.60	57659.10
514.77	57946.98
514.95	58031.24
515.12	57935.28
515.29	57991.45
515.47	58333.17
515.64	58717.02
515.81	58375.30
515.99	57925.92
516.16	56317.97
516.33	54190.42
516.51	52720.57
516.68	51657.96
516.85	51210.92
517.03	51632.22
517.20	54309.79
517.37	56807.14
517.54	57902.51
517.72	57586.54
517.89	55051.74
518.06	52528.64
518.24	53066.97
518.41	55079.83
518.58	56327.33
518.75	56842.25
518.93	56924.17
519.10	56837.57
519.27	57261.21
519.45	57315.04
519.62	58103.80
519.79	58438.50
519.96	58143.59
520.14	57925.92
520.31	56935.87
520.48	56945.23
520.65	57230.78
520.83	58061.67
521.00	58599.99
521.17	58234.87
521.34	57902.51
521.52	58223.17
521.69	58787.24
521.86	58843.41
522.03	58698.30
522.20	57839.32
522.38	56615.22
522.55	56584.79
522.72	57228.44
522.89	57481.22
523.07	57579.52
523.24	57865.06
523.41	58663.19
523.58	59021.29
523.75	59220.23
523.92	59355.99
524.10	59201.51
524.27	59203.85
524.44	59180.45
524.61	58672.55
524.78	58707.66
524.96	58592.97
525.13	58679.57
525.30	58761.49
525.47	59220.23
525.64	59007.25
525.81	58424.45
525.98	56999.07
526.16	55503.46
526.33	55054.08
526.50	54688.96
526.67	54129.57
526.84	54967.48
527.01	55917.74
527.18	56516.92
527.36	57523.35
527.53	58522.76
527.70	58574.25
527.87	58155.29
528.04	57631.01
528.21	58134.23
528.38	58731.06
528.55	59196.83
528.72	59561.95
528.89	59774.94
529.07	59606.42
529.24	58988.52
529.41	58136.57
529.58	57467.17
529.75	57745.70
529.92	58131.89
530.09	58637.44
530.26	59164.06
530.43	59159.38
530.60	59447.27
530.77	59543.23
530.94	59664.94
531.11	59187.47
531.28	58960.44
531.46	58665.53
531.63	58911.28
531.80	58803.62
531.97	58253.59
532.14	57305.68
532.31	56453.72
532.48	55894.33
532.65	55873.27
532.82	56683.09
532.99	57717.61
533.16	58211.46
533.33	58763.83
533.50	58534.46
533.67	57911.88
533.84	57469.51
534.01	57642.71
534.18	57813.57
534.35	58005.50
534.52	58075.71
534.69	58403.39
534.86	58553.18
535.03	58812.98
535.20	59278.75
535.37	59461.31
535.54	59664.94
535.71	59250.66
535.88	58899.58
536.05	58319.13
536.22	57743.36
536.38	57902.51
536.55	57083.33
536.72	56652.67
536.89	56500.53
537.06	57338.44
537.23	58291.04
537.40	58560.20
537.57	58454.88
537.74	58209.12
537.91	57975.07
538.08	58089.76
538.25	58262.96
538.42	58457.22
538.59	58181.04
538.75	57502.28
538.92	57464.83
539.09	57071.62
539.26	57083.33
539.43	56772.03
539.60	56924.17
539.77	56978.00
539.94	56900.76
540.11	56287.54
540.28	55817.10
540.44	55725.81
540.61	55999.66
540.78	56278.18
540.95	56636.28
541.12	56982.68
541.29	57411.00
541.46	57537.39
541.62	57612.29
541.79	57586.54
541.96	56917.15
542.13	56793.10
542.30	57195.67
542.47	57261.21
542.63	57017.79
542.80	56872.68
542.97	56942.89
543.14	56914.81
543.31	56896.08
543.48	57453.13
543.64	58164.65
543.81	58459.56
543.98	58267.64
544.15	57509.30
544.32	57034.17
544.48	56924.17
544.65	57324.40
544.82	58042.95
544.99	57666.12
545.16	57181.63
545.32	56802.46
545.49	57701.23
545.66	57991.45
545.83	57869.75
546.00	57272.91
546.16	56935.87
546.33	56912.47
546.50	56919.49
546.67	57422.70
546.83	57045.88
547.00	57235.46
547.17	56488.83
547.34	55779.65
547.50	55950.51
547.67	56339.04
547.84	56226.69
548.00	56746.29
548.17	57425.04
548.34	57228.44
548.51	57045.88
548.67	57043.54
548.84	57055.24
549.01	57263.55
549.18	57104.39
549.34	56914.81
549.51	57078.64
549.68	56954.60
549.84	56622.24
550.01	56509.89
550.18	56395.21
550.34	56402.23
550.51	56591.81
550.68	56795.44
550.84	56046.47
551.01	56287.54
551.18	56104.98
551.34	56601.18
551.51	56669.05
551.68	56910.13
551.84	57256.53
552.01	56863.32
552.18	56720.54
552.34	56126.05
552.51	55545.59
552.68	55365.37
552.84	56039.45
553.01	56161.15
553.18	55891.99
553.34	56313.29
553.51	56308.61
553.67	56718.20
553.84	56694.80
554.01	56622.24
554.17	56605.86
554.34	56472.45
554.51	56690.12
554.67	57102.05
554.84	56786.08
555.00	56308.61
555.17	56060.51
555.33	56128.39
555.50	56191.58
555.67	55877.95
555.83	55863.91
556.00	55803.05
556.16	55718.79
556.33	55208.56
556.50	55337.29
556.66	55168.77
556.83	54688.96
556.99	54911.31
557.16	55267.07
557.32	55480.06
557.49	55711.77
557.65	55664.96
557.82	55561.98
557.98	55381.76
558.15	54775.56
558.32	54127.23
558.48	53090.37
558.65	53560.82
558.81	53689.55
558.98	54248.94
559.14	54195.10
559.31	54424.48
559.47	54651.51
559.64	54174.04
559.80	53963.39
559.97	53792.53
560.13	54155.32
560.30	55267.07
560.46	55564.32
560.63	55948.17
560.79	56062.85
560.96	55388.78
561.12	54396.39
561.29	53504.65
561.45	53684.87
561.61	53986.80
561.78	54494.69
561.94	54309.79
562.11	54288.73
562.27	54038.29
562.44	54412.77
562.60	54838.75
562.77	54911.31
562.93	54988.55
563.10	54773.22
563.26	54204.47
563.42	54241.92
563.59	53925.94
563.75	54106.16
563.92	53895.52
564.08	54152.97
564.24	54241.92
564.41	54389.37
564.57	54145.95
564.74	54138.93
564.90	54089.78
565.07	53954.03
565.23	53270.59
565.39	53048.24
565.56	52673.76
565.72	52285.23
565.88	52898.45
566.05	53127.82
566.21	52971.00
566.38	53102.07
566.54	53420.39
566.70	53813.60
566.87	54110.85
567.03	54101.48
567.19	54197.44
567.36	53944.67
567.52	53532.73
567.68	53481.24
567.85	52971.00
568.01	52355.44
568.17	51906.06
568.34	51777.33
568.50	52025.43
568.66	52116.71
568.83	52446.72
568.99	52505.24
569.15	53013.13
569.32	52804.83
569.48	52296.93
569.64	52170.54
569.81	51938.83
569.97	51948.19
570.13	51676.69
570.30	51105.60
570.46	50908.99
570.62	50382.37
570.78	49916.61
570.95	50436.20
571.11	51290.50
571.27	51316.25
571.43	51735.20
571.60	51990.32
571.76	51931.81
571.92	52512.26
572.09	52622.26
572.25	52516.94
572.41	52397.57
572.57	52355.44
572.74	52486.51
572.90	51807.76
573.06	51856.91
573.22	52203.31
573.38	51732.86
573.55	52002.02
573.71	52112.03
573.87	52130.75
574.03	51475.40
574.20	51604.13
574.36	51140.71
574.52	51281.14
574.68	51002.61
574.84	50464.29
575.01	50415.14
575.17	49965.76
575.33	50518.12
575.49	50431.52
575.65	50918.35
575.82	50141.30
575.98	50305.13
576.14	50387.05
576.30	50749.84
576.46	50988.57
576.62	51285.82
576.79	50466.63
576.95	50171.72
577.11	50234.92
577.27	50583.66
577.43	50602.38
577.59	49881.50
577.75	50087.46
577.92	48973.37
578.08	48931.24
578.24	49113.80
578.40	49076.35
578.56	49242.53
578.72	49272.96
578.88	50047.68
579.04	49682.55
579.21	49834.69
579.37	50230.24
579.53	50202.15
579.69	50157.68
579.85	50113.21
580.01	49731.70
580.17	49460.20
580.33	49546.80
580.49	49518.71
580.65	49963.42
580.82	50106.19
580.98	50293.43
581.14	50003.20
581.30	49914.26
581.46	49830.01
581.62	50153.00
581.78	50461.95
581.94	50263.00
582.10	50384.71
582.26	50075.76
582.42	50227.90
582.58	50394.07
582.74	50064.06
582.90	50492.38
583.06	49879.16
583.22	49837.03
583.38	49918.95
583.54	49972.78
583.70	49839.37
583.86	49895.54
584.02	49925.97
584.18	49715.32
584.34	49504.67
584.50	49579.57
584.66	49296.36
584.82	49177.00
584.98	48949.96
585.14	48306.32
585.30	47873.32
585.46	47522.24
585.62	47283.50
585.78	48254.82
585.94	47412.23
586.10	48210.35
586.26	48182.27
586.42	48636.33
586.58	49090.40
586.74	48645.69
586.90	48790.81
587.06	48170.57
587.22	48271.21
587.38	47859.27
587.54	47742.25
587.70	47704.80
587.86	47346.70
588.02	47103.28
588.18	46625.81
588.34	45521.08
588.49	43042.45
588.65	40966.40
588.81	40371.90
588.97	41277.69
589.13	40758.09
589.29	41048.32
589.45	41404.08
589.61	42983.94
589.77	44002.07
589.93	44830.62
590.08	45785.56
590.24	46328.56
590.40	46120.26
590.56	46052.38
590.72	45872.16
590.88	45333.84
591.04	45387.67
591.20	45518.74
591.35	45301.07
591.51	45474.27
591.67	44903.18
591.83	45427.46
591.99	45368.94
592.15	45860.46
592.31	45991.53
592.46	45883.86
592.62	45071.70
592.78	44814.24
592.94	45048.29
593.10	45015.52
593.26	45759.81
593.41	46043.02
593.57	45916.63
593.73	45097.44
593.89	44446.77
594.05	44271.23
594.20	44243.15
594.36	43723.55
594.52	43522.26
594.68	43278.85
594.84	43522.26
594.99	44273.57
595.15	44406.98
595.31	44713.59
595.47	44652.74
595.62	45200.43
595.78	45064.67
595.94	44687.85
596.10	44629.34
596.25	44839.98
596.41	44481.88
596.57	44570.82
596.73	44790.83
596.88	44399.96
597.04	44463.16
597.20	44250.17
597.36	43791.42
597.51	44072.29
597.67	44292.30
597.83	43924.83
597.99	43737.59
598.14	43428.64
598.30	43281.19
598.46	43082.24
598.61	43599.50
598.77	43512.90
598.93	43538.65
599.09	43641.63
599.24	43667.37
599.40	43501.20
599.56	44142.50
599.71	43798.44
599.87	44231.44
600.03	43854.62
600.18	43267.14
600.34	42972.24
600.50	42546.26
600.65	42689.03
600.81	42904.36
600.97	42621.16
601.12	42775.63
601.28	42777.97
601.44	42351.99
601.59	42298.16
601.75	41586.64
601.91	41904.95
602.06	41675.58
602.22	42127.30
602.37	42256.03
602.53	42415.19
602.69	42560.30
602.84	42761.59
603.00	43274.16
603.16	43524.60
603.31	43189.91
603.47	43732.91
603.62	43075.22
603.78	42892.66
603.94	42913.72
604.09	43129.05
604.25	42703.07
604.40	42504.13
604.56	42480.72
604.71	42852.87
604.87	42555.62
605.03	42078.15
605.18	41837.08
605.34	41808.99
605.49	41979.85
605.65	42476.04
605.80	41780.90
605.96	41694.30
606.12	41256.62
606.27	41102.15
606.43	41570.25
606.58	41570.25
606.74	41401.74
606.89	42108.58
607.05	42225.60
607.20	41762.18
607.36	41209.81
607.51	41170.02
607.67	40900.86
607.82	40935.97
607.98	40498.29
608.13	40748.73
608.29	40336.79
608.44	40467.86
608.60	40147.21
608.75	39969.33
608.91	40357.86
609.06	40477.22
609.22	41008.53
609.37	40252.53
609.53	40863.41
609.68	39742.30
609.84	39058.86
609.99	38714.80
610.15	39220.36
610.30	39129.08
610.46	39498.88
610.61	39882.73
610.76	40301.68
610.92	40561.48
611.07	40594.25
611.23	40552.12
611.38	40570.85
611.54	39868.69
611.69	39409.94
611.84	38745.23
612.00	38565.01
612.15	38609.48
612.31	38815.44
612.46	38520.54
612.62	39210.99
612.77	39108.01
612.92	39194.61
613.08	38431.60
613.23	38043.07
613.39	37340.91
613.54	36865.78
613.69	37205.16
613.85	37273.03
614.00	37476.66
614.15	38110.94
614.31	37853.48
614.46	38122.65
614.62	38106.26
614.77	38040.73
614.92	38054.77
615.08	37682.62
615.23	37546.87
615.38	37523.47
615.54	36800.24
615.69	35967.01
615.84	35599.55
616.00	35182.93
616.15	35629.98
616.30	35915.52
616.46	35660.40
616.61	35536.35
616.76	35835.94
616.92	36203.41
617.07	36503.00
617.22	36800.24
617.37	36676.19
617.53	37120.90
617.68	36900.89
617.83	36961.74
617.99	36769.82
618.14	36715.98
618.29	36975.78
618.45	36161.28
618.60	35807.86
618.75	35782.11
618.90	35648.70
619.06	36151.91
619.21	36304.05
619.36	36772.16
619.51	36034.89
619.67	35948.29
619.82	36514.70
619.97	36278.30
620.12	36175.32
620.28	36222.13
620.43	36594.28
620.58	36423.42
620.73	35952.97
620.89	36191.70
621.04	35552.74
621.19	34644.61
621.34	34679.72
621.49	34728.87
621.65	34616.52
621.80	34951.22
621.95	35028.46
622.10	35101.01
622.25	35019.10
622.41	34988.67
622.56	34588.44
622.71	34015.01
622.86	33626.48
623.01	34204.59
623.16	34333.32
623.32	34096.92
623.47	34291.19
623.62	33951.81
623.77	33708.40
623.92	33537.54
624.07	33104.54
624.23	32620.05
624.38	33123.26
624.53	32673.88
624.68	33120.92
624.83	32828.35
624.98	32744.09
625.13	32027.89
625.29	32463.23
625.44	32559.19
625.59	32194.07
625.74	32456.21
625.89	32397.70
626.04	32388.33
626.19	32315.78
626.34	32783.88
626.49	32568.55
626.65	32545.15
626.80	32568.55
626.95	32453.87
627.10	32081.72
627.25	31529.36
627.40	30663.36
627.55	30139.08
627.70	29991.62
627.85	30073.54
628.00	30377.81
628.15	31079.97
628.30	31309.35
628.45	31438.08
628.60	31047.21
628.76	31007.42
628.91	31311.69
629.06	31297.64
629.21	30813.15
629.36	30918.48
629.51	30728.89
629.66	30323.98
629.81	29933.11
629.96	29956.52
630.11	30499.52
630.26	30710.17
630.41	30855.28
630.56	30532.29
630.71	30731.23
630.86	30473.78
631.01	30087.59
631.16	29846.51
631.31	29090.52
631.46	29390.11
631.61	29584.37
631.76	29259.04
631.91	29584.37
632.06	29766.93
632.21	30436.33
632.36	30558.03
632.51	30216.32
632.66	30277.17
632.81	30167.16
632.96	30082.91
633.10	30099.29
633.25	29612.46
633.40	29696.72
633.55	29404.15
633.70	29970.56
633.85	29656.93
634.00	29511.81
634.15	29846.51
634.30	29848.85
634.45	29509.47
634.60	29577.35
634.75	29584.37
634.90	29415.85
635.05	29717.78
635.19	29146.69
635.34	29743.53
635.49	29549.26
635.64	29390.11
635.79	28734.76
635.94	28638.80
636.09	29090.52
636.24	29039.03
636.39	28968.81
636.53	29284.78
636.68	29006.26
636.83	29003.92
636.98	29130.31
637.13	29205.20
637.28	29270.74
637.43	29343.30
637.57	29174.78
637.72	29268.40
637.87	28865.83
638.02	28589.64
638.17	28905.62
638.32	29020.30
638.46	28816.68
638.61	28891.57
638.76	28470.28
638.91	28273.67
639.06	27796.20
639.20	28027.92
639.35	28388.36
639.50	27555.13
639.65	27618.32
639.80	27541.08
639.94	27953.02
640.09	28154.30
640.24	27576.19
640.39	27562.15
640.54	27297.67
640.68	27335.12
640.83	27363.20
640.98	27356.18
641.13	27047.23
641.27	27452.14
641.42	27215.75
641.57	26689.13
641.72	26644.66
641.86	26888.07
642.01	26544.02
642.16	27192.34
642.31	27267.24
642.45	27688.54
642.60	27234.47
642.75	26815.52
642.90	26794.45
643.04	26829.56
643.19	26443.37
643.34	26494.86
643.48	26525.29
643.63	26401.24
643.78	26778.07
643.93	26881.05
644.07	26939.57
644.22	27159.58
644.37	26576.78
644.51	26867.01
644.66	26366.13
644.81	26424.65
644.95	26260.81
645.10	26333.37
645.25	25993.99
645.39	26111.02
645.54	26026.76
645.69	25743.55
645.83	25462.69
645.98	25020.33
646.13	24915.00
646.27	25429.92
646.42	25383.11
646.57	24868.19
646.71	25343.32
646.86	25055.43
647.00	25048.41
647.15	24783.93
647.30	24716.06
647.44	24561.58
647.59	24479.66
647.74	24659.88
647.88	24620.10
648.03	24367.32
648.17	24278.38
648.32	24683.29
648.47	24978.20
648.61	24428.17
648.76	24446.90
648.90	23768.14
649.05	23363.23
649.20	23000.44
649.34	22775.75
649.49	23005.13
649.63	23634.73
649.78	23627.71
649.92	24144.97
650.07	24723.08
650.21	24470.30
650.36	24875.21
650.51	24919.68
650.65	24781.59
650.80	24437.53
650.94	24561.58
651.09	24002.19
651.23	23508.34
651.38	22965.34
651.52	22958.31
651.67	23358.55
651.81	23522.38
651.96	23662.82
652.10	23744.73
652.25	23873.46
652.39	24072.41
652.54	23983.47
652.68	24009.22
652.83	23744.73
652.97	23683.88
653.12	23639.41
653.26	23599.62
653.41	23915.59
653.55	23885.17
653.70	23702.61
653.84	23744.73
653.99	23398.34
654.13	23150.24
654.27	22817.88
654.42	22209.34
654.56	22558.08
654.71	22391.91
654.85	22494.89
655.00	21956.57
655.14	21771.66
655.29	21570.38
655.43	21177.17
655.57	20437.56
655.72	18761.73
655.86	17589.13
656.01	16512.48
656.15	16549.93
656.30	18104.04
656.44	18984.09
656.58	19719.01
656.73	20065.41
656.87	20968.86
657.01	21081.21
657.16	21308.24
657.30	21858.26
657.45	21893.37
657.59	22005.72
657.73	22225.73
657.88	22192.96
658.02	22354.46
658.16	22232.75
658.31	22040.82
658.45	22031.46
658.60	21888.69
658.74	21731.87
658.88	21443.99
659.03	21612.51
659.17	21326.96
659.31	21195.89
659.46	21514.20
659.60	21692.08
659.74	21916.78
659.89	21771.66
660.03	22045.51
660.17	22197.64
660.32	21884.01
660.46	21696.77
660.60	21298.88
660.74	21420.58
660.89	21649.96
661.03	21472.07
661.17	21181.85
661.32	21532.93
661.46	21385.47
661.60	21586.76
661.74	21795.07
661.89	21685.06
662.03	21635.91
662.17	21284.83
662.31	21195.89
662.46	21397.18
662.60	21205.25
662.74	20879.92
662.88	20830.77
663.03	20685.65
663.17	20751.19
663.31	20175.42
663.45	20603.74
663.60	20645.87
663.74	20582.67
663.88	20442.24
664.02	20451.60
664.17	20802.68
664.31	20470.33
664.45	20446.92
664.59	20498.41
664.73	20592.03
664.88	20531.18
665.02	20271.38
665.16	20397.77
665.30	20320.53
665.44	20290.10
665.59	19864.13
665.73	19833.70
665.87	19700.29
666.01	19461.55
666.15	19466.24
666.29	19491.98
666.44	19358.57
666.58	19316.44
666.72	19365.59
666.86	19782.21
667.00	19538.79
667.14	19412.40
667.28	19630.07
667.43	19278.99
667.57	19269.63
667.71	19236.86
667.85	18977.06
667.99	18600.24
668.13	19201.76
668.27	19339.85
668.41	19321.12
668.56	19075.37
668.70	19290.70
668.84	19129.20
668.98	18956.00
669.12	18925.57
669.26	18782.80
669.40	18829.61
669.54	18754.71
669.68	18761.73
669.82	18558.11
669.96	18429.38
670.10	18420.02
670.25	18295.97
670.39	18359.16
670.53	18204.69
670.67	17954.25
670.81	18459.81
670.95	18136.81
671.09	17942.55
671.23	17635.94
671.37	17642.96
671.51	17771.69
671.65	17589.13
671.79	17521.25
671.93	17884.03
672.07	17818.50
672.21	17680.41
672.35	17692.11
672.49	17675.73
672.63	17593.81
672.77	17610.19
672.91	17146.76
673.05	17523.59
673.19	17364.43
673.33	17432.31
673.47	17334.01
673.61	17238.05
673.75	17184.21
673.89	17315.28
674.03	17116.34
674.17	16975.91
674.31	17085.91
674.45	16994.63
674.59	16791.00
674.73	16587.38
674.87	16582.70
675.01	16475.03
675.15	16673.98
675.29	16737.17
675.43	16592.06
675.56	16783.98
675.70	16456.31
675.84	16592.06
675.98	16119.27
676.12	16683.34
676.26	16622.48
676.40	16299.49
676.54	16161.40
676.68	16376.73
676.82	15887.56
676.96	15978.84
677.10	15754.15
677.23	15721.38
677.37	15997.56
677.51	15803.30
677.65	15929.69
677.79	15536.48
677.93	15414.77
678.07	15590.31
678.21	15225.18
678.34	15192.42
678.48	14817.93
678.62	15325.83
678.76	15246.25
678.90	14958.36
679.04	15171.35
679.18	15232.21
679.31	14736.01
679.45	14993.47
679.59	14780.48
679.73	15068.37
679.87	14670.48
680.00	14665.80
680.14	14857.72
680.28	14548.77
680.42	14281.95
680.56	14181.31
680.70	14277.27
680.83	14097.05
680.97	14260.88
681.11	14382.59
681.25	14249.18
681.39	14146.20
681.52	14092.37
681.66	13902.78
681.80	13867.67
681.94	13926.19
682.07	14057.26
682.21	13846.61
682.35	13540.00
682.49	13586.81
682.62	13458.08
682.76	13563.40
682.90	13476.80
683.04	13488.51
683.17	13345.73
683.31	13383.18
683.45	13577.45
683.59	13151.47
683.72	12886.99
683.86	12681.02
684.00	12725.49
684.13	12706.77
684.27	12805.07
684.41	12980.61
684.55	12901.03
684.68	12666.98
684.82	12786.35
684.96	12465.69
685.09	12528.89
685.23	12133.34
685.37	12531.23
685.50	12547.61
685.64	12189.51
685.78	11985.88
685.91	12116.95
686.05	11964.82
686.19	11878.22
686.32	11047.33
686.46	9771.74
686.60	8545.30
686.73	7929.74
686.87	7824.41
687.01	7634.83
687.14	7786.96
687.28	7815.05
687.42	8140.38
687.55	8711.47
687.69	9146.81
687.82	9605.56
687.96	9933.23
688.10	9769.40
688.23	9783.44
688.37	9678.12
688.50	9479.17
688.64	9376.19
688.78	9275.54
688.91	9036.81
689.05	9135.11
689.18	9135.11
689.32	9053.19
689.46	9132.77
689.59	9032.13
689.73	9226.39
689.86	9240.44
690.00	9275.54
690.13	9479.17
690.27	9228.73
690.41	9458.10
690.54	9254.48
690.68	9488.53
690.81	9488.53
690.95	9549.39
691.08	9383.21
691.22	9481.51
691.35	9371.50
691.49	9568.11
691.62	9338.74
691.76	9357.46
691.89	9610.24
692.03	9266.18
692.16	9144.47
692.30	9210.01
692.43	9252.14
692.57	9109.36
692.70	9034.47
692.84	8915.10
692.97	8755.94
693.11	8784.03
693.24	8744.24
693.38	8814.46
693.51	8781.69
693.65	8716.16
693.78	8624.87
693.92	8451.67
694.05	8402.52
694.19	8304.22
694.32	8568.70
694.45	8365.07
694.59	8500.83
694.72	8421.25
694.86	8425.93
694.99	8360.39
695.13	8208.26
695.26	8116.98
695.39	8231.66
695.53	8016.33
695.66	8210.60
695.80	8039.74
695.93	8098.25
696.07	8287.84
696.20	8388.48
696.33	8358.05
696.47	8322.94
696.60	8454.02
696.73	8599.13
696.87	8526.57
697.00	8540.61
697.14	8439.97
697.27	8112.30
697.40	8133.36
697.54	7978.89
697.67	7859.52
697.80	7669.94
697.94	7566.95
698.07	7782.28
698.21	7405.46
698.34	7531.84
698.47	7604.40
698.61	7194.81
698.74	7414.82
698.87	7370.35
699.01	7311.83
699.14	7243.96
699.27	7386.73
699.40	7494.40
699.54	7258.00
699.67	7028.63
699.80	7126.93
699.94	7037.99
700.07	6949.05
700.20	6768.83
700.34	6764.15
700.47	6743.08
700.60	6911.60
700.73	6675.21
700.87	6794.58
701.00	6705.63
701.13	6448.18
701.26	6684.57
701.40	6544.14
701.53	6480.94
701.66	6562.86
701.79	6506.69
701.93	6607.33
702.06	6544.14
702.19	6272.64
702.32	6595.63
702.46	6303.06
702.59	6434.13
702.72	6120.50
702.85	6370.94
702.99	6347.53
703.12	6497.33
703.25	6127.52
703.38	6274.98
703.51	6193.06
703.65	6017.52
703.78	6171.99
703.91	5947.30
704.04	6305.40
704.17	6155.61
704.31	5996.45
704.44	6263.27
704.57	6345.19
704.70	6179.01
704.83	6066.67
704.96	6190.72
705.10	5891.13
705.23	5872.40
>>>>>End Processed Spectral Data<<<<<
