SpectraSuite Data File
++++++++++++++++++++++++++++++++++++
Date: Mon Oct 07 14:52:55 GMT-05:00 2013
User: price-jones
Dark Spectrum Present: No
Reference Spectrum Present: No
Number of Sampled Component Spectra: 1
Spectrometers: USB2+H05261
Integration Time (usec): 100000 (USB2+H05261)
Spectra Averaged: 1 (USB2+H05261)
Boxcar Smoothing: 0 (USB2+H05261)
Correct for Electrical Dark: No (USB2+H05261)
Strobe/Lamp Enabled: No (USB2+H05261)
Correct for Detector Non-linearity: No (USB2+H05261)
Correct for Stray Light: No (USB2+H05261)
Number of Pixels in Processed Spectrum: 2048
>>>>>Begin Processed Spectral Data<<<<<
365.73	0.00
365.92	0.00
366.12	0.00
366.32	0.00
366.52	0.00
366.72	0.00
366.91	0.00
367.11	0.00
367.31	0.00
367.51	0.00
367.70	0.00
367.90	0.00
368.10	0.00
368.30	0.00
368.49	0.00
368.69	0.00
368.89	0.00
369.09	0.00
369.28	0.00
369.48	0.00
369.68	0.00
369.87	0.00
370.07	0.00
370.27	0.00
370.47	388.53
370.66	2324.15
370.86	2806.30
371.06	3061.42
371.25	3096.53
371.45	2806.30
371.65	2373.30
371.84	2286.70
372.04	2445.86
372.24	2761.83
372.44	2871.84
372.63	2876.52
372.83	2588.63
373.03	2172.02
373.22	2153.29
373.42	2204.78
373.62	2565.23
373.81	2736.09
374.01	2766.51
374.21	2565.23
374.40	2267.98
374.60	2385.01
374.79	2710.34
374.99	3199.51
375.19	3531.87
375.38	3578.68
375.58	3375.05
375.78	3136.32
375.97	3197.17
376.17	3356.33
376.37	3431.23
376.56	3463.99
376.76	3737.84
376.95	3932.10
377.15	4124.02
377.35	4327.65
377.54	4517.23
377.74	4786.40
377.93	4627.24
378.13	4542.98
378.33	4432.97
378.52	3908.69
378.72	3794.01
378.91	3784.65
379.11	3644.21
379.31	3543.57
379.50	3559.95
379.70	3751.88
379.89	4227.01
380.09	4454.04
380.28	4692.77
380.48	4578.09
380.68	4479.79
380.87	4454.04
381.07	4072.53
381.26	3852.52
381.46	3574.00
381.65	3520.17
381.85	3225.26
382.04	3077.80
382.24	2775.88
382.43	2841.41
382.63	2796.94
382.83	2792.26
383.02	2740.77
383.22	2949.08
383.41	2782.90
383.61	2946.73
383.80	3599.74
384.00	3857.20
384.19	4252.75
384.39	4482.13
384.58	4491.49
384.78	4418.93
384.97	4496.17
385.17	4161.47
385.36	3894.65
385.56	3847.84
385.75	3878.27
385.95	4341.69
386.14	4770.01
386.34	4868.31
386.53	4414.25
386.72	4318.29
386.92	4128.70
387.11	4383.82
387.31	4697.46
387.50	4620.22
387.70	4521.92
387.89	4301.90
388.09	4517.23
388.28	4414.25
388.48	4636.60
388.67	4861.29
388.86	5404.30
389.06	5652.39
389.25	5881.77
389.45	6171.99
389.64	6111.14
389.84	5961.34
390.03	5785.80
390.22	5975.39
390.42	6083.05
390.61	6670.53
390.81	6855.43
391.00	7122.25
391.19	7087.14
391.39	6736.06
391.58	6434.13
391.78	5959.00
391.97	5699.20
392.16	5460.47
392.36	4741.93
392.55	3974.23
392.75	3012.27
392.94	2509.05
393.13	2593.31
393.33	3138.66
393.52	4014.02
393.71	4777.03
393.91	5315.36
394.10	5767.08
394.29	6394.34
394.49	6883.52
394.68	7653.55
394.88	7424.18
395.07	7749.51
395.26	7609.08
395.46	7452.27
395.65	6942.03
395.84	6171.99
396.04	5114.07
396.23	4149.77
396.42	3515.48
396.62	3316.54
396.81	4058.49
397.00	5025.13
397.19	6389.66
397.39	7548.23
397.58	8360.39
397.77	8908.08
397.97	9474.49
398.16	9528.32
398.35	9783.44
398.55	10017.49
398.74	10377.94
398.93	10640.08
399.12	10445.81
399.32	10197.71
399.51	10207.08
399.70	10986.47
399.90	10714.97
400.09	10808.59
400.28	10939.66
400.47	11066.05
400.67	11257.98
400.86	11676.93
401.05	11918.01
401.24	11910.99
401.44	12112.27
401.63	12020.99
401.82	12236.32
402.01	11885.24
402.21	12430.59
402.40	12250.36
402.59	11686.29
402.78	11548.20
402.97	11007.54
403.17	11506.07
403.36	12074.82
403.55	12596.76
403.74	12835.50
403.93	12152.06
404.13	11311.81
404.32	11159.67
404.51	11550.54
404.70	12367.39
404.89	12486.76
405.09	12170.79
405.28	11822.05
405.47	11995.25
405.66	12201.21
405.85	11323.51
406.05	11370.32
406.24	11573.95
406.43	11976.52
406.62	12322.92
406.81	12365.05
407.00	11967.16
407.20	11419.47
407.39	12018.65
407.58	12379.09
407.77	12903.37
407.96	13303.60
408.15	13282.54
408.34	13858.31
408.54	14045.55
408.73	14143.86
408.92	13811.50
409.11	13731.92
409.30	13015.72
409.49	12051.42
409.68	11257.98
409.87	10878.81
410.07	12128.66
410.26	12734.85
410.45	13413.61
410.64	13865.33
410.83	13998.74
411.02	14712.61
411.21	15243.91
411.40	15087.09
411.59	14963.04
411.78	14902.19
411.98	14780.48
412.17	14867.08
412.36	14796.87
412.55	14668.14
412.74	14757.08
412.93	14071.30
413.12	14450.47
413.31	15611.37
413.50	15384.34
413.69	15721.38
413.88	15035.60
414.07	15061.35
414.26	15522.43
414.45	15901.60
414.64	15681.59
414.83	15414.77
415.02	15454.56
415.22	15503.71
415.41	16107.57
415.60	16339.28
415.79	16996.97
415.98	17525.93
416.17	17465.08
416.36	16732.49
416.55	16772.28
416.74	16205.87
416.93	15807.98
417.12	15672.23
417.31	16084.16
417.50	16248.00
417.69	16575.67
417.88	16671.64
418.07	16222.25
418.26	16269.06
418.45	16369.71
418.64	17003.99
418.83	17472.10
419.02	17198.26
419.21	17020.38
419.39	16444.60
419.58	15777.55
419.77	15730.74
419.96	16365.03
420.15	17446.35
420.34	17717.86
420.53	18471.51
420.72	18757.05
420.91	18527.68
421.10	18155.54
421.29	18368.52
421.48	17537.63
421.67	18420.02
421.86	17888.71
422.05	16453.97
422.24	14906.87
422.43	15133.90
422.61	16587.38
422.80	17930.84
422.99	18017.44
423.18	17212.30
423.37	16798.02
423.56	17085.91
423.75	17018.04
423.94	17603.17
424.13	16463.33
424.32	16868.24
424.50	16901.01
424.69	16578.01
424.88	16924.41
425.07	16901.01
425.26	16678.66
425.45	16472.69
425.64	16166.08
425.83	16201.19
426.01	17104.64
426.20	17544.66
426.39	17270.81
426.58	16203.53
426.77	14960.70
426.96	14483.24
427.15	14998.15
427.33	16060.76
427.52	17132.72
427.71	16854.20
427.90	16751.21
428.09	16774.62
428.28	16114.59
428.46	15857.13
428.65	15517.75
428.84	15592.65
429.03	16313.53
429.22	14981.77
429.40	14286.63
429.59	12919.76
429.78	11812.68
429.97	11627.78
430.16	11733.11
430.34	11887.58
430.53	11812.68
430.72	11990.56
430.91	13638.30
431.10	16037.35
431.28	18630.66
431.47	19983.49
431.66	20350.96
431.85	18218.73
432.03	17043.78
432.22	16390.77
432.41	17254.43
432.60	18778.12
432.79	19674.54
432.97	20159.03
433.16	19456.87
433.35	17523.59
433.54	15894.58
433.72	15250.93
433.91	15316.47
434.10	17266.13
434.28	18684.50
434.47	19831.36
434.66	19026.21
434.85	18743.01
435.03	18904.51
435.22	19658.16
435.41	20425.86
435.59	20629.48
435.78	20732.47
435.97	21291.85
436.16	21195.89
436.34	20802.68
436.53	20479.69
436.72	20556.93
436.90	19676.88
437.09	19531.77
437.28	19014.51
437.46	19819.66
437.65	19585.60
437.84	18197.67
438.02	17128.04
438.21	16774.62
438.40	17455.72
438.58	19234.52
438.77	19880.51
438.96	20016.26
439.14	20879.92
439.33	21315.26
439.52	21661.66
439.70	21453.35
439.89	20659.91
440.08	20144.99
440.26	20163.72
440.45	21041.42
440.63	22153.17
440.82	23585.58
441.01	23030.87
441.19	22691.49
441.38	23330.46
441.57	23901.55
441.75	24482.00
441.94	24425.83
442.12	24219.86
442.31	24683.29
442.50	24538.18
442.68	24151.99
442.87	24210.50
443.05	23674.52
443.24	24159.01
443.43	24540.52
443.61	25212.25
443.80	25425.24
443.98	24126.24
444.17	23943.68
444.35	25439.28
444.54	25766.96
444.73	25493.12
444.91	24652.86
445.10	23236.84
445.28	22532.34
445.47	22352.12
445.65	21977.63
445.84	22890.44
446.02	23534.09
446.21	24217.52
446.39	24219.86
446.58	24568.60
446.77	25088.20
446.95	25069.48
447.14	25804.41
447.32	26396.56
447.51	25692.06
447.69	24474.98
447.88	24147.31
448.06	24870.53
448.25	25560.99
448.43	25500.14
448.62	24795.64
448.80	25034.37
448.99	24797.98
449.17	25453.33
449.36	25039.05
449.54	26459.76
449.73	26637.64
449.91	26782.75
450.10	27695.56
450.28	27948.34
450.46	27826.63
450.65	28215.16
450.83	27461.51
451.02	26754.66
451.20	27080.00
451.39	26965.31
451.57	26747.64
451.76	26998.08
451.94	26487.84
452.13	26010.37
452.31	25050.75
452.49	23442.81
452.68	24166.03
452.86	24311.14
453.05	24524.13
453.23	25460.35
453.42	25893.35
453.60	26450.39
453.78	26754.66
453.97	26473.80
454.15	26511.25
454.34	25809.09
454.52	26181.23
454.70	25802.07
454.89	25781.00
455.07	26005.69
455.26	26244.43
455.44	27297.67
455.62	27580.87
455.81	27613.64
455.99	27424.06
456.17	27407.67
456.36	27398.31
456.54	28432.83
456.73	28088.77
456.91	28704.33
457.09	29254.36
457.28	29413.51
457.46	28189.41
457.64	27931.95
457.83	27456.82
458.01	26469.12
458.19	27531.72
458.38	27613.64
458.56	28877.53
458.74	28243.24
458.93	27367.88
459.11	27555.13
459.29	27302.35
459.48	27421.72
459.66	27892.16
459.84	27564.49
460.03	27964.72
460.21	28077.07
460.39	28882.21
460.57	28610.71
460.76	29333.93
460.94	29256.70
461.12	28931.36
461.31	28961.79
461.49	28788.59
461.67	28687.95
461.85	29858.21
462.04	29727.14
462.22	30052.48
462.40	29844.17
462.59	29846.51
462.77	29867.58
462.95	29694.38
463.13	29350.32
463.32	28868.17
463.50	28804.97
463.68	29193.50
463.86	28865.83
464.05	28393.04
464.23	28362.61
464.41	28128.56
464.59	27421.72
464.78	28964.13
464.96	28425.81
465.14	28215.16
465.32	29528.20
465.50	29998.65
465.69	29645.23
465.87	29425.22
466.05	28238.56
466.23	27028.51
466.41	26635.30
466.60	27899.19
466.78	27662.79
466.96	27960.04
467.14	28297.08
467.32	29017.96
467.51	28891.57
467.69	27709.60
467.87	28390.70
468.05	28922.00
468.23	28926.68
468.41	28538.15
468.60	28900.94
468.78	29102.22
468.96	28814.34
469.14	29607.78
469.32	29067.11
469.50	28477.30
469.69	28156.64
469.87	28294.74
470.05	27651.09
470.23	27906.21
470.41	27782.16
470.59	28643.48
470.77	28694.97
470.95	29221.59
471.14	29780.98
471.32	29673.31
471.50	31421.69
471.68	31133.81
471.86	31424.03
472.04	31622.98
472.22	31468.50
472.40	29926.09
472.58	30075.88
472.77	29825.45
472.95	30087.59
473.13	31197.00
473.31	30340.36
473.49	30036.09
473.67	31005.08
473.85	31075.29
474.03	31878.10
474.21	32100.45
474.39	32598.98
474.57	32884.53
474.75	32428.12
474.93	32283.01
475.12	31374.88
475.30	31473.18
475.48	31805.54
475.66	32371.95
475.84	31931.93
476.02	31601.91
476.20	31072.95
476.38	31840.65
476.56	32858.78
476.74	32912.61
476.92	33476.68
477.10	33514.13
477.28	34841.21
477.46	34934.84
477.64	35250.81
477.82	35264.85
478.00	35318.68
478.18	34778.02
478.36	35077.61
478.54	34815.47
478.72	34906.75
478.90	35592.53
479.08	37022.59
479.26	36999.19
479.44	37291.76
479.62	36708.96
479.80	36954.72
479.98	37193.45
480.16	37584.32
480.34	37202.82
480.52	37647.52
480.70	37904.98
480.88	37972.85
481.06	38529.90
481.24	38635.22
481.41	39742.30
481.59	39948.26
481.77	39803.15
481.95	39014.39
482.13	38855.23
482.31	38990.98
482.49	39662.72
482.67	39309.30
482.85	39810.17
483.03	40271.26
483.21	41029.59
483.39	40926.61
483.57	40123.80
483.74	40442.12
483.92	40435.10
484.10	40552.12
484.28	41698.98
484.46	41528.13
484.64	42183.48
484.82	40989.80
485.00	40453.82
485.18	39512.92
485.35	38476.07
485.53	35541.03
485.71	32690.26
485.89	32650.47
486.07	34167.14
486.25	36795.56
486.43	39187.59
486.61	39835.92
486.78	39318.66
486.96	39871.03
487.14	41081.08
487.32	42359.02
487.50	43613.54
487.68	44289.96
487.85	45001.48
488.03	44865.73
488.21	44493.58
488.39	43660.35
488.57	42618.81
488.75	42555.62
488.92	44205.70
489.10	46759.22
489.28	47971.62
489.46	48744.00
489.64	48395.26
489.81	48664.42
489.99	48451.43
490.17	48395.26
490.35	48655.06
490.53	48299.30
490.70	47992.68
490.88	47920.13
491.06	48882.09
491.24	48652.72
491.41	47161.79
491.59	45172.34
491.77	44872.75
491.95	46216.22
492.13	47536.28
492.30	48917.20
492.48	50035.97
492.66	50492.38
492.84	50703.03
493.01	50623.45
493.19	49378.28
493.37	49230.83
493.54	48947.62
493.72	50068.74
493.90	50834.10
494.08	51711.80
494.25	52151.82
494.43	52172.88
494.61	52736.95
494.79	52868.02
494.96	52559.07
495.14	52069.90
495.32	50525.14
495.49	50103.85
495.67	51316.25
495.85	52921.85
496.02	53567.84
496.20	53399.32
496.38	52416.30
496.55	52198.63
496.73	53251.87
496.91	53148.88
497.09	53860.41
497.26	53996.16
497.44	53347.83
497.62	53116.12
497.79	51840.53
497.97	50391.73
498.14	50974.53
498.32	52212.67
498.50	53059.94
498.67	53794.87
498.85	53684.87
499.03	53701.25
499.20	54049.99
499.38	54021.90
499.56	53867.43
499.73	53076.33
499.91	52933.56
500.08	52317.99
500.26	51505.83
500.44	52163.52
500.61	53015.47
500.79	52851.64
500.97	51987.98
501.14	51931.81
501.32	51840.53
501.49	51922.44
501.67	52348.42
501.84	52942.92
502.02	53109.10
502.20	53399.32
502.37	53715.29
502.55	53942.33
502.72	54611.72
502.90	54791.94
503.07	54387.03
503.25	54087.44
503.43	52949.94
503.60	52032.45
503.78	51519.87
503.95	52203.31
504.13	53869.77
504.30	54721.72
504.48	54342.56
504.65	53923.60
504.83	54206.81
505.01	54468.95
505.18	55030.68
505.36	55636.87
505.53	55636.87
505.71	56095.62
505.88	55943.48
506.06	55171.11
506.23	54885.56
506.41	54590.66
506.58	54904.29
506.76	54735.77
506.93	54719.38
507.11	54424.48
507.28	54632.78
507.46	53862.75
507.63	53509.33
507.81	53392.30
507.98	53815.94
508.16	54363.62
508.33	55040.04
508.50	55292.82
508.68	55702.41
508.85	56090.94
509.03	56011.36
509.20	55828.80
509.38	55138.34
509.55	54298.09
509.73	54670.23
509.90	55021.31
510.08	55351.33
510.25	55267.07
510.42	55164.09
510.60	54873.86
510.77	55356.01
510.95	56046.47
511.12	56175.20
511.30	56458.40
511.47	56708.84
511.64	56425.64
511.82	56299.25
511.99	55238.98
512.17	55056.42
512.34	54967.48
512.51	55091.53
512.69	54822.37
512.86	55009.61
513.04	55526.87
513.21	55409.84
513.38	55224.94
513.56	54754.49
513.73	53951.69
513.90	53907.22
514.08	54457.24
514.25	54660.87
514.43	54749.81
514.60	54672.57
514.77	55056.42
514.95	55143.02
515.12	55093.87
515.29	55166.43
515.47	55887.31
515.64	56030.08
515.81	55667.30
515.99	55089.19
516.16	53244.85
516.33	50232.58
516.51	49223.81
516.68	48093.33
516.85	47765.65
517.03	48392.92
517.20	51601.79
517.37	54410.43
517.54	55217.92
517.72	54686.62
517.89	51915.42
518.06	48926.56
518.24	49801.92
518.41	52418.64
518.58	53708.27
518.75	53769.13
518.93	54082.76
519.10	53991.48
519.27	54630.44
519.45	54600.02
519.62	55510.49
519.79	55992.64
519.96	55664.96
520.14	55037.70
520.31	54286.39
520.48	54141.27
520.65	54653.85
520.83	55664.96
521.00	55845.18
521.17	55810.07
521.34	55412.18
521.52	55604.11
521.69	56285.20
521.86	56577.77
522.03	56275.84
522.20	54754.49
522.38	54169.36
522.55	53998.50
522.72	54721.72
522.89	54887.90
523.07	54848.11
523.24	55393.46
523.41	56420.95
523.58	56420.95
523.75	56879.70
523.92	56851.61
524.10	56673.73
524.27	56736.93
524.44	56458.40
524.61	56243.07
524.78	56116.68
524.96	56046.47
525.13	56147.11
525.30	56395.21
525.47	56931.19
525.64	56509.89
525.81	55807.73
525.98	54499.37
526.16	52786.10
526.33	52135.43
526.50	51655.62
526.67	51639.24
526.84	52112.03
527.01	53289.32
527.18	54298.09
527.36	55194.51
527.53	55992.64
527.70	56540.32
527.87	55435.59
528.04	55316.22
528.21	55929.44
528.38	56589.47
528.55	57064.60
528.72	57242.48
528.89	57345.47
529.07	57073.96
529.24	56516.92
529.41	55702.41
529.58	55416.86
529.75	55384.10
529.92	56044.13
530.09	56395.21
530.26	56912.47
530.43	56996.73
530.60	57190.99
530.77	57504.62
530.94	57432.07
531.11	56697.14
531.28	56633.94
531.46	56252.44
531.63	56676.07
531.80	56409.25
531.97	55800.71
532.14	54733.43
532.31	53792.53
532.48	53153.57
532.65	53628.69
532.82	54635.13
532.99	55650.92
533.16	55833.48
533.33	56591.81
533.50	56107.32
533.67	55838.16
533.84	55260.05
534.01	55489.42
534.18	55512.83
534.35	55915.40
534.52	55547.93
534.69	55793.69
534.86	56076.90
535.03	56835.23
535.20	57151.20
535.37	57329.08
535.54	57495.26
535.71	56966.30
535.88	56701.82
536.05	55936.46
536.22	55664.96
536.38	55292.82
536.55	55056.42
536.72	54422.14
536.89	54417.46
537.06	55297.50
537.23	56133.07
537.40	56257.12
537.57	56114.34
537.74	56060.51
537.91	56004.34
538.08	56032.42
538.25	56074.55
538.42	56395.21
538.59	56030.08
538.75	55346.65
538.92	55152.38
539.09	55025.99
539.26	54745.13
539.43	54660.87
539.60	54773.22
539.77	54827.05
539.94	54562.57
540.11	53932.96
540.28	53258.89
540.44	53352.51
540.61	53612.31
540.78	54007.86
540.95	54562.57
541.12	54852.80
541.29	55348.99
541.46	55545.59
541.62	55498.78
541.79	55199.19
541.96	54461.93
542.13	54588.31
542.30	55196.85
542.47	55100.89
542.63	55222.60
542.80	54829.39
542.97	54670.23
543.14	54588.31
543.31	54710.02
543.48	55269.41
543.64	56278.18
543.81	56484.15
543.98	55936.46
544.15	55423.89
544.32	54894.92
544.48	54953.44
544.65	55573.68
544.82	55941.14
544.99	55262.39
545.16	55112.59
545.32	54967.48
545.49	56030.08
545.66	56112.00
545.83	55604.11
546.00	55215.58
546.16	55117.28
546.33	55201.53
546.50	55143.02
546.67	55540.91
546.83	55030.68
547.00	55040.04
547.17	54234.89
547.34	53523.37
547.50	53528.05
547.67	54171.70
547.84	54279.36
548.00	55096.21
548.17	55187.49
548.34	55093.87
548.51	55061.10
548.67	54958.12
548.84	54981.52
549.01	55119.62
549.18	54960.46
549.34	54976.84
549.51	54930.03
549.68	54817.69
549.84	54543.84
550.01	54478.31
550.18	54361.28
550.34	54578.95
550.51	54578.95
550.68	54632.78
550.84	54124.89
551.01	54178.72
551.18	54054.67
551.34	54440.86
551.51	54707.68
551.68	55061.10
551.84	55306.86
552.01	54827.05
552.18	54780.24
552.34	53668.48
552.51	53652.10
552.68	53509.33
552.84	53818.28
553.01	54052.33
553.18	54328.52
553.34	53895.52
553.51	54237.23
553.67	54691.30
553.84	54997.91
554.01	54621.08
554.17	54536.82
554.34	54309.79
554.51	54880.88
554.67	55061.10
554.84	54663.21
555.00	54515.76
555.17	54255.96
555.33	53975.09
555.50	54141.27
555.67	54178.72
555.83	54035.95
556.00	53539.75
556.16	53656.78
556.33	53254.21
556.50	53169.95
556.66	53174.63
556.83	52507.58
556.99	52718.23
557.16	53261.23
557.32	53553.80
557.49	53752.74
557.65	53460.18
557.82	53605.29
557.98	53532.73
558.15	52713.55
558.32	52041.81
558.48	51178.15
558.65	51545.62
558.81	51695.41
558.98	52006.70
559.14	52296.93
559.31	52137.77
559.47	52392.89
559.64	52116.71
559.80	51664.99
559.97	51828.82
560.13	52404.59
560.30	53308.04
560.46	53755.08
560.63	54026.59
560.79	53982.12
560.96	53535.07
561.12	51978.62
561.29	51590.09
561.45	51388.80
561.61	51943.51
561.78	52626.95
561.94	52442.04
562.11	52540.35
562.27	52090.96
562.44	52219.69
562.60	52769.72
562.77	53015.47
562.93	53172.29
563.10	52956.96
563.26	52215.01
563.42	52493.54
563.59	52023.09
563.75	52341.40
563.92	52158.84
564.08	52027.77
564.24	52463.11
564.41	52456.09
564.57	52336.72
564.74	52161.18
564.90	51842.87
565.07	51695.41
565.23	51313.90
565.39	50756.86
565.56	50330.88
565.72	50213.85
565.88	50707.71
566.05	50731.11
566.21	51229.65
566.38	51311.56
566.54	51449.66
566.70	51723.50
566.87	51910.74
567.03	51873.29
567.19	51985.64
567.36	51840.53
567.52	51723.50
567.68	51407.53
567.85	50887.93
568.01	50431.52
568.17	49907.24
568.34	49818.30
568.50	49851.07
568.66	50277.05
568.83	50450.25
568.99	50490.04
569.15	50782.60
569.32	50841.12
569.48	50410.46
569.64	50223.22
569.81	50117.89
569.97	49504.67
570.13	49787.88
570.30	48837.62
570.46	48437.39
570.62	47831.19
570.78	47817.14
570.95	48217.38
571.11	49106.78
571.27	49279.98
571.43	49720.00
571.60	50066.40
571.76	50389.39
571.92	50375.35
572.09	50667.92
572.25	50674.94
572.41	50672.60
572.57	50602.38
572.74	50492.38
572.90	49947.03
573.06	49853.41
573.22	49712.98
573.38	49769.15
573.55	49944.69
573.71	50307.47
573.87	50136.62
574.03	49441.48
574.20	49464.88
574.36	49272.96
574.52	48966.35
574.68	48905.49
574.84	48261.85
575.01	47943.53
575.17	47992.68
575.33	48804.85
575.49	48694.85
575.65	48971.03
575.82	48069.92
575.98	48381.21
576.14	48624.63
576.30	48797.83
576.46	48914.86
576.62	49024.86
576.79	48755.70
576.95	48378.87
577.11	48313.34
577.27	48968.69
577.43	48371.85
577.59	48238.44
577.75	47608.84
577.92	47295.21
578.08	46885.61
578.24	46717.09
578.40	47437.98
578.56	47487.13
578.72	47690.76
578.88	47793.74
579.04	47758.63
579.21	48208.01
579.37	48002.05
579.53	48669.10
579.69	48189.29
579.85	48198.65
580.01	48058.22
580.17	47782.04
580.33	47299.89
580.49	47634.58
580.65	48158.86
580.82	48065.24
580.98	48079.28
581.14	47852.25
581.30	48238.44
581.46	47945.87
581.62	47756.29
581.78	48072.26
581.94	48261.85
582.10	48425.68
582.26	48512.28
582.42	48451.43
582.58	48633.99
582.74	48193.97
582.90	48542.71
583.06	48186.95
583.22	47957.58
583.38	48147.16
583.54	47702.46
583.70	47845.23
583.86	47852.25
584.02	47711.82
584.18	47739.91
584.34	47800.76
584.50	47746.93
584.66	47276.48
584.82	47384.15
584.98	46969.87
585.14	46258.35
585.30	45308.09
585.46	45691.94
585.62	45523.42
585.78	45787.90
585.94	45642.79
586.10	46394.10
586.26	46618.79
586.42	46541.55
586.58	46932.42
586.74	46710.07
586.90	46674.96
587.06	46555.60
587.22	46824.76
587.38	46377.72
587.54	45619.38
587.70	46082.81
587.86	45490.65
588.02	44687.85
588.18	44863.39
588.34	43267.14
588.49	41153.64
588.65	39297.59
588.81	38941.83
588.97	38878.64
589.13	38862.26
589.29	38946.51
589.45	40243.17
589.61	41092.79
589.77	42288.80
589.93	43068.20
590.08	44294.64
590.24	44243.15
590.40	44760.40
590.56	44839.98
590.72	44083.99
590.88	43384.17
591.04	43683.76
591.20	43433.32
591.35	43693.12
591.51	43796.10
591.67	43856.96
591.83	43447.36
591.99	43796.10
592.15	43779.72
592.31	44121.44
592.46	44116.76
592.62	43665.03
592.78	43276.51
592.94	43423.96
593.10	43353.74
593.26	44507.63
593.41	43899.09
593.57	43564.39
593.73	43407.58
593.89	43194.59
594.05	42515.83
594.20	42749.88
594.36	41876.86
594.52	41450.89
594.68	41841.76
594.84	42632.86
594.99	42689.03
595.15	42862.23
595.31	42990.96
595.47	42611.79
595.62	43005.00
595.78	43306.93
595.94	43351.40
596.10	43618.22
596.25	42604.77
596.41	42642.22
596.57	42366.04
596.73	43157.14
596.88	42710.10
597.04	42939.47
597.20	42595.41
597.36	42167.09
597.51	42036.02
597.67	42384.76
597.83	42527.53
597.99	41858.14
598.14	41125.55
598.30	41591.32
598.46	41701.32
598.61	41773.88
598.77	41841.76
598.93	42050.06
599.09	42160.07
599.24	42422.21
599.40	42340.29
599.56	42199.86
599.71	41965.81
599.87	41827.71
600.03	41846.44
600.18	41177.04
600.34	41352.58
600.50	41256.62
600.65	40540.42
600.81	41443.87
600.97	40917.25
601.12	41167.68
601.28	41062.36
601.44	40765.11
601.59	40697.24
601.75	40311.05
601.91	40268.92
602.06	40313.39
602.22	40521.69
602.37	40732.34
602.53	40664.47
602.69	41408.76
602.84	41289.39
603.00	41729.41
603.16	41745.80
603.31	42270.08
603.47	41415.78
603.62	40842.35
603.78	41221.52
603.94	40732.34
604.09	41071.72
604.25	40879.80
604.40	40989.80
604.56	41130.23
604.71	41071.72
604.87	40886.82
605.03	40903.20
605.18	40381.26
605.34	40680.85
605.49	40470.20
605.65	40847.03
605.80	40552.12
605.96	40774.47
606.12	39604.20
606.27	40098.06
606.43	39711.87
606.58	40383.60
606.74	40280.62
606.89	40100.40
607.05	40673.83
607.20	40030.18
607.36	40023.16
607.51	39711.87
607.67	39707.19
607.82	39732.93
607.98	39599.52
608.13	39150.14
608.29	39257.81
608.44	38909.07
608.60	38326.27
608.75	38770.97
608.91	38871.62
609.06	38497.13
609.22	39105.67
609.37	39016.73
609.53	39337.38
609.68	38520.54
609.84	37556.24
609.99	37743.48
610.15	37916.68
610.30	38099.24
610.46	38459.68
610.61	38738.21
610.76	38855.23
610.92	39119.71
611.07	39229.72
611.23	39117.37
611.38	39363.13
611.54	38663.31
611.69	38075.84
611.84	37509.43
612.00	36980.46
612.15	37144.30
612.31	37886.25
612.46	37247.29
612.62	37596.03
612.77	38043.07
612.92	37975.19
613.08	37521.13
613.23	36493.63
613.39	35817.22
613.54	36266.60
613.69	35901.48
613.85	36250.22
614.00	36601.30
614.15	36720.66
614.31	36837.69
614.46	37343.25
614.62	36914.93
614.77	36790.88
614.92	36802.58
615.08	36589.59
615.23	36510.02
615.38	36594.28
615.54	35480.18
615.69	34749.93
615.84	34258.42
616.00	34082.88
616.15	34321.62
616.30	34728.87
616.46	34546.31
616.61	34192.89
616.76	34714.83
616.92	34445.66
617.07	35508.27
617.22	35122.08
617.37	35622.95
617.53	35812.54
617.68	35725.94
617.83	35665.08
617.99	35793.81
618.14	35742.32
618.29	35758.70
618.45	35480.18
618.60	34852.92
618.75	34937.18
618.90	34504.18
619.06	34946.54
619.21	35145.48
619.36	35512.95
619.51	35393.58
619.67	35351.45
619.82	35110.38
619.97	35526.99
620.12	34728.87
620.28	34944.20
620.43	35126.76
620.58	35091.65
620.73	34932.50
620.89	34583.76
621.04	34513.54
621.19	33970.54
621.34	33869.89
621.49	33773.93
621.65	33841.81
621.80	34129.69
621.95	33287.10
622.10	33881.60
622.25	33949.47
622.41	33832.44
622.56	33315.19
622.71	32929.00
622.86	32781.54
623.01	33132.62
623.16	33226.24
623.32	32858.78
623.47	33146.67
623.62	32994.53
623.77	32463.23
623.92	32203.43
624.07	31798.52
624.23	31952.99
624.38	31976.40
624.53	32203.43
624.68	32292.37
624.83	31653.40
624.98	31931.93
625.13	31482.55
625.29	31431.05
625.44	31498.93
625.59	31173.60
625.74	31473.18
625.89	31718.94
626.04	31857.03
626.19	31784.48
626.34	32170.66
626.49	31461.48
626.65	31414.67
626.80	31730.64
626.95	31435.74
627.10	31278.92
627.25	30462.07
627.40	29797.36
627.55	29853.53
627.70	29057.75
627.85	29050.73
628.00	29495.43
628.15	30174.19
628.30	30511.22
628.45	30663.36
628.60	30553.35
628.76	30635.27
628.91	30541.65
629.06	30464.41
629.21	29846.51
629.36	30246.74
629.51	29483.73
629.66	29244.99
629.81	28954.77
629.96	29076.48
630.11	29362.02
630.26	29912.05
630.41	29949.50
630.56	29567.99
630.71	29905.02
630.86	29715.44
631.01	29579.69
631.16	29411.17
631.31	28568.58
631.46	28072.39
631.61	29263.72
631.76	28830.72
631.91	29102.22
632.06	29404.15
632.21	29200.52
632.36	29752.89
632.51	29675.65
632.66	29668.63
632.81	29631.18
632.96	29575.01
633.10	29230.95
633.25	28760.50
633.40	28678.58
633.55	28643.48
633.70	28561.56
633.85	28243.24
634.00	28765.18
634.15	28833.06
634.30	28577.94
634.45	29001.58
634.60	28701.99
634.75	28985.19
634.90	28783.91
635.05	28861.15
635.19	28790.93
635.34	29343.30
635.49	28524.11
635.64	28753.48
635.79	27880.46
635.94	28254.95
636.09	28252.61
636.24	28250.27
636.39	28737.10
636.53	28381.34
636.68	28393.04
636.83	28531.13
636.98	28767.52
637.13	29008.60
637.28	28725.39
637.43	28933.70
637.57	28879.87
637.72	28526.45
637.87	28781.57
638.02	28332.18
638.17	27997.49
638.32	28030.26
638.46	28332.18
638.61	28198.77
638.76	27960.04
638.91	27807.90
639.06	27597.26
639.20	27667.47
639.35	27328.10
639.50	27283.62
639.65	27175.96
639.80	26967.65
639.94	27337.46
640.09	27728.33
640.24	27402.99
640.39	27239.15
640.54	26656.36
640.68	26960.63
640.83	26417.63
640.98	26518.27
641.13	26267.83
641.27	26820.20
641.42	26693.81
641.57	26639.98
641.72	26618.91
641.86	26410.60
642.01	26546.36
642.16	26843.60
642.31	26644.66
642.45	27070.64
642.60	26817.86
642.75	26415.29
642.90	26387.20
643.04	26511.25
643.19	26321.66
643.34	26153.15
643.48	26235.06
643.63	25902.71
643.78	26221.02
643.93	26382.52
644.07	27005.10
644.22	26951.27
644.37	26246.77
644.51	26441.03
644.66	26267.83
644.81	26118.04
644.95	25727.17
645.10	25741.21
645.25	25289.49
645.39	25118.63
645.54	25663.97
645.69	25228.63
645.83	25001.60
645.98	24753.51
646.13	24767.55
646.27	24725.42
646.42	24629.46
646.57	24863.51
646.71	24709.04
646.86	24355.61
647.00	24437.53
647.15	24313.48
647.30	24276.04
647.44	23892.19
647.59	24130.92
647.74	24390.72
647.88	24123.90
648.03	24308.80
648.17	23997.51
648.32	24184.76
648.47	24491.37
648.61	24496.05
648.76	24163.69
648.90	23569.19
649.05	22916.19
649.20	22389.56
649.34	22312.33
649.49	22686.81
649.63	22831.93
649.78	23133.86
649.92	23564.51
650.07	24304.12
650.21	24126.24
650.36	24203.48
650.51	24187.10
650.65	24362.64
650.80	24545.20
650.94	24180.07
651.09	23836.02
651.23	23307.05
651.38	23145.56
651.52	22932.57
651.67	23166.62
651.81	23580.90
651.96	23655.79
652.10	23297.69
652.25	23473.23
652.39	23484.94
652.54	23702.61
652.68	23419.40
652.83	23377.27
652.97	23117.47
653.12	23190.03
653.26	23126.83
653.41	23400.68
653.55	23473.23
653.70	23419.40
653.84	23440.47
653.99	23199.39
654.13	22623.62
654.27	22436.38
654.42	22258.49
654.56	21743.58
654.71	22225.73
654.85	22408.29
655.00	21766.98
655.14	21614.85
655.29	21259.09
655.43	20842.47
655.57	20018.60
655.72	18792.16
655.86	17322.30
656.01	16615.46
656.15	16893.99
656.30	17839.56
656.44	18530.02
656.58	19548.15
656.73	20121.59
656.87	20620.12
657.01	20905.66
657.16	21240.36
657.30	21521.23
657.45	21605.49
657.59	21874.65
657.73	21781.03
657.88	22115.72
658.02	22106.36
658.16	21722.51
658.31	21727.19
658.45	22015.08
658.60	21858.26
658.74	21497.82
658.88	21469.73
659.03	21202.91
659.17	21214.62
659.31	21362.07
659.46	21296.53
659.60	21640.59
659.74	21865.28
659.89	21521.23
660.03	21720.17
660.17	21869.97
660.32	21930.82
660.46	21546.97
660.60	21486.12
660.74	21303.56
660.89	21099.93
661.03	21706.13
661.17	21135.04
661.32	21366.75
661.46	21275.47
661.60	21362.07
661.74	21476.76
661.89	21312.92
662.03	21092.91
662.17	21146.74
662.31	21214.62
662.46	21092.91
662.60	21034.39
662.74	20776.94
662.88	20783.96
663.03	20500.75
663.17	20210.53
663.31	20086.48
663.45	20594.37
663.60	20414.15
663.74	20346.28
663.88	20112.22
664.02	20369.68
664.17	20304.15
664.31	20442.24
664.45	19990.52
664.59	20489.05
664.73	20460.96
664.88	20458.62
665.02	20184.78
665.16	20379.04
665.30	20180.10
665.44	20074.77
665.59	19829.02
665.73	19875.83
665.87	19419.42
666.01	19318.78
666.15	19288.35
666.29	19271.97
666.44	19880.51
666.58	19419.42
666.72	19358.57
666.86	19480.28
667.00	19976.47
667.14	19269.63
667.28	19391.34
667.43	19030.90
667.57	19159.63
667.71	19122.18
667.85	19393.68
667.99	19070.68
668.13	18780.46
668.27	19211.12
668.41	18789.82
668.56	18946.64
668.70	19021.53
668.84	18707.90
668.98	18707.90
669.12	18951.32
669.26	18930.25
669.40	18752.37
669.54	18721.95
669.68	18602.58
669.82	18747.69
669.96	18366.18
670.10	18017.44
670.25	18104.04
670.39	18167.24
670.53	18380.23
670.67	18164.90
670.81	17928.50
670.95	17963.61
671.09	17930.84
671.23	17888.71
671.37	17895.74
671.51	17591.47
671.65	17511.89
671.79	17668.70
671.93	17577.42
672.07	17958.93
672.21	17659.34
672.35	17397.20
672.49	17767.01
672.63	17696.79
672.77	17467.42
672.91	17156.13
673.05	17252.09
673.19	17539.97
673.33	17280.18
673.47	17209.96
673.61	17214.64
673.75	17181.87
673.89	17282.52
674.03	17207.62
674.17	17053.14
674.31	16744.19
674.45	16961.86
674.59	16599.08
674.73	16491.41
674.87	16383.75
675.01	16563.97
675.15	16519.50
675.29	16383.75
675.43	16547.59
675.56	16636.53
675.70	16650.57
675.84	16638.87
675.98	16077.14
676.12	16299.49
676.26	16182.46
676.40	16215.23
676.54	16147.36
676.68	16173.10
676.82	15796.28
676.96	15990.54
677.10	15800.96
677.23	16098.20
677.37	15833.72
677.51	15861.81
677.65	15854.79
677.79	15641.80
677.93	15541.16
678.07	15403.07
678.21	15314.13
678.34	15119.86
678.48	14977.09
678.62	15318.81
678.76	15124.54
678.90	15176.03
679.04	14911.55
679.18	14927.94
679.31	14853.04
679.45	14565.15
679.59	14822.61
679.73	15073.05
679.87	14857.72
680.00	14696.22
680.14	14705.59
680.28	14567.49
680.42	14377.91
680.56	14478.55
680.70	14211.73
680.83	14164.92
680.97	13961.30
681.11	14019.81
681.25	14181.31
681.39	13884.06
681.52	14094.71
681.66	13968.32
681.80	13923.85
681.94	13963.64
682.07	13977.68
682.21	13965.98
682.35	13738.94
682.49	13598.51
682.62	13582.13
682.76	13415.95
682.90	13717.88
683.04	13624.26
683.17	13472.12
683.31	13338.71
683.45	13165.51
683.59	13018.06
683.72	13144.45
683.86	12666.98
684.00	12475.06
684.13	12886.99
684.27	12718.47
684.41	12648.26
684.55	12599.10
684.68	12690.38
684.82	12760.60
684.96	12294.83
685.09	12624.85
685.23	12351.01
685.37	12189.51
685.50	12432.93
685.64	12166.10
685.78	12386.12
685.91	12135.68
686.05	12133.34
686.19	11705.02
686.32	10890.51
686.46	9598.54
686.60	8458.70
686.73	7953.14
686.87	7613.76
687.01	7618.44
687.14	7850.16
687.28	7854.84
687.42	8065.49
687.55	8538.27
687.69	9303.63
687.82	9640.67
687.96	9804.50
688.10	9694.50
688.23	9743.65
688.37	9685.14
688.50	9397.25
688.64	9390.23
688.78	9242.78
688.91	9430.02
689.05	9294.27
689.18	8994.68
689.32	8933.82
689.46	9011.06
689.59	9294.27
689.73	9198.31
689.86	9158.52
690.00	9385.55
690.13	9439.38
690.27	9380.87
690.41	9509.60
690.54	9415.98
690.68	9638.33
690.81	9516.62
690.95	9469.81
691.08	9406.61
691.22	9348.10
691.35	9551.73
691.49	9437.04
691.62	9659.39
691.76	9460.45
691.89	9359.80
692.03	9348.10
692.16	9074.26
692.30	9018.08
692.43	9214.69
692.57	9088.30
692.70	9111.71
692.84	8730.20
692.97	8943.19
693.11	8898.72
693.24	9069.58
693.38	8903.40
693.51	8716.16
693.65	8561.68
693.78	8505.51
693.92	8554.66
694.05	8435.29
694.19	8472.74
694.32	8493.80
694.45	8524.23
694.59	8273.79
694.72	8517.21
694.86	8617.85
694.99	8208.26
695.13	8287.84
695.26	8248.05
695.39	8461.04
695.53	8280.82
695.66	8383.80
695.80	8325.29
695.93	8236.35
696.07	8236.35
696.20	8290.18
696.33	8306.56
696.47	8493.80
696.60	8575.72
696.73	8692.75
696.87	8383.80
697.00	8402.52
697.14	8404.86
697.27	8142.72
697.40	7995.27
697.54	7941.44
697.67	7850.16
697.80	7768.24
697.94	7864.20
698.07	7775.26
698.21	7557.59
698.34	7632.49
698.47	7648.87
698.61	7419.50
698.74	7470.99
698.87	7428.86
699.01	7417.16
699.14	7300.13
699.27	7377.37
699.40	7592.70
699.54	7281.41
699.67	7117.57
699.80	7255.66
699.94	7342.26
700.07	6937.35
700.20	6965.43
700.34	6722.02
700.47	6773.51
700.60	6689.25
700.73	6810.96
700.87	6862.45
701.00	6787.55
701.13	6661.16
701.26	6466.90
701.40	6487.96
701.53	6462.22
701.66	6750.10
701.79	6733.72
701.93	6562.86
702.06	6754.79
702.19	6375.62
702.32	6499.67
702.46	6216.46
702.59	6530.09
702.72	6361.58
702.85	6466.90
702.99	6562.86
703.12	6544.14
703.25	6349.87
703.38	6207.10
703.51	6153.27
703.65	6216.46
703.78	6228.17
703.91	6136.88
704.04	6251.57
704.17	6265.61
704.31	6157.95
704.44	5975.39
704.57	6249.23
704.70	6225.82
704.83	5954.32
704.96	5980.07
705.10	6001.13
705.23	5844.32
>>>>>End Processed Spectral Data<<<<<
