SpectraSuite Data File
++++++++++++++++++++++++++++++++++++
Date: Mon Oct 07 14:53:27 GMT-05:00 2013
User: price-jones
Dark Spectrum Present: No
Reference Spectrum Present: No
Number of Sampled Component Spectra: 1
Spectrometers: USB2+H05261
Integration Time (usec): 100000 (USB2+H05261)
Spectra Averaged: 1 (USB2+H05261)
Boxcar Smoothing: 0 (USB2+H05261)
Correct for Electrical Dark: No (USB2+H05261)
Strobe/Lamp Enabled: No (USB2+H05261)
Correct for Detector Non-linearity: No (USB2+H05261)
Correct for Stray Light: No (USB2+H05261)
Number of Pixels in Processed Spectrum: 2048
>>>>>Begin Processed Spectral Data<<<<<
365.73	0.00
365.92	0.00
366.12	0.00
366.32	0.00
366.52	0.00
366.72	0.00
366.91	0.00
367.11	0.00
367.31	0.00
367.51	0.00
367.70	0.00
367.90	0.00
368.10	0.00
368.30	0.00
368.49	0.00
368.69	0.00
368.89	0.00
369.09	0.00
369.28	0.00
369.48	0.00
369.68	0.00
369.87	0.00
370.07	0.00
370.27	0.00
370.47	660.03
370.66	3412.50
370.86	3859.54
371.06	4301.90
371.25	4540.64
371.45	3906.35
371.65	3482.72
371.84	3227.60
372.04	3297.81
372.24	4037.42
372.44	4117.00
372.63	3873.59
372.83	3712.09
373.03	3265.05
373.22	2991.20
373.42	3155.04
373.62	3630.17
373.81	3983.59
374.01	4009.34
374.21	3550.59
374.40	3269.73
374.60	3489.74
374.79	3871.25
374.99	4503.19
375.19	4968.96
375.38	5039.17
375.58	4610.86
375.78	4599.15
375.97	4503.19
376.17	4858.95
376.37	4807.46
376.56	4739.58
376.76	5160.88
376.95	5568.13
377.15	5841.98
377.35	6038.58
377.54	6338.17
377.74	6513.71
377.93	6452.86
378.13	6284.34
378.33	5895.81
378.52	5713.25
378.72	5376.21
378.91	5275.57
379.11	5018.11
379.31	4901.08
379.50	4973.64
379.70	5259.18
379.89	5823.25
380.09	6136.88
380.28	6267.95
380.48	6413.07
380.68	6221.14
380.87	6050.28
381.07	5689.84
381.26	5266.21
381.46	4816.82
381.65	4814.48
381.85	4568.73
382.04	4573.41
382.24	4114.66
382.43	3726.13
382.63	3772.94
382.83	3859.54
383.02	3974.23
383.22	3861.88
383.41	3829.12
383.61	4180.20
383.80	4692.77
384.00	5282.59
384.19	6113.48
384.39	6312.42
384.58	6363.92
384.78	6108.80
384.97	6052.63
385.17	5760.06
385.36	5584.52
385.56	5195.99
385.75	5572.82
385.95	5881.77
386.14	6375.62
386.34	6623.72
386.53	6272.64
386.72	5881.77
386.92	5827.93
387.11	6099.44
387.31	6581.59
387.50	6380.30
387.70	6160.29
387.89	6209.44
388.09	6171.99
388.28	6099.44
388.48	6207.10
388.67	6785.21
388.86	7454.61
389.06	7852.50
389.25	8173.15
389.45	8489.12
389.64	8224.64
389.84	8351.03
390.03	8248.05
390.22	8044.42
390.42	8411.89
390.61	8826.16
390.81	9507.26
391.00	9713.22
391.19	9743.65
391.39	9249.80
391.58	8606.15
391.78	8386.14
391.97	8039.74
392.16	7529.50
392.36	6857.77
392.55	5411.32
392.75	4397.87
392.94	3772.94
393.13	3662.94
393.33	4067.85
393.52	5437.06
393.71	6497.33
393.91	7339.92
394.10	8049.10
394.29	8765.31
394.49	9430.02
394.68	10186.01
394.88	10211.76
395.07	10373.25
395.26	10296.02
395.46	10169.63
395.65	9776.42
395.84	8444.65
396.04	7162.04
396.23	5802.19
396.42	4688.09
396.62	4652.98
396.81	5514.30
397.00	7070.76
397.19	8674.03
397.39	10221.12
397.58	11616.08
397.77	12500.80
397.97	12720.81
398.16	12936.14
398.35	13336.37
398.55	13851.29
398.74	14094.71
398.93	14583.88
399.12	14202.37
399.32	13965.98
399.51	14324.08
399.70	15075.39
399.90	14993.47
400.09	14883.47
400.28	15077.73
400.47	14998.15
400.67	15754.15
400.86	16142.67
401.05	16252.68
401.24	16428.22
401.44	16301.83
401.63	16446.94
401.82	16524.18
402.01	16350.98
402.21	16795.68
402.40	16669.30
402.59	16184.80
402.78	15716.70
402.97	15023.90
403.17	15714.36
403.36	16699.72
403.55	17350.39
403.74	17806.80
403.93	16807.39
404.13	15559.88
404.32	15171.35
404.51	15721.38
404.70	17259.11
404.89	17018.04
405.09	16765.26
405.28	16257.36
405.47	16219.91
405.66	16526.52
405.85	16042.03
406.05	15550.52
406.24	15660.52
406.43	16105.23
406.62	17191.23
406.81	17184.21
407.00	16350.98
407.20	16077.14
407.39	16037.35
407.58	16849.52
407.77	17525.93
407.96	18331.08
408.15	18448.10
408.34	18511.30
408.54	19445.17
408.73	19468.58
408.92	19047.28
409.11	18377.89
409.30	17593.81
409.49	16514.82
409.68	15470.94
409.87	15213.48
410.07	16095.86
410.26	17568.06
410.45	18588.53
410.64	19061.32
410.83	19309.42
411.02	19981.15
411.21	20563.95
411.40	20334.57
411.59	20154.35
411.78	20180.10
411.98	19899.23
412.17	20313.51
412.36	20142.65
412.55	19934.34
412.74	19616.03
412.93	18963.02
413.12	19609.01
413.31	21111.63
413.50	21418.24
413.69	21701.45
413.88	21083.55
414.07	20203.50
414.26	20678.63
414.45	21359.73
414.64	21731.87
414.83	21596.12
415.02	21025.03
415.22	20973.54
415.41	21727.19
415.60	22146.15
415.79	22904.48
415.98	23386.63
416.17	23744.73
416.36	23073.00
416.55	22490.21
416.74	22134.45
416.93	21209.93
417.12	21245.04
417.31	21408.88
417.50	21834.86
417.69	22759.37
417.88	22576.81
418.07	22459.78
418.26	21954.22
418.45	22246.79
418.64	23218.11
418.83	23695.58
419.02	23821.97
419.21	23381.95
419.39	22237.43
419.58	21198.23
419.77	21530.59
419.96	22363.82
420.15	23683.88
420.34	24128.58
420.53	25036.71
420.72	25575.03
420.91	24982.88
421.10	24959.47
421.29	24575.62
421.48	23864.10
421.67	25263.74
421.86	24301.78
422.05	22836.61
422.24	20671.61
422.43	20285.42
422.61	22382.54
422.80	23889.85
422.99	24060.71
423.18	23115.13
423.37	22632.98
423.56	22670.43
423.75	23339.82
423.94	23662.82
424.13	22104.02
424.32	22555.74
424.50	22778.09
424.69	22588.51
424.88	22604.89
425.07	22267.86
425.26	22593.19
425.45	21689.74
425.64	21827.84
425.83	21790.39
426.01	23140.88
426.20	23555.15
426.39	23253.22
426.58	21795.07
426.77	20196.48
426.96	19758.80
427.15	20159.03
427.33	22132.11
427.52	22525.32
427.71	22897.46
427.90	22850.65
428.09	22410.63
428.28	21837.20
428.46	20966.52
428.65	20910.35
428.84	21455.69
429.03	21820.81
429.22	20451.60
429.40	19398.36
429.59	17771.69
429.78	15609.03
429.97	15576.27
430.16	16088.84
430.34	15866.49
430.53	15707.34
430.72	16353.32
430.91	18148.51
431.10	21322.28
431.28	24870.53
431.47	26824.88
431.66	26855.31
431.85	25130.33
432.03	22642.34
432.22	21343.35
432.41	22366.16
432.60	25359.70
432.79	26267.83
432.97	26541.68
433.16	26331.03
433.35	23681.54
433.54	21568.04
433.72	20273.72
433.91	20872.90
434.10	23339.82
434.28	25078.84
434.47	26480.82
434.66	25895.69
434.85	24886.92
435.03	24826.06
435.22	25818.45
435.41	27307.03
435.59	27370.22
435.78	27311.71
435.97	28233.88
436.16	28465.60
436.34	28182.39
436.53	27395.97
436.72	27641.73
436.90	26244.43
437.09	25984.63
437.28	25851.22
437.46	26307.62
437.65	26352.09
437.84	24762.87
438.02	22551.06
438.21	22394.25
438.40	23793.89
438.58	25776.32
438.77	26111.02
438.96	26726.58
439.14	27906.21
439.33	28041.96
439.52	28802.63
439.70	28315.80
439.89	27470.87
440.08	26625.93
440.26	26656.36
440.45	27557.47
440.63	29504.79
440.82	30991.03
441.01	30270.15
441.19	30373.13
441.38	30642.29
441.57	31833.63
441.75	32484.30
441.94	32669.20
442.12	32121.51
442.31	33074.11
442.50	32793.25
442.68	32215.13
442.87	32182.37
443.05	31665.11
443.24	32247.90
443.43	32519.40
443.61	33607.75
443.80	33727.12
443.98	32240.88
444.17	31831.29
444.35	33984.58
444.54	34763.98
444.73	33574.98
444.91	32390.67
445.10	30883.37
445.28	29631.18
445.47	29570.33
445.65	29692.04
445.84	30363.77
446.02	31590.21
446.21	32182.37
446.39	32208.11
446.58	32404.72
446.77	32978.15
446.95	32912.61
447.14	34040.75
447.32	34391.83
447.51	33825.42
447.69	32744.09
447.88	32149.60
448.06	32872.82
448.25	33556.26
448.43	33722.44
448.62	32826.01
448.80	32758.14
448.99	33123.26
449.17	33612.43
449.36	33673.29
449.54	34834.19
449.73	34927.81
449.91	35667.42
450.10	36804.92
450.28	37233.24
450.46	36741.73
450.65	36458.52
450.83	36430.44
451.02	35466.14
451.20	35449.75
451.39	35283.58
451.57	35292.94
451.76	35377.20
451.94	34925.47
452.13	34506.52
452.31	33401.79
452.49	31529.36
452.68	32243.22
452.86	32025.55
453.05	32350.88
453.23	33294.12
453.42	34040.75
453.60	34778.02
453.78	35189.95
453.97	34703.12
454.15	34838.87
454.34	33977.56
454.52	34230.33
454.70	33556.26
454.89	33914.36
455.07	33926.07
455.26	34731.21
455.44	35997.44
455.62	36306.39
455.81	36514.70
455.99	36680.88
456.17	35833.60
456.36	36224.47
456.54	37345.59
456.73	37003.87
456.91	37961.15
457.09	37577.30
457.28	38506.49
457.46	37031.96
457.64	36961.74
457.83	35941.27
458.01	35248.47
458.19	35882.75
458.38	35812.54
458.56	37081.11
458.74	36538.10
458.93	36421.08
459.11	36453.84
459.29	36282.98
459.48	36245.54
459.66	36126.17
459.84	36804.92
460.03	36638.75
460.21	36931.31
460.39	37731.78
460.57	37752.84
460.76	38052.43
460.94	38562.67
461.12	37949.45
461.31	37804.33
461.49	38052.43
461.67	38370.74
461.85	39096.31
462.04	38726.50
462.22	39185.25
462.40	38499.47
462.59	38752.25
462.77	38778.00
462.95	38494.79
463.13	38288.82
463.32	37785.61
463.50	37603.05
463.68	37823.06
463.86	37635.81
464.05	37448.57
464.23	36723.01
464.41	36818.97
464.59	35992.76
464.78	37752.84
464.96	37535.17
465.14	37242.60
465.32	38094.56
465.50	38918.43
465.69	39344.41
465.87	38775.66
466.05	37619.43
466.23	36032.55
466.41	35101.01
466.60	36116.81
466.78	35725.94
466.96	37034.30
467.14	37308.14
467.32	37900.29
467.51	38073.49
467.69	36498.31
467.87	37148.98
468.05	37703.69
468.23	37387.72
468.41	37844.12
468.60	37427.51
468.78	37888.59
468.96	36992.17
469.14	38691.40
469.32	37975.19
469.50	36538.10
469.69	37235.58
469.87	36629.38
470.05	36954.72
470.23	36601.30
470.41	36346.18
470.59	37022.59
470.77	36882.16
470.95	38466.70
471.14	38618.84
471.32	38171.80
471.50	40748.73
471.68	40605.95
471.86	41067.04
472.04	41055.34
472.22	41373.65
472.40	39159.50
472.58	39225.04
472.77	38651.61
472.95	39571.44
473.13	40577.87
473.31	38965.24
473.49	39250.78
473.67	40477.22
473.85	40074.65
474.03	41464.93
474.21	41493.02
474.39	42305.18
474.57	42033.68
474.75	42239.65
474.93	41666.22
475.12	40870.43
475.30	41495.36
475.48	41205.13
475.66	41682.60
475.84	41284.71
476.02	41158.32
476.20	40217.43
476.38	40933.63
476.56	42024.32
476.74	42871.59
476.92	43044.79
477.10	43524.60
477.28	44765.09
477.46	44722.96
477.64	45272.98
477.82	44924.24
478.00	45448.52
478.18	44191.65
478.36	44631.68
478.54	44802.53
478.72	45270.64
478.90	45715.34
479.08	47161.79
479.26	47423.93
479.44	47437.98
479.62	47192.22
479.80	46595.38
479.98	47171.16
480.16	47796.08
480.34	46869.23
480.52	47606.50
480.70	47655.65
480.88	47777.36
481.06	48641.01
481.24	48896.13
481.41	49574.89
481.59	50295.77
481.77	49830.01
481.95	48982.73
482.13	49200.40
482.31	49464.88
482.49	50288.75
482.67	49764.47
482.85	49762.13
483.03	50337.90
483.21	50803.67
483.39	50784.94
483.57	50216.19
483.74	49907.24
483.92	50202.15
484.10	50323.86
484.28	51157.09
484.46	51271.78
484.64	51491.79
484.82	50857.50
485.00	50906.65
485.18	50047.68
485.35	48638.67
485.53	45897.91
485.71	42073.47
485.89	41287.05
486.07	43765.68
486.25	47077.54
486.43	49223.81
486.61	49860.43
486.78	49780.85
486.96	49528.08
487.14	51255.39
487.32	51915.42
487.50	52985.05
487.68	53708.27
487.85	53888.49
488.03	54199.79
488.21	53799.55
488.39	53244.85
488.57	52643.33
488.75	52486.51
488.92	53439.11
489.10	55077.49
489.28	56240.73
489.46	56846.93
489.64	56385.85
489.81	56788.42
489.99	56446.70
490.17	56715.86
490.35	56769.69
490.53	56306.27
490.70	56392.87
490.88	56128.39
491.06	56975.66
491.24	56821.19
491.41	56151.79
491.59	54527.46
491.77	53769.13
491.95	54740.45
492.13	55901.36
492.30	56905.44
492.48	57923.58
492.66	57979.75
492.84	58157.63
493.01	58087.42
493.19	57284.61
493.37	57139.50
493.54	56975.66
493.72	57525.69
493.90	58468.92
494.08	58972.14
494.25	59229.60
494.43	59629.83
494.61	59732.81
494.79	59824.09
494.96	59749.20
495.14	59042.35
495.32	58335.51
495.49	57649.74
495.67	58693.61
495.85	59842.82
496.02	60294.54
496.20	59980.91
496.38	59707.07
496.55	59566.63
496.73	60055.81
496.91	60126.02
497.09	60720.52
497.26	60865.63
497.44	60306.24
497.62	59849.84
497.79	58979.16
497.97	58061.67
498.14	58307.43
498.32	59175.76
498.50	59884.95
498.67	60498.17
498.85	60301.56
499.03	60381.14
499.20	60647.96
499.38	60746.26
499.56	60694.77
499.73	60175.17
499.91	60013.68
500.08	59760.90
500.26	58740.42
500.44	59000.22
500.61	59781.96
500.79	59671.96
500.97	59311.52
501.14	59182.79
501.32	59096.19
501.49	59194.49
501.67	59178.10
501.84	59840.48
502.02	60023.04
502.20	60252.41
502.37	60544.98
502.55	60362.42
502.72	60940.53
502.90	61272.88
503.07	61085.64
503.25	60757.97
503.43	59955.16
503.60	59400.46
503.78	58660.85
503.95	59248.32
504.13	60322.63
504.30	61261.18
504.48	60949.89
504.65	60640.94
504.83	60622.22
505.01	61237.78
505.18	61542.05
505.36	62101.43
505.53	62000.79
505.71	62232.50
505.88	62426.77
506.06	62017.17
506.23	61659.07
506.41	61364.17
506.58	61364.17
506.76	61609.92
506.93	61443.74
507.11	61106.71
507.28	61130.11
507.46	60935.85
507.63	60350.71
507.81	60212.62
507.98	60327.31
508.16	61050.53
508.33	61385.23
508.50	61736.31
508.68	61958.66
508.85	62485.28
509.03	62269.95
509.20	62396.34
509.38	61696.52
509.55	60807.12
509.73	61020.11
509.90	61462.47
510.08	61883.76
510.25	61771.42
510.42	61614.60
510.60	61565.45
510.77	61930.58
510.95	62171.65
511.12	62234.84
511.30	62665.50
511.47	62733.38
511.64	62805.94
511.82	62471.24
511.99	61600.56
512.17	61448.42
512.34	61048.19
512.51	61462.47
512.69	61403.95
512.86	61509.28
513.04	61876.74
513.21	61956.32
513.38	61799.50
513.56	61141.81
513.73	60467.74
513.90	60874.99
514.08	61062.24
514.25	61235.44
514.43	61221.39
514.60	61476.51
514.77	61647.37
514.95	61654.39
515.12	61516.30
515.29	61757.38
515.47	62049.94
515.64	62316.76
515.81	62115.48
515.99	61303.31
516.16	60168.15
516.33	58012.52
516.51	56783.74
516.68	56130.73
516.85	55770.28
517.03	55966.89
517.20	58370.62
517.37	60697.11
517.54	61544.39
517.72	61008.40
517.89	58962.78
518.06	56839.91
518.24	57031.83
518.41	59047.04
518.58	60350.71
518.75	60540.30
518.93	60664.35
519.10	60547.32
519.27	61050.53
519.45	61394.59
519.62	61752.69
519.79	62246.55
519.96	62061.64
520.14	61483.53
520.31	60521.57
520.48	60814.14
520.65	61153.52
520.83	62094.41
521.00	62272.29
521.17	61872.06
521.34	61698.86
521.52	61684.82
521.69	62588.27
521.86	62742.74
522.03	62206.76
522.20	61305.65
522.38	60275.82
522.55	60472.42
522.72	60802.44
522.89	61336.08
523.07	61410.98
523.24	61654.39
523.41	62274.63
523.58	62665.50
523.75	63121.91
523.92	63065.73
524.10	62890.19
524.27	62915.94
524.44	62812.96
524.61	62429.11
524.78	62314.42
524.96	62335.49
525.13	62232.50
525.30	62550.82
525.47	62953.39
525.64	62817.64
525.81	62232.50
525.98	61022.45
526.16	59622.81
526.33	59084.48
526.50	58829.37
526.67	58536.80
526.84	58915.96
527.01	59983.25
527.18	60444.33
527.36	61357.14
527.53	62276.97
527.70	62480.60
527.87	61946.96
528.04	61364.17
528.21	62035.90
528.38	62546.14
528.55	63243.62
528.72	63370.00
528.89	63632.14
529.07	63171.06
529.24	62548.48
529.41	62138.88
529.58	61439.06
529.75	61609.92
529.92	61930.58
530.09	62337.83
530.26	62911.26
530.43	63271.70
530.60	63316.17
530.77	63475.33
530.94	63430.86
531.11	62915.94
531.28	62644.44
531.46	62457.20
531.63	62625.71
531.80	62464.22
531.97	62113.14
532.14	61511.62
532.31	60615.19
532.48	60009.00
532.65	59955.16
532.82	60757.97
532.99	61787.80
533.16	62024.20
533.33	62604.65
533.50	62468.90
533.67	61801.85
533.84	61638.01
534.01	61750.35
534.18	61776.10
534.35	62061.64
534.52	61778.44
534.69	62164.63
534.86	62321.44
535.03	62752.10
535.20	63138.29
535.37	63290.43
535.54	63531.50
535.71	63145.31
535.88	62745.08
536.05	62363.57
536.22	62021.86
536.38	61600.56
536.55	61228.41
536.72	60748.60
536.89	60434.97
537.06	61565.45
537.23	62138.88
537.40	62237.19
537.57	62429.11
537.74	62073.35
537.91	62059.30
538.08	62106.12
538.25	62295.70
538.42	62150.59
538.59	62181.01
538.75	61499.92
538.92	61518.64
539.09	61202.67
539.26	61090.32
539.43	60708.82
539.60	60849.25
539.77	61099.68
539.94	60924.14
540.11	60339.01
540.28	59739.83
540.44	59821.75
540.61	60163.47
540.78	60278.16
540.95	60830.52
541.12	61167.56
541.29	61319.70
541.46	61577.15
541.62	61827.59
541.79	61518.64
541.96	60921.80
542.13	60919.46
542.30	61289.27
542.47	61373.53
542.63	61066.92
542.80	60853.93
542.97	61186.28
543.14	61055.21
543.31	60685.41
543.48	61551.41
543.64	62183.35
543.81	62466.56
543.98	62344.85
544.15	61623.96
544.32	61001.38
544.48	61116.07
544.65	61638.01
544.82	61881.42
544.99	61488.21
545.16	61436.72
545.32	61284.59
545.49	62052.28
545.66	62073.35
545.83	61666.09
546.00	61380.55
546.16	61188.63
546.33	61186.28
546.50	61195.65
546.67	61743.33
546.83	61256.50
547.00	61205.01
547.17	60706.47
547.34	60217.30
547.50	60065.17
547.67	60650.30
547.84	60596.47
548.00	60992.02
548.17	61343.10
548.34	61354.80
548.51	61188.63
548.67	61235.44
548.84	61212.03
549.01	61263.52
549.18	61186.28
549.34	61104.37
549.51	61109.05
549.68	60874.99
549.84	60989.68
550.01	60814.14
550.18	60622.22
550.34	60818.82
550.51	60865.63
550.68	60809.46
550.84	60320.29
551.01	60493.49
551.18	60575.40
551.34	60687.75
551.51	61066.92
551.68	61174.58
551.84	61303.31
552.01	61186.28
552.18	60992.02
552.34	60259.43
552.51	59966.87
552.68	59800.69
552.84	60275.82
553.01	60533.28
553.18	60418.59
553.34	60533.28
553.51	60811.80
553.67	60863.29
553.84	61209.69
554.01	61085.64
554.17	60835.20
554.34	60767.33
554.51	60764.99
554.67	61141.81
554.84	60947.55
555.00	60896.06
555.17	60327.31
555.33	60577.75
555.50	60540.30
555.67	60493.49
555.83	60491.15
556.00	60107.30
556.16	60168.15
556.33	59833.46
556.50	59547.91
556.66	59791.33
556.83	59367.69
556.99	59664.94
557.16	59625.15
557.32	60093.25
557.49	60247.73
557.65	59990.27
557.82	60189.22
557.98	59833.46
558.15	59592.38
558.32	59065.76
558.48	58131.89
558.65	58150.61
558.81	58614.04
558.98	58773.19
559.14	58908.94
559.31	59016.61
559.47	59044.69
559.64	58754.47
559.80	58307.43
559.97	58525.10
560.13	58866.81
560.30	59676.64
560.46	60140.07
560.63	60331.99
560.79	60512.21
560.96	59943.46
561.12	59159.38
561.29	58213.80
561.45	58438.50
561.61	58773.19
561.78	59121.93
561.94	59077.46
562.11	58955.75
562.27	59030.65
562.44	59281.09
562.60	59297.47
562.77	59576.00
562.93	59470.67
563.10	59264.70
563.26	59070.44
563.42	59042.35
563.59	58611.70
563.75	58983.84
563.92	58768.51
564.08	58578.93
564.24	58972.14
564.41	59056.40
564.57	59105.55
564.74	58707.66
564.90	58845.75
565.07	58567.23
565.23	58092.10
565.39	57736.34
565.56	57483.56
565.72	57446.11
565.88	57485.90
566.05	57888.47
566.21	57979.75
566.38	58227.85
566.54	58216.14
566.70	58429.13
566.87	58885.54
567.03	58866.81
567.19	59054.06
567.36	58815.32
567.52	58571.91
567.68	58375.30
567.85	57726.97
568.01	57373.55
568.17	56980.34
568.34	57118.43
568.50	56947.57
568.66	57183.97
568.83	57392.28
568.99	57542.07
569.15	58024.22
569.32	57876.77
569.48	57357.17
569.64	57331.42
569.81	57268.23
569.97	56931.19
570.13	57190.99
570.30	56502.87
570.46	56226.69
570.62	55749.22
570.78	55679.00
570.95	55702.41
571.11	56673.73
571.27	56739.27
571.43	56907.79
571.60	57038.86
571.76	57371.21
571.92	57705.91
572.09	57724.63
572.25	57553.77
572.41	57345.47
572.57	57607.61
572.74	57490.58
572.90	57062.26
573.06	57282.27
573.22	57158.22
573.38	57340.78
573.55	57064.60
573.71	57298.65
573.87	57333.76
574.03	57041.20
574.20	56956.94
574.36	56842.25
574.52	56671.39
574.68	56467.76
574.84	56133.07
575.01	55475.38
575.17	55480.06
575.33	55784.33
575.49	56121.37
575.65	56399.89
575.82	56058.17
575.98	55737.52
576.14	56058.17
576.30	56317.97
576.46	56348.40
576.62	56334.35
576.79	56491.17
576.95	56046.47
577.11	55781.99
577.27	56144.77
577.43	56252.44
577.59	55599.43
577.75	55433.25
577.92	54798.96
578.08	54686.62
578.24	54932.37
578.40	54901.95
578.56	55262.39
578.72	55208.56
578.88	55421.55
579.04	55454.31
579.21	55641.56
579.37	55882.63
579.53	55847.52
579.69	55632.19
579.85	55938.80
580.01	55824.12
580.17	55304.52
580.33	55489.42
580.49	55501.12
580.65	55686.03
580.82	55550.27
580.98	55611.13
581.14	55735.18
581.30	55643.90
581.46	55721.13
581.62	55763.26
581.78	55779.65
581.94	55763.26
582.10	56009.02
582.26	56072.21
582.42	55821.78
582.58	56023.06
582.74	55695.39
582.90	56074.55
583.06	55695.39
583.22	55777.31
583.38	55812.41
583.54	55774.97
583.70	55650.92
583.86	55529.21
584.02	55590.06
584.18	55487.08
584.34	55466.02
584.50	55281.11
584.66	55466.02
584.82	54677.25
584.98	54852.80
585.14	54550.87
585.30	53954.03
585.46	53434.43
585.62	53661.46
585.78	54145.95
585.94	54007.86
586.10	54274.68
586.26	54108.50
586.42	54618.74
586.58	54827.05
586.74	54660.87
586.90	54511.08
587.06	54351.92
587.22	54646.83
587.38	54450.22
587.54	54241.92
587.70	53989.14
587.86	53638.06
588.02	53305.70
588.18	52844.62
588.34	52074.58
588.49	50593.02
588.65	48355.47
588.81	48114.39
588.97	48584.84
589.13	48428.02
589.29	47845.23
589.45	48978.05
589.61	50368.33
589.77	51180.49
589.93	51936.49
590.08	52474.81
590.24	52549.71
590.40	52828.23
590.56	53031.86
590.72	52926.53
590.88	52226.71
591.04	52411.62
591.20	51875.63
591.35	52030.11
591.51	52416.30
591.67	52004.36
591.83	52261.82
591.99	52137.77
592.15	52589.50
592.31	52699.50
592.46	52456.09
592.62	52332.04
592.78	51611.15
592.94	51943.51
593.10	52437.36
593.26	52474.81
593.41	52463.11
593.57	52456.09
593.73	51950.53
593.89	51683.71
594.05	51356.03
594.20	51332.63
594.36	51107.94
594.52	50483.01
594.68	50916.01
594.84	50976.87
594.99	51264.75
595.15	51393.48
595.31	51756.27
595.47	51473.06
595.62	51634.56
595.78	51744.56
595.94	52130.75
596.10	52097.98
596.25	51784.35
596.41	51475.40
596.57	51304.54
596.73	51803.08
596.88	51749.24
597.04	51718.82
597.20	51189.86
597.36	50897.29
597.51	50901.97
597.67	51227.31
597.83	50967.51
597.99	50885.59
598.14	50768.56
598.30	50543.87
598.46	50679.62
598.61	50588.34
598.77	50525.14
598.93	50932.40
599.09	51154.75
599.24	51461.36
599.40	51260.07
599.56	51040.06
599.71	51103.26
599.87	51011.98
600.03	50773.24
600.18	50377.69
600.34	50167.04
600.50	49799.58
600.65	49844.05
600.81	50422.16
600.97	49825.32
601.12	50169.38
601.28	49911.92
601.44	50279.39
601.59	49755.11
601.75	49155.93
601.91	49319.77
602.06	49069.33
602.22	49385.30
602.37	49932.99
602.53	49619.36
602.69	49977.46
602.84	50447.91
603.00	50171.72
603.16	50848.14
603.31	50691.32
603.47	50665.58
603.62	50248.96
603.78	50447.91
603.94	49958.73
604.09	50316.84
604.25	49956.39
604.40	49968.10
604.56	50042.99
604.71	50253.64
604.87	49766.81
605.03	49610.00
605.18	49638.08
605.34	49411.05
605.49	49193.38
605.65	49647.44
605.80	49560.84
605.96	49226.15
606.12	48947.62
606.27	49193.38
606.43	49003.80
606.58	49471.90
606.74	49490.63
606.89	49359.56
607.05	49661.49
607.20	49226.15
607.36	48896.13
607.51	48322.70
607.67	48502.92
607.82	48432.71
607.98	48430.36
608.13	47938.85
608.29	48128.44
608.44	47873.32
608.60	47550.32
608.75	48133.12
608.91	47344.36
609.06	47655.65
609.22	48107.37
609.37	47416.91
609.53	48196.31
609.68	47873.32
609.84	47012.00
609.99	46415.16
610.15	46560.28
610.30	46878.59
610.46	47145.41
610.61	47360.74
610.76	47686.07
610.92	47913.11
611.07	48409.30
611.23	48175.25
611.38	47964.60
611.54	47454.36
611.69	46440.91
611.84	46031.32
612.00	45975.14
612.15	46265.37
612.31	46567.30
612.46	46103.87
612.62	46642.20
612.77	46267.71
612.92	47037.75
613.08	46349.63
613.23	45296.39
613.39	44559.12
613.54	44381.24
613.69	45027.23
613.85	44797.85
614.00	45151.27
614.15	45148.93
614.31	45429.80
614.46	45902.59
614.62	45581.93
614.77	45598.32
614.92	45455.54
615.08	45284.68
615.23	45181.70
615.38	45090.42
615.54	44296.98
615.69	43512.90
615.84	42541.58
616.00	42445.62
616.15	42946.49
616.30	43077.56
616.46	43342.04
616.61	42834.14
616.76	43306.93
616.92	43309.27
617.07	44025.48
617.22	44086.33
617.37	44069.95
617.53	44481.88
617.68	44301.66
617.83	44830.62
617.99	44978.07
618.14	44568.48
618.29	44924.24
618.45	44196.34
618.60	43533.96
618.75	43271.82
618.90	42782.65
619.06	43435.66
619.21	43711.84
619.36	44156.55
619.51	43894.41
619.67	43512.90
619.82	43487.15
619.97	44165.91
620.12	43538.65
620.28	43381.83
620.43	43894.41
620.58	44285.28
620.73	43772.70
620.89	43250.76
621.04	43468.43
621.19	42579.03
621.34	42630.52
621.49	41790.27
621.65	42368.38
621.80	42459.66
621.95	42326.25
622.10	42148.37
622.25	42115.60
622.41	42237.31
622.56	41493.02
622.71	41563.23
622.86	40781.49
623.01	41610.04
623.16	41525.78
623.32	41172.36
623.47	41502.38
623.62	41457.91
623.77	40760.43
623.92	40821.28
624.07	39983.37
624.23	39915.50
624.38	39962.31
624.53	40240.83
624.68	40229.13
624.83	39859.32
624.98	39754.00
625.13	39409.94
625.29	39283.55
625.44	39445.05
625.59	39426.32
625.74	39782.09
625.89	39789.11
626.04	40062.95
626.19	39793.79
626.34	40025.50
626.49	39761.02
626.65	39969.33
626.80	39838.26
626.95	39587.82
627.10	39641.65
627.25	38653.95
627.40	37134.94
627.55	36957.06
627.70	36723.01
627.85	36837.69
628.00	37228.56
628.15	38148.39
628.30	37998.60
628.45	38305.21
628.60	38307.55
628.76	38127.33
628.91	37993.92
629.06	37715.39
629.21	38059.45
629.36	37584.32
629.51	37256.65
629.66	36517.04
629.81	36570.87
629.96	36540.44
630.11	37237.92
630.26	37429.85
630.41	37687.31
630.56	37413.46
630.71	37649.86
630.86	37453.25
631.01	37109.19
631.16	36903.23
631.31	36041.91
631.46	35634.66
631.61	36020.84
631.76	36383.63
631.91	36423.42
632.06	37249.63
632.21	37481.34
632.36	37675.60
632.51	37390.06
632.66	37521.13
632.81	36975.78
632.96	37022.59
633.10	36180.00
633.25	36465.55
633.40	35882.75
633.55	36290.01
633.70	36353.20
633.85	36371.92
634.00	36535.76
634.15	36245.54
634.30	36364.90
634.45	36233.83
634.60	36222.13
634.75	36180.00
634.90	36236.17
635.05	36437.46
635.19	36364.90
635.34	36177.66
635.49	36046.59
635.64	35477.84
635.79	35625.29
635.94	35264.85
636.09	35768.07
636.24	35414.65
636.39	35386.56
636.53	35920.20
636.68	35817.22
636.83	35550.40
636.98	36311.07
637.13	36112.13
637.28	36165.96
637.43	36905.57
637.57	36273.62
637.72	35522.31
637.87	35622.95
638.02	35440.39
638.17	35461.46
638.32	35505.93
638.46	35442.73
638.61	35655.72
638.76	34934.84
638.91	34911.43
639.06	34820.15
639.20	34700.78
639.35	34939.52
639.50	34174.16
639.65	34050.11
639.80	33949.47
639.94	34064.16
640.09	34466.73
640.24	34340.34
640.39	33989.26
640.54	33680.31
640.68	33464.98
640.83	34125.01
640.98	33495.41
641.13	33352.63
641.27	33504.77
641.42	33097.52
641.57	33418.17
641.72	33652.22
641.86	33329.23
642.01	33284.76
642.16	33427.53
642.31	33790.31
642.45	34239.70
642.60	33586.69
642.75	33823.08
642.90	33317.53
643.04	33069.43
643.19	33209.86
643.34	32964.10
643.48	32964.10
643.63	32818.99
643.78	32849.42
643.93	33219.22
644.07	33591.37
644.22	33450.94
644.37	33282.42
644.51	33144.33
644.66	32788.56
644.81	32224.50
644.95	32357.91
645.10	32280.67
645.25	32224.50
645.39	32212.79
645.54	31798.52
645.69	31707.24
645.83	31285.94
645.98	30993.37
646.13	31278.92
646.27	31175.94
646.42	31503.61
646.57	30967.63
646.71	31246.15
646.86	31164.23
647.00	30824.86
647.15	30661.02
647.30	30738.26
647.44	30352.07
647.59	30565.06
647.74	30752.30
647.88	30579.10
648.03	30579.10
648.17	30426.96
648.32	30246.74
648.47	31110.40
648.61	30946.56
648.76	30642.29
648.90	29612.46
649.05	28814.34
649.20	28343.89
649.34	28341.55
649.49	28367.29
649.63	29085.84
649.78	29816.08
649.92	30036.09
650.07	30473.78
650.21	30129.72
650.36	30654.00
650.51	30309.94
650.65	30654.00
650.80	30787.41
650.94	30050.14
651.09	30089.93
651.23	29001.58
651.38	28776.89
651.52	28875.19
651.67	29273.08
651.81	29631.18
651.96	29560.97
652.10	29696.72
652.25	29694.38
652.39	29972.90
652.54	29900.34
652.68	29809.06
652.83	29167.76
652.97	29572.67
653.12	29401.81
653.26	29549.26
653.41	29500.11
653.55	29364.36
653.70	29677.99
653.84	29582.03
653.99	29022.64
654.13	28444.53
654.27	28126.22
654.42	28144.94
654.56	27679.18
654.71	28184.73
654.85	27948.34
655.00	27733.01
655.14	27587.89
655.29	26611.89
655.43	26431.67
655.57	25450.99
655.72	23557.49
655.86	21813.79
656.01	20821.41
656.15	21060.14
656.30	22466.80
656.44	23711.97
656.58	24563.92
656.73	25589.08
656.87	25823.13
657.01	25923.77
657.16	26546.36
657.30	27063.61
657.45	27484.91
657.59	27779.82
657.73	27882.80
657.88	27594.92
658.02	27704.92
658.16	27524.70
658.31	27433.42
658.45	27737.69
658.60	27639.39
658.74	27208.73
658.88	26560.40
659.03	26717.22
659.17	26583.80
659.31	26951.27
659.46	26991.06
659.60	27292.99
659.74	26981.70
659.89	27140.85
660.03	27447.46
660.17	27428.74
660.32	27166.60
660.46	27248.52
660.60	26394.22
660.74	26293.58
660.89	26785.09
661.03	26707.85
661.17	26981.70
661.32	26859.99
661.46	26888.07
661.60	26813.18
661.74	26841.26
661.89	27227.45
662.03	27061.27
662.17	26817.86
662.31	26600.19
662.46	26845.94
662.60	26176.55
662.74	26361.45
662.88	26120.38
663.03	25729.51
663.17	25560.99
663.31	25476.73
663.45	25823.13
663.60	25631.21
663.74	25778.66
663.88	25577.37
664.02	25385.45
664.17	25584.40
664.31	25572.69
664.45	25823.13
664.59	25413.54
664.73	25392.47
664.88	25755.26
665.02	25575.03
665.16	25422.90
665.30	25523.54
665.44	25497.80
665.59	25092.88
665.73	25352.68
665.87	24828.40
666.01	24453.92
666.15	24423.49
666.29	24676.27
666.44	24524.13
666.58	24151.99
666.72	24517.11
666.86	24769.89
667.00	24402.43
667.14	24601.37
667.28	24355.61
667.43	23709.63
667.57	24074.75
667.71	24088.79
667.85	23880.49
667.99	23929.64
668.13	23992.83
668.27	23747.08
668.41	24170.71
668.56	23695.58
668.70	24205.82
668.84	23721.33
668.98	24229.23
669.12	23922.62
669.26	23676.86
669.40	23718.99
669.54	23496.64
669.68	23440.47
669.82	23475.57
669.96	23374.93
670.10	23300.03
670.25	23274.29
670.39	22771.07
670.53	22632.98
670.67	22661.07
670.81	22885.76
670.95	22733.62
671.09	22478.50
671.23	22366.16
671.37	22272.54
671.51	22134.45
671.65	22515.95
671.79	22328.71
671.93	22253.81
672.07	22380.20
672.21	22258.49
672.35	22244.45
672.49	22010.40
672.63	22326.37
672.77	21614.85
672.91	21848.90
673.05	21813.79
673.19	21982.31
673.33	21912.10
673.47	21596.12
673.61	21448.67
673.75	21467.39
673.89	21319.94
674.03	21708.47
674.17	21631.23
674.31	21373.77
674.45	21544.63
674.59	20994.61
674.73	21139.72
674.87	20931.41
675.01	20917.37
675.15	20893.96
675.29	20781.62
675.43	20917.37
675.56	21032.05
675.70	21018.01
675.84	20924.39
675.98	20243.29
676.12	20706.72
676.26	20519.48
676.40	20774.60
676.54	20051.37
676.68	20264.36
676.82	19983.49
676.96	20091.16
677.10	19679.22
677.23	20189.46
677.37	19894.55
677.51	20056.05
677.65	20070.09
677.79	19566.88
677.93	19384.32
678.07	19646.46
678.21	19096.43
678.34	19510.71
678.48	19218.14
678.62	19173.67
678.76	19180.69
678.90	18918.55
679.04	19066.00
679.18	18862.38
679.31	18780.46
679.45	18757.05
679.59	18855.36
679.73	18511.30
679.87	18473.85
680.00	18443.42
680.14	18410.65
680.28	18094.68
680.42	18045.53
680.56	18106.38
680.70	17895.74
680.83	17713.17
680.97	17853.61
681.11	17972.97
681.25	17837.22
681.39	18010.42
681.52	17865.31
681.66	17937.87
681.80	17549.34
681.94	17525.93
682.07	17692.11
682.21	17699.13
682.35	17387.84
682.49	17216.98
682.62	17207.62
682.76	17106.98
682.90	17018.04
683.04	17088.25
683.17	16945.48
683.31	16753.55
683.45	16861.22
683.59	16453.97
683.72	16563.97
683.86	16187.14
684.00	15969.48
684.13	16049.05
684.27	16269.06
684.41	16156.72
684.55	16046.71
684.68	16201.19
684.82	16044.37
684.96	15840.75
685.09	15407.75
685.23	15606.69
685.37	15721.38
685.50	15646.48
685.64	15466.26
685.78	15290.72
685.91	15349.23
686.05	15056.67
686.19	14972.41
686.32	14188.33
686.46	12603.78
686.60	11201.80
686.73	10230.48
686.87	9554.07
687.01	9231.07
687.14	9696.84
687.28	9956.64
687.42	10298.36
687.55	10899.87
687.69	11674.59
687.82	11995.25
687.96	12334.62
688.10	12491.44
688.23	12287.81
688.37	12236.32
688.50	11985.88
688.64	11756.51
688.78	11721.40
688.91	11737.79
689.05	11438.20
689.18	11400.75
689.32	11140.95
689.46	11463.94
689.59	11323.51
689.73	11824.39
689.86	11569.27
690.00	11683.95
690.13	11822.05
690.27	11845.45
690.41	11892.26
690.54	11845.45
690.68	11800.98
690.81	11920.35
690.95	11887.58
691.08	11822.05
691.22	11681.61
691.35	11985.88
691.49	11939.07
691.62	11873.54
691.76	12138.02
691.89	12084.19
692.03	11587.99
692.16	11513.10
692.30	11793.96
692.43	11665.23
692.57	11564.59
692.70	11220.53
692.84	11302.45
692.97	10916.26
693.11	11187.76
693.24	10944.34
693.38	11101.16
693.51	11185.42
693.65	11101.16
693.78	10649.44
693.92	10668.16
694.05	10595.61
694.19	10881.15
694.32	10792.21
694.45	10775.83
694.59	10710.29
694.72	10546.45
694.86	10714.97
694.99	10567.52
695.13	10494.96
695.26	10707.95
695.39	10132.18
695.53	10040.90
695.66	10415.38
695.80	10317.08
695.93	10406.02
696.07	10354.53
696.20	10590.92
696.33	10628.37
696.47	10576.88
696.60	10633.05
696.73	10759.44
696.87	10832.00
697.00	10810.93
697.14	10656.46
697.27	10408.36
697.40	10012.81
697.54	10033.88
697.67	9832.59
697.80	9806.84
697.94	9710.88
698.07	9687.48
698.21	9650.03
698.34	9504.92
698.47	9554.07
698.61	9460.45
698.74	9305.97
698.87	9310.65
699.01	9247.46
699.14	9289.59
699.27	9406.61
699.40	9357.46
699.54	9179.58
699.67	9151.49
699.80	8879.99
699.94	9069.58
700.07	8784.03
700.20	8648.28
700.34	8603.81
700.47	8718.50
700.60	8622.53
700.73	8500.83
700.87	8620.19
701.00	8409.54
701.13	8610.83
701.26	8367.42
701.40	8423.59
701.53	8297.20
701.66	8222.30
701.79	8400.18
701.93	8322.94
702.06	8208.26
702.19	8234.00
702.32	8121.66
702.46	8081.87
702.59	8112.30
702.72	7992.93
702.85	7995.27
702.99	8217.62
703.12	8156.77
703.25	7983.57
703.38	8079.53
703.51	7791.64
703.65	7875.90
703.78	7826.75
703.91	7843.14
704.04	7911.01
704.17	7918.03
704.31	7861.86
704.44	7992.93
704.57	7688.66
704.70	7847.82
704.83	7779.94
704.96	7651.21
705.10	7508.44
705.23	7527.16
>>>>>End Processed Spectral Data<<<<<
