SpectraSuite Data File
++++++++++++++++++++++++++++++++++++
Date: Mon Oct 07 14:53:20 GMT-05:00 2013
User: price-jones
Dark Spectrum Present: No
Reference Spectrum Present: No
Number of Sampled Component Spectra: 1
Spectrometers: USB2+H05261
Integration Time (usec): 100000 (USB2+H05261)
Spectra Averaged: 1 (USB2+H05261)
Boxcar Smoothing: 0 (USB2+H05261)
Correct for Electrical Dark: No (USB2+H05261)
Strobe/Lamp Enabled: No (USB2+H05261)
Correct for Detector Non-linearity: No (USB2+H05261)
Correct for Stray Light: No (USB2+H05261)
Number of Pixels in Processed Spectrum: 2048
>>>>>Begin Processed Spectral Data<<<<<
365.73	0.00
365.92	0.00
366.12	0.00
366.32	0.00
366.52	0.00
366.72	0.00
366.91	0.00
367.11	0.00
367.31	0.00
367.51	0.00
367.70	0.00
367.90	0.00
368.10	0.00
368.30	0.00
368.49	0.00
368.69	0.00
368.89	0.00
369.09	0.00
369.28	0.00
369.48	0.00
369.68	0.00
369.87	0.00
370.07	0.00
370.27	0.00
370.47	847.27
370.66	3880.61
370.86	4503.19
371.06	4901.08
371.25	5053.22
371.45	4557.02
371.65	4093.60
371.84	3765.92
372.04	4007.00
372.24	4430.63
372.44	4526.60
372.63	4582.77
372.83	4276.16
373.03	3747.20
373.22	3506.12
373.42	3679.32
373.62	4231.69
373.81	4725.54
374.01	4608.51
374.21	4135.73
374.40	3826.78
374.60	4032.74
374.79	4477.44
374.99	5156.20
375.19	5514.30
375.38	5502.60
375.58	5277.91
375.78	5238.12
375.97	5235.78
376.17	5298.97
376.37	5521.32
376.56	5724.95
376.76	5891.13
376.95	6303.06
377.15	6691.59
377.35	6881.18
377.54	7068.42
377.74	7302.47
377.93	7428.86
378.13	7138.63
378.33	6913.94
378.52	6333.49
378.72	6083.05
378.91	6038.58
379.11	5830.27
379.31	5633.67
379.50	5530.69
379.70	6090.07
379.89	6548.82
380.09	6956.07
380.28	7220.55
380.48	7239.28
380.68	7119.91
380.87	6984.16
381.07	6537.12
381.26	5954.32
381.46	5687.50
381.65	5509.62
381.85	5228.76
382.04	4947.89
382.24	4713.84
382.43	4500.85
382.63	4524.26
382.83	4505.53
383.02	4421.27
383.22	4442.34
383.41	4505.53
383.61	4786.40
383.80	5336.42
384.00	6277.32
384.19	6904.58
384.39	7077.78
384.58	7234.60
384.78	7030.97
384.97	7115.23
385.17	6565.20
385.36	6345.19
385.56	6115.82
385.75	6195.40
385.95	6902.24
386.14	7426.52
386.34	7323.54
386.53	7068.42
386.72	6689.25
386.92	6656.48
387.11	7183.10
387.31	7428.86
387.50	7346.94
387.70	7052.03
387.89	6923.30
388.09	6906.92
388.28	7155.02
388.48	7304.81
388.67	7728.45
388.86	8446.99
389.06	9085.96
389.25	9153.84
389.45	9776.42
389.64	9624.28
389.84	9455.76
390.03	9245.12
390.22	9287.25
390.42	9877.06
390.61	10171.97
390.81	10913.92
391.00	11190.10
391.19	11169.04
391.39	10668.16
391.58	9994.09
391.78	9626.62
391.97	9048.51
392.16	8629.56
392.36	7730.79
392.55	6181.35
392.75	5156.20
392.94	4227.01
393.13	3999.98
393.33	4863.63
393.52	6073.69
393.71	7665.25
393.91	8301.88
394.10	9067.24
394.29	10150.90
394.49	10789.87
394.68	11592.67
394.88	11421.81
395.07	12063.12
395.26	11950.78
395.46	11618.42
395.65	10995.84
395.84	9598.54
396.04	8044.42
396.23	6637.76
396.42	5657.07
396.62	5364.51
396.81	6235.19
397.00	8011.65
397.19	10071.33
397.39	11850.13
397.58	13284.88
397.77	14104.07
397.97	14558.13
398.16	14679.84
398.35	15403.07
398.55	15655.84
398.74	16182.46
398.93	16800.37
399.12	16128.63
399.32	15747.12
399.51	16332.26
399.70	17310.60
399.90	16971.22
400.09	17458.06
400.28	16657.59
400.47	16837.81
400.67	18038.51
400.86	18162.56
401.05	18207.03
401.24	18389.59
401.44	18735.99
401.63	18867.06
401.82	18672.79
402.01	18944.30
402.21	18979.40
402.40	19257.93
402.59	18420.02
402.78	18064.25
402.97	17167.83
403.17	18036.17
403.36	18897.49
403.55	19894.55
403.74	20159.03
403.93	18717.26
404.13	17722.54
404.32	17008.67
404.51	18001.06
404.70	19742.42
404.89	19468.58
405.09	19122.18
405.28	18696.20
405.47	18368.52
405.66	18295.97
405.85	18045.53
406.05	17649.98
406.24	17713.17
406.43	18499.59
406.62	19005.15
406.81	19536.45
407.00	18640.03
407.20	18258.52
407.39	18324.05
407.58	19215.80
407.77	20189.46
407.96	20734.81
408.15	20910.35
408.34	21071.84
408.54	21956.57
408.73	22202.32
408.92	21722.51
409.11	20879.92
409.30	19939.02
409.49	19033.24
409.68	17631.26
409.87	17027.40
410.07	18263.20
410.26	19751.78
410.45	20926.73
410.64	21338.66
410.83	22293.60
411.02	22742.99
411.21	23421.74
411.40	23204.07
411.59	23234.50
411.78	23068.32
411.98	22899.80
412.17	23388.97
412.36	22705.54
412.55	22611.92
412.74	22085.30
412.93	21809.11
413.12	22242.11
413.31	24149.65
413.50	24168.37
413.69	24978.20
413.88	23889.85
414.07	22754.69
414.26	23515.36
414.45	24194.12
414.64	24386.04
414.83	24393.06
415.02	24034.96
415.22	23960.06
415.41	24603.71
415.60	25401.83
415.79	26438.69
415.98	26705.51
416.17	26904.46
416.36	26347.41
416.55	25766.96
416.74	25369.07
416.93	23733.03
417.12	24067.73
417.31	24332.21
417.50	24709.04
417.69	25724.83
417.88	25844.20
418.07	25165.44
418.26	25081.18
418.45	25343.32
418.64	25916.75
418.83	27105.74
419.02	26871.69
419.21	26078.25
419.39	25118.63
419.58	24144.97
419.77	24149.65
419.96	25483.75
420.15	26834.24
420.34	27374.91
420.53	28233.88
420.72	28919.66
420.91	28549.85
421.10	28311.12
421.29	27718.96
421.48	27131.49
421.67	28397.72
421.86	27597.26
422.05	25724.83
422.24	23073.00
422.43	22661.07
422.61	25179.48
422.80	27470.87
422.99	27337.46
423.18	26195.28
423.37	25769.30
423.56	25785.68
423.75	26361.45
423.94	27150.21
424.13	25654.61
424.32	26047.82
424.50	25830.15
424.69	25523.54
424.88	25727.17
425.07	25502.48
425.26	25486.09
425.45	25362.04
425.64	24655.20
425.83	24542.86
426.01	26319.32
426.20	26897.44
426.39	27094.04
426.58	24575.62
426.77	23154.92
426.96	21841.88
427.15	22654.05
427.33	24802.66
427.52	25797.38
427.71	25848.88
427.90	25820.79
428.09	25207.57
428.28	24795.64
428.46	24151.99
428.65	23681.54
428.84	24306.46
429.03	24554.56
429.22	23529.41
429.40	21750.60
429.59	19889.87
429.78	17642.96
429.97	17771.69
430.16	18057.23
430.34	18225.75
430.53	17935.53
430.72	18492.57
430.91	20556.93
431.10	24299.44
431.28	28166.01
431.47	30625.91
431.66	30642.29
431.85	28009.19
432.03	25668.66
432.22	24896.28
432.41	25755.26
432.60	28645.82
432.79	29549.26
432.97	30801.45
433.16	29411.17
433.35	27395.97
433.54	24173.05
433.72	22717.24
433.91	23882.83
434.10	26485.50
434.28	28250.27
434.47	29633.52
434.66	29481.39
434.85	28341.55
435.03	28318.14
435.22	29472.03
435.41	30843.58
435.59	30794.43
435.78	31194.66
435.97	32259.60
436.16	32451.53
436.34	31992.78
436.53	31229.77
436.72	31091.68
436.90	29748.21
437.09	29514.16
437.28	29188.82
437.46	30171.85
437.65	29954.18
437.84	27852.38
438.02	25675.68
438.21	25535.24
438.40	26771.05
438.58	29448.62
438.77	29991.62
438.96	30188.23
439.14	31791.50
439.33	32238.54
439.52	32582.60
439.70	32060.66
439.89	31421.69
440.08	30569.74
440.26	30047.80
440.45	31550.42
440.63	34141.39
440.82	35473.16
441.01	34703.12
441.19	34178.84
441.38	34948.88
441.57	36238.51
441.75	37008.55
441.94	36896.20
442.12	36542.78
442.31	37244.94
442.50	36811.95
442.68	37064.72
442.87	36278.30
443.05	35672.10
443.24	36290.01
443.43	36994.51
443.61	38113.28
443.80	38136.69
443.98	36093.40
444.17	35852.33
444.35	38284.14
444.54	38312.23
444.73	38066.47
444.91	36584.91
445.10	35412.31
445.28	34012.66
445.47	33497.75
445.65	33373.70
445.84	34670.36
446.02	36034.89
446.21	36119.15
446.39	35847.64
446.58	36573.21
446.77	37507.08
446.95	37666.24
447.14	39084.61
447.32	38885.66
447.51	38714.80
447.69	37137.28
447.88	36535.76
448.06	36868.12
448.25	38085.20
448.43	38356.70
448.62	37371.33
448.80	37392.40
448.99	37242.60
449.17	37902.64
449.36	37989.24
449.54	39274.19
449.73	39683.78
449.91	40320.41
450.10	41579.62
450.28	42075.81
450.46	41801.97
450.65	41989.21
450.83	41453.23
451.02	40549.78
451.20	40353.18
451.39	40364.88
451.57	39751.66
451.76	40442.12
451.94	39723.57
452.13	39098.65
452.31	37186.43
452.49	35683.81
452.68	36217.45
452.86	36320.43
453.05	36734.71
453.23	37804.33
453.42	38574.37
453.60	39592.50
453.78	39737.62
453.97	39072.90
454.15	39641.65
454.34	38576.71
454.52	39164.18
454.70	38092.22
454.89	38993.32
455.07	38761.61
455.26	39215.68
455.44	40727.66
455.62	41127.89
455.81	41483.66
455.99	41060.02
456.17	41020.23
456.36	40933.63
456.54	41858.14
456.73	41673.24
456.91	42447.96
457.09	42728.82
457.28	42829.46
457.46	42178.79
457.64	41654.51
457.83	40596.59
458.01	39552.71
458.19	40715.96
458.38	40837.67
458.56	41830.05
458.74	42007.94
458.93	41694.30
459.11	40844.69
459.29	40849.37
459.48	41212.15
459.66	40985.12
459.84	41450.89
460.03	41874.52
460.21	41933.04
460.39	42967.55
460.57	43021.39
460.76	43281.19
460.94	43208.63
461.12	42375.40
461.31	43033.09
461.49	43058.84
461.67	42649.24
461.85	44198.68
462.04	44147.18
462.22	44191.65
462.40	43999.73
462.59	43566.73
462.77	44032.50
462.95	43704.82
463.13	43426.30
463.32	43072.88
463.50	42728.82
463.68	42632.86
463.86	43117.35
464.05	42335.61
464.23	41605.36
464.41	41020.23
464.59	40505.31
464.78	42466.68
464.96	42490.09
465.14	42206.88
465.32	42761.59
465.50	43999.73
465.69	43856.96
465.87	43615.88
466.05	42457.32
466.23	40893.84
466.41	39529.31
466.60	41083.42
466.78	40755.75
466.96	41507.06
467.14	42335.61
467.32	43346.72
467.51	42752.23
467.69	41338.54
467.87	41516.42
468.05	42623.50
468.23	42944.15
468.41	42567.32
468.60	43047.13
468.78	43122.03
468.96	42651.58
469.14	43239.06
469.32	43646.31
469.50	41881.55
469.69	41612.38
469.87	41383.01
470.05	41298.75
470.23	41401.74
470.41	41624.09
470.59	42333.27
470.77	42277.10
470.95	43363.11
471.14	43597.16
471.32	43297.57
471.50	45691.94
471.68	45757.47
471.86	46057.06
472.04	46206.86
472.22	46637.51
472.40	44563.80
472.58	43679.08
472.77	43690.78
472.95	44680.83
473.13	45460.23
473.31	44423.37
473.49	44732.32
473.67	45179.36
473.85	46122.60
474.03	46567.30
474.21	46677.30
474.39	47288.18
474.57	47089.24
474.75	47049.45
474.93	47210.95
475.12	45942.38
475.30	46110.89
475.48	46340.27
475.66	47143.07
475.84	46583.68
476.02	46108.55
476.20	45544.48
476.38	46440.91
476.56	47304.57
476.74	47775.02
476.92	48264.19
477.10	48643.35
477.28	49797.24
477.46	49631.06
477.64	50089.80
477.82	49940.01
478.00	50323.86
478.18	49958.73
478.36	49787.88
478.54	49902.56
478.72	49883.84
478.90	50391.73
479.08	51643.92
479.26	52109.69
479.44	52093.30
479.62	51798.40
479.80	51634.56
479.98	52020.75
480.16	52210.33
480.34	51594.77
480.52	52247.78
480.70	52175.22
480.88	52514.60
481.06	52921.85
481.24	53298.68
481.41	53909.56
481.59	54600.02
481.77	54204.47
481.95	53822.96
482.13	53427.41
482.31	53616.99
482.49	54398.73
482.67	54131.91
482.85	54286.39
483.03	54485.33
483.21	55098.55
483.39	54920.67
483.57	54241.92
483.74	54279.36
483.92	54480.65
484.10	54478.31
484.28	55285.79
484.46	55508.14
484.64	55817.10
484.82	54883.22
485.00	54906.63
485.18	54398.73
485.35	53286.98
485.53	50401.10
485.71	47107.96
485.89	46899.65
486.07	48933.58
486.25	51730.52
486.43	53584.22
486.61	53951.69
486.78	53914.24
486.96	54019.56
487.14	55554.96
487.32	55990.30
487.50	56821.19
487.68	57350.15
487.85	57752.72
488.03	57755.06
488.21	57535.05
488.39	57031.83
488.57	56505.21
488.75	56126.05
488.92	56905.44
489.10	58614.04
489.28	59760.90
489.46	60147.09
489.64	59927.08
489.81	60182.19
489.99	59936.44
490.17	59880.27
490.35	60205.60
490.53	59690.68
490.70	59695.36
490.88	59489.40
491.06	60303.90
491.24	60053.47
491.41	59288.11
491.59	57900.17
491.77	57731.65
491.95	58691.27
492.13	59423.86
492.30	60392.84
492.48	60851.59
492.66	61244.80
492.84	61326.72
493.01	61209.69
493.19	60816.48
493.37	60664.35
493.54	60198.58
493.72	60739.24
493.90	61932.92
494.08	62169.31
494.25	62361.23
494.43	62684.23
494.61	62932.32
494.79	62915.94
494.96	62855.09
495.14	62251.23
495.32	61427.36
495.49	61132.45
495.67	62042.92
495.85	63004.88
496.02	63374.69
496.20	63252.98
496.38	62922.96
496.55	62749.76
496.73	63032.97
496.91	63260.00
497.09	63777.26
497.26	63835.77
497.44	63451.92
497.62	62901.90
497.79	62347.19
497.97	61310.33
498.14	61427.36
498.32	62386.98
498.50	63325.53
498.67	63664.91
498.85	63515.12
499.03	63737.47
499.20	63959.82
499.38	63913.01
499.56	63828.75
499.73	63337.24
499.91	63004.88
500.08	62677.21
500.26	62035.90
500.44	62440.81
500.61	62981.48
500.79	62848.06
500.97	62408.04
501.14	62403.36
501.32	62183.35
501.49	62230.16
501.67	62382.30
501.84	63030.63
502.02	63131.27
502.20	63318.51
502.37	63510.44
502.55	63641.51
502.72	64081.53
502.90	64526.23
503.07	64144.72
503.25	64001.95
503.43	62986.16
503.60	62527.41
503.78	62012.49
503.95	62356.55
504.13	63709.38
504.30	64439.63
504.48	64140.04
504.65	63821.73
504.83	63931.73
505.01	64273.45
505.18	64465.38
505.36	65277.54
505.53	65197.96
505.71	65373.50
505.88	65535.00
506.06	64961.57
506.23	64568.36
506.41	64315.58
506.58	64610.49
506.76	64568.36
506.93	64446.65
507.11	64310.90
507.28	64093.23
507.46	64044.08
507.63	63515.12
507.81	63477.67
507.98	63494.05
508.16	64231.32
508.33	64669.00
508.50	64940.50
508.68	65216.69
508.85	65535.00
509.03	65462.44
509.20	65471.81
509.38	64886.67
509.55	64044.08
509.73	64254.73
509.90	64673.68
510.08	65083.28
510.25	64877.31
510.42	64619.85
510.60	64617.51
510.77	64973.27
510.95	65460.10
511.12	65492.87
511.30	65535.00
511.47	65535.00
511.64	65535.00
511.82	65535.00
511.99	64804.75
512.17	64608.15
512.34	64179.83
512.51	64399.84
512.69	64537.93
512.86	64458.35
513.04	65003.70
513.21	65052.85
513.38	64554.32
513.56	64364.73
513.73	63611.08
513.90	63948.12
514.08	64086.21
514.25	64217.28
514.43	64460.69
514.60	64477.08
514.77	64748.58
514.95	64736.88
515.12	64640.92
515.29	64856.24
515.47	65106.68
515.64	65469.46
515.81	65174.56
515.99	64427.93
516.16	63440.22
516.33	61572.47
516.51	60341.35
516.68	59681.32
516.85	59398.12
517.03	59613.44
517.20	62014.83
517.37	63856.84
517.54	64680.70
517.72	64369.41
517.89	62216.12
518.06	60264.11
518.24	60423.27
518.41	62480.60
518.58	63470.65
518.75	63737.47
518.93	63908.33
519.10	63765.56
519.27	64212.60
519.45	64448.99
519.62	64959.23
519.79	65417.97
519.96	65137.11
520.14	64762.62
520.31	63894.28
520.48	64023.01
520.65	64193.87
520.83	65200.30
521.00	65432.02
521.17	65230.73
521.34	64858.59
521.52	65134.77
521.69	65439.04
521.86	65535.00
522.03	65499.89
522.20	64577.72
522.38	63678.96
522.55	63824.07
522.72	64062.80
522.89	64217.28
523.07	64441.97
523.24	64933.48
523.41	65469.46
523.58	65535.00
523.75	65535.00
523.92	65535.00
524.10	65535.00
524.27	65535.00
524.44	65535.00
524.61	65535.00
524.78	65535.00
524.96	65460.10
525.13	65511.59
525.30	65535.00
525.47	65535.00
525.64	65535.00
525.81	65279.88
525.98	64053.44
526.16	62731.04
526.33	62363.57
526.50	62082.71
526.67	61970.36
526.84	62267.61
527.01	63161.70
527.18	63901.31
527.36	64594.10
527.53	65427.34
527.70	65535.00
527.87	65111.36
528.04	64699.43
528.21	65219.03
528.38	65535.00
528.55	65535.00
528.72	65535.00
528.89	65535.00
529.07	65535.00
529.24	65535.00
529.41	65165.20
529.58	64633.89
529.75	64680.70
529.92	65286.90
530.09	65469.46
530.26	65535.00
530.43	65535.00
530.60	65535.00
530.77	65535.00
530.94	65535.00
531.11	65535.00
531.28	65535.00
531.46	65535.00
531.63	65535.00
531.80	65535.00
531.97	65291.58
532.14	64514.53
532.31	63718.74
532.48	63091.48
532.65	63299.79
532.82	63908.33
532.99	64926.46
533.16	65298.61
533.33	65535.00
533.50	65530.32
533.67	65083.28
533.84	64514.53
534.01	64858.59
534.18	65050.51
534.35	65083.28
534.52	64764.96
534.69	65139.45
534.86	65535.00
535.03	65535.00
535.20	65535.00
535.37	65535.00
535.54	65535.00
535.71	65535.00
535.88	65535.00
536.05	65284.56
536.22	64942.84
536.38	64704.11
536.55	64413.88
536.72	63943.44
536.89	63964.50
537.06	64851.56
537.23	65300.95
537.40	65497.55
537.57	65530.32
537.74	65326.69
537.91	65310.31
538.08	65233.07
538.25	65141.79
538.42	65450.74
538.59	64982.63
538.75	64757.94
538.92	64474.74
539.09	64324.94
539.26	64165.79
539.43	64030.04
539.60	64163.45
539.77	64233.66
539.94	64076.85
540.11	63501.07
540.28	63117.23
540.44	63164.04
540.61	63360.64
540.78	63613.42
540.95	63983.22
541.12	64315.58
541.29	64432.61
541.46	64781.35
541.62	65015.40
541.79	64647.94
541.96	64116.64
542.13	64135.36
542.30	64456.01
542.47	64451.33
542.63	64353.03
542.80	64097.91
542.97	64362.39
543.14	64001.95
543.31	64156.42
543.48	64568.36
543.64	65474.15
543.81	65535.00
543.98	65359.46
544.15	64905.40
544.32	64207.92
544.48	64069.82
544.65	64734.54
544.82	65045.83
544.99	64755.60
545.16	64530.91
545.32	64299.20
545.49	65176.90
545.66	65195.62
545.83	64839.86
546.00	64540.27
546.16	64498.14
546.33	64385.80
546.50	64484.10
546.67	64900.71
546.83	64411.54
547.00	64331.96
547.17	63908.33
547.34	63377.03
547.50	63377.03
547.67	63835.77
547.84	63742.15
548.00	64118.98
548.17	64514.53
548.34	64317.92
548.51	64437.29
548.67	64413.88
548.84	64341.33
549.01	64411.54
549.18	64406.86
549.34	64254.73
549.51	64303.88
549.68	64245.36
549.84	64032.38
550.01	64221.96
550.18	63880.24
550.34	64081.53
550.51	64046.42
550.68	64006.63
550.84	63723.43
551.01	63709.38
551.18	63756.19
551.34	63962.16
551.51	64289.84
551.68	64420.90
551.84	64418.56
552.01	64231.32
552.18	64008.97
552.34	63496.39
552.51	63161.70
552.68	63159.36
552.84	63524.48
553.01	63737.47
553.18	63599.38
553.34	63812.37
553.51	64228.98
553.67	64130.68
553.84	64268.77
554.01	64156.42
554.17	63966.84
554.34	63870.88
554.51	64217.28
554.67	64434.95
554.84	64224.30
555.00	63868.54
555.17	63756.19
555.33	63735.13
555.50	63826.41
555.67	63498.73
555.83	63723.43
556.00	63510.44
556.16	63475.33
556.33	62915.94
556.50	62948.71
556.66	62897.22
556.83	62501.67
556.99	62712.31
557.16	62714.65
557.32	63149.99
557.49	63234.25
557.65	63210.85
557.82	63215.53
557.98	63114.89
558.15	62810.62
558.32	61991.43
558.48	61389.91
558.65	61565.45
558.81	61801.85
558.98	62218.46
559.14	62253.57
559.31	62335.49
559.47	62321.44
559.64	62302.72
559.80	61886.10
559.97	61900.15
560.13	62312.08
560.30	63023.61
560.46	63412.13
560.63	63707.04
560.79	63721.08
560.96	63135.95
561.12	62274.63
561.29	61619.28
561.45	61563.11
561.61	62042.92
561.78	62447.83
561.94	62333.15
562.11	62157.61
562.27	62148.24
562.44	62368.26
562.60	62698.27
562.77	62850.41
562.93	62707.63
563.10	62536.77
563.26	62223.14
563.42	62124.84
563.59	61996.11
563.75	61996.11
563.92	62047.60
564.08	62120.16
564.24	62253.57
564.41	62426.77
564.57	62337.83
564.74	62122.50
564.90	62152.93
565.07	61792.48
565.23	61677.80
565.39	61106.71
565.56	60982.66
565.72	60732.22
565.88	61064.58
566.05	61174.58
566.21	61467.15
566.38	61535.02
566.54	61666.09
566.70	61862.70
566.87	62241.87
567.03	62164.63
567.19	62234.84
567.36	62075.69
567.52	61965.68
567.68	61572.47
567.85	61146.50
568.01	60856.27
568.17	60411.57
568.34	60608.17
568.50	60355.39
568.66	60669.03
568.83	60928.83
568.99	60992.02
569.15	61303.31
569.32	61317.35
569.48	60959.25
569.64	60718.18
569.81	60552.00
569.97	60554.34
570.13	60261.77
570.30	60055.81
570.46	59622.81
570.62	59107.89
570.78	59173.42
570.95	59327.90
571.11	60196.24
571.27	60179.85
571.43	60317.95
571.60	60633.92
571.76	60755.63
571.92	61085.64
572.09	60924.14
572.25	61090.32
572.41	60945.21
572.57	60844.57
572.74	60947.55
572.90	60458.38
573.06	60479.44
573.22	60619.88
573.38	60514.55
573.55	60444.33
573.71	60708.82
573.87	60563.70
574.03	60626.90
574.20	60465.40
574.36	60086.23
574.52	60219.64
574.68	59824.09
574.84	59611.10
575.01	59217.89
575.17	59166.40
575.33	59456.63
575.49	59697.70
575.65	59800.69
575.82	59599.40
575.98	59306.83
576.14	59538.55
576.30	59730.47
576.46	59901.33
576.62	59847.50
576.79	59693.02
576.95	59725.79
577.11	59578.34
577.27	59540.89
577.43	59742.17
577.59	59285.77
577.75	59009.59
577.92	58431.47
578.08	58298.06
578.24	58419.77
578.40	58962.78
578.56	58784.90
578.72	58927.67
578.88	59021.29
579.04	59030.65
579.21	59236.62
579.37	59042.35
579.53	59351.30
579.69	59288.11
579.85	59590.04
580.01	59419.18
580.17	59047.04
580.33	58864.47
580.49	58979.16
580.65	59437.90
580.82	59220.23
580.98	59194.49
581.14	59077.46
581.30	59269.39
581.46	59089.16
581.62	59377.05
581.78	59180.45
581.94	59475.35
582.10	59253.00
582.26	59543.23
582.42	59386.41
582.58	59470.67
582.74	59180.45
582.90	59278.75
583.06	59323.22
583.22	59295.13
583.38	59065.76
583.54	59133.63
583.70	58962.78
583.86	59032.99
584.02	58976.82
584.18	59269.39
584.34	59119.59
584.50	58747.45
584.66	58801.28
584.82	58501.69
584.98	58267.64
585.14	58197.42
585.30	57759.74
585.46	57373.55
585.62	57605.26
585.78	57769.10
585.94	57513.98
586.10	57963.37
586.26	58117.84
586.42	58398.71
586.58	58513.39
586.74	58213.80
586.90	58085.07
587.06	58293.38
587.22	58150.61
587.38	57888.47
587.54	57717.61
587.70	57776.12
587.86	57551.43
588.02	57359.51
588.18	57003.75
588.34	56041.79
588.49	54452.56
588.65	52842.27
588.81	52793.12
588.97	53228.46
589.13	52870.36
589.29	52619.92
589.45	53673.16
589.61	54431.50
589.77	55229.62
589.93	56051.15
590.08	56528.62
590.24	56811.82
590.40	56945.23
590.56	57001.41
590.72	56851.61
590.88	56334.35
591.04	56048.81
591.20	56236.05
591.35	56278.18
591.51	56264.14
591.67	56371.80
591.83	56430.32
591.99	56334.35
592.15	56289.88
592.31	56636.28
592.46	56378.82
592.62	56076.90
592.78	56240.73
592.94	56133.07
593.10	56268.82
593.26	56219.67
593.41	56521.60
593.57	56259.46
593.73	56165.84
593.89	55674.32
594.05	55348.99
594.20	55456.65
594.36	55124.30
594.52	54990.89
594.68	55086.85
594.84	55194.51
594.99	55592.40
595.15	55409.84
595.31	55767.94
595.47	55643.90
595.62	56046.47
595.78	55973.91
595.94	56292.22
596.10	56135.41
596.25	55777.31
596.41	55746.88
596.57	55473.04
596.73	55725.81
596.88	55585.38
597.04	55915.40
597.20	55552.62
597.36	55175.79
597.51	55416.86
597.67	55283.45
597.83	55133.66
597.99	55119.62
598.14	54707.68
598.30	54693.64
598.46	54712.36
598.61	55002.59
598.77	54782.58
598.93	55185.15
599.09	55339.63
599.24	55653.26
599.40	55246.00
599.56	55454.31
599.71	55210.90
599.87	55161.75
600.03	55051.74
600.18	54649.17
600.34	54571.93
600.50	54265.32
600.65	54511.08
600.81	54642.15
600.97	54649.17
601.12	54574.27
601.28	54433.84
601.44	54239.57
601.59	54054.67
601.75	53495.28
601.91	53705.93
602.06	53769.13
602.22	54232.55
602.37	53991.48
602.53	54284.04
602.69	54637.47
602.84	54513.42
603.00	54953.44
603.16	55000.25
603.31	54930.03
603.47	54901.95
603.62	54712.36
603.78	54728.75
603.94	54454.90
604.09	54405.75
604.25	54342.56
604.40	54253.62
604.56	54513.42
604.71	54450.22
604.87	54405.75
605.03	54188.08
605.18	53883.81
605.34	54117.87
605.49	53860.41
605.65	53998.50
605.80	53916.58
605.96	53947.01
606.12	53401.66
606.27	53680.19
606.43	53893.18
606.58	53675.51
606.74	53649.76
606.89	53872.11
607.05	53923.60
607.20	53968.07
607.36	53368.90
607.51	53394.64
607.67	53095.05
607.82	53242.51
607.98	52973.34
608.13	52851.64
608.29	52774.40
608.44	52846.96
608.60	52545.03
608.75	52856.32
608.91	52907.81
609.06	52561.41
609.22	52985.05
609.37	52849.30
609.53	52554.39
609.68	52107.35
609.84	51594.77
609.99	51590.09
610.15	51653.28
610.30	51849.89
610.46	52055.85
610.61	52383.53
610.76	52538.01
610.92	52584.82
611.07	52914.83
611.23	52659.71
611.38	52486.51
611.54	52589.50
611.69	51765.63
611.84	51302.20
612.00	51332.63
612.15	51182.84
612.31	51276.46
612.46	51346.67
612.62	51583.07
612.77	51360.72
612.92	51847.55
613.08	51285.82
613.23	50433.86
613.39	49968.10
613.54	49921.29
613.69	50129.59
613.85	50007.89
614.00	50384.71
614.15	50646.85
614.31	50635.15
614.46	50958.14
614.62	50724.09
614.77	50974.53
614.92	51000.27
615.08	50447.91
615.23	50445.57
615.38	50375.35
615.54	49570.21
615.69	48846.98
615.84	48261.85
616.00	47599.47
616.15	48027.79
616.30	48680.80
616.46	48713.57
616.61	48341.42
616.76	48952.30
616.92	48928.90
617.07	49499.99
617.22	49462.54
617.37	49502.33
617.53	49614.68
617.68	49860.43
617.83	49853.41
617.99	49822.98
618.14	49546.80
618.29	49516.37
618.45	49132.53
618.60	48868.05
618.75	48151.84
618.90	48156.52
619.06	48868.05
619.21	48879.75
619.36	49560.84
619.51	49155.93
619.67	48680.80
619.82	49265.94
619.97	49282.32
620.12	48875.07
620.28	48751.02
620.43	49476.58
620.58	49305.73
620.73	48727.61
620.89	48584.84
621.04	48641.01
621.19	48442.07
621.34	47327.97
621.49	47828.85
621.65	47636.92
621.80	47681.39
621.95	47512.88
622.10	48142.48
622.25	47533.94
622.41	47533.94
622.56	47332.65
622.71	46590.70
622.86	46450.27
623.01	46740.50
623.16	46937.10
623.32	46894.97
623.47	47180.52
623.62	46848.16
623.77	46141.32
623.92	46164.73
624.07	45432.14
624.23	45015.52
624.38	45200.43
624.53	45820.67
624.68	45708.32
624.83	45375.97
624.98	44893.82
625.13	44748.70
625.29	44650.40
625.44	44863.39
625.59	44903.18
625.74	45104.46
625.89	45148.93
626.04	45488.31
626.19	44861.05
626.34	45392.35
626.49	45134.89
626.65	45174.68
626.80	45172.34
626.95	44818.92
627.10	44751.04
627.25	43739.93
627.40	42782.65
627.55	42073.47
627.70	41528.13
627.85	42295.82
628.00	42497.11
628.15	43615.88
628.30	43573.75
628.45	43587.80
628.60	43299.91
628.76	43264.80
628.91	43650.99
629.06	43086.92
629.21	43028.41
629.36	43033.09
629.51	42045.38
629.66	42054.75
629.81	42010.28
629.96	41478.97
630.11	42066.45
630.26	42770.95
630.41	42632.86
630.56	42452.64
630.71	42920.74
630.86	42955.85
631.01	42167.09
631.16	41956.44
631.31	41471.95
631.46	41244.92
631.61	41324.50
631.76	41469.61
631.91	41626.43
632.06	42288.80
632.21	42520.51
632.36	42405.83
632.51	42735.84
632.66	41977.51
632.81	41984.53
632.96	42621.16
633.10	41617.07
633.25	41731.75
633.40	41366.63
633.55	41481.31
633.70	41130.23
633.85	41200.45
634.00	41818.35
634.15	41343.22
634.30	41303.43
634.45	41652.17
634.60	41495.36
634.75	41195.77
634.90	41322.16
635.05	41371.31
635.19	41387.69
635.34	41265.99
635.49	41268.33
635.64	40601.27
635.79	40215.08
635.94	40240.83
636.09	40531.06
636.24	40442.12
636.39	40439.78
636.53	40921.93
636.68	40968.74
636.83	40921.93
636.98	41097.47
637.13	41340.88
637.28	41357.27
637.43	41497.70
637.57	41251.94
637.72	40718.30
637.87	40341.47
638.02	40971.08
638.17	40664.47
638.32	40388.28
638.46	40737.02
638.61	40627.02
638.76	40030.18
638.91	39618.25
639.06	39299.94
639.20	39283.55
639.35	39262.49
639.50	39030.77
639.65	38721.82
639.80	39330.36
639.94	39255.46
640.09	39180.57
640.24	39475.48
640.39	38988.64
640.54	38234.99
640.68	38443.30
640.83	38506.49
640.98	37984.55
641.13	38000.94
641.27	38206.90
641.42	38293.50
641.57	38052.43
641.72	38019.66
641.86	38106.26
642.01	38134.35
642.16	38962.90
642.31	38426.92
642.45	38799.06
642.60	38410.53
642.75	38162.43
642.90	38391.81
643.04	37809.01
643.19	38019.66
643.34	38150.73
643.48	37256.65
643.63	37354.95
643.78	37834.76
643.93	38462.02
644.07	38352.02
644.22	38141.37
644.37	37975.19
644.51	37680.28
644.66	37839.44
644.81	37057.70
644.95	37474.32
645.10	36783.86
645.25	36371.92
645.39	36268.94
645.54	36542.78
645.69	36091.06
645.83	35571.46
645.98	35775.09
646.13	35615.93
646.27	35934.24
646.42	35791.47
646.57	35543.38
646.71	35662.74
646.86	35674.45
647.00	35332.73
647.15	34995.69
647.30	34607.16
647.44	34653.97
647.59	34621.20
647.74	34415.24
647.88	34305.23
648.03	34635.25
648.17	34897.39
648.32	35246.13
648.47	35412.31
648.61	34888.03
648.76	34548.65
648.90	33958.83
649.05	33228.59
649.20	32716.01
649.34	32180.03
649.49	32484.30
649.63	33078.79
649.78	33713.08
649.92	34403.53
650.07	34731.21
650.21	34469.07
650.36	34604.82
650.51	34953.56
650.65	34932.50
650.80	34951.22
650.94	34483.11
651.09	33947.13
651.23	33174.75
651.38	32708.99
651.52	33029.64
651.67	33523.49
651.81	33926.07
651.96	33823.08
652.10	33855.85
652.25	33975.22
652.39	33935.43
652.54	34354.38
652.68	33818.40
652.83	33783.29
652.97	33804.36
653.12	33600.73
653.26	33982.24
653.41	33963.51
653.55	33879.25
653.70	34057.14
653.84	33773.93
653.99	33406.47
654.13	32699.62
654.27	32407.06
654.42	32348.54
654.56	32357.91
654.71	32367.27
654.85	31824.26
655.00	31407.65
655.14	31084.65
655.29	30930.18
655.43	29940.13
655.57	28837.74
655.72	27117.45
655.86	25329.28
656.01	23571.54
656.15	23906.23
656.30	25701.42
656.44	26998.08
656.58	28098.13
656.73	29085.84
656.87	29851.19
657.01	29832.47
657.16	30293.55
657.30	30904.43
657.45	31566.81
657.59	31768.09
657.73	31405.31
657.88	31688.51
658.02	31412.33
658.16	31686.17
658.31	31391.26
658.45	31204.02
658.60	31072.95
658.74	30473.78
658.88	30576.76
659.03	30579.10
659.17	30270.15
659.31	30534.63
659.46	30698.47
659.60	31012.10
659.74	31260.20
659.89	31475.52
660.03	31295.30
660.17	31538.72
660.32	31536.38
660.46	31112.74
660.60	30693.79
660.74	30483.14
660.89	30754.64
661.03	30810.81
661.17	30452.71
661.32	30473.78
661.46	30569.74
661.60	30991.03
661.74	30745.28
661.89	30677.40
662.03	30923.16
662.17	30508.88
662.31	30455.05
662.46	30132.06
662.60	30284.19
662.74	30047.80
662.88	29699.06
663.03	29670.97
663.17	29504.79
663.31	29326.91
663.45	29310.53
663.60	29228.61
663.74	29247.33
663.88	29193.50
664.02	29291.80
664.17	29252.02
664.31	28814.34
664.45	28961.79
664.59	28980.51
664.73	29802.04
664.88	29535.22
665.02	28966.47
665.16	28952.43
665.30	29109.24
665.44	28999.24
665.59	28367.29
665.73	28395.38
665.87	28463.25
666.01	28018.55
666.15	27730.67
666.29	28009.19
666.44	28322.82
666.58	28044.30
666.72	28119.20
666.86	28032.60
667.00	27929.61
667.14	27779.82
667.28	27716.62
667.43	27843.01
667.57	27782.16
667.71	27866.42
667.85	27721.30
667.99	27431.08
668.13	27290.65
668.27	27634.71
668.41	27957.70
668.56	27300.01
668.70	27220.43
668.84	27447.46
668.98	27440.44
669.12	27414.69
669.26	27072.98
669.40	26979.36
669.54	26852.97
669.68	27159.58
669.82	26700.83
669.96	26544.02
670.10	26443.37
670.25	26579.12
670.39	26129.74
670.53	26036.12
670.67	25888.67
670.81	26024.42
670.95	25848.88
671.09	25895.69
671.23	25551.63
671.37	25743.55
671.51	25558.65
671.65	25692.06
671.79	25666.31
671.93	25460.35
672.07	25303.53
672.21	25593.76
672.35	25177.14
672.49	25233.32
672.63	25418.22
672.77	25254.38
672.91	25069.48
673.05	25355.02
673.19	25078.84
673.33	25191.19
673.47	24734.78
673.61	25053.09
673.75	24809.68
673.89	24858.83
674.03	24559.24
674.17	25017.99
674.31	24702.01
674.45	24217.52
674.59	24273.70
674.73	24334.55
674.87	24409.45
675.01	23634.73
675.15	23943.68
675.29	24194.12
675.43	23620.69
675.56	23735.37
675.70	23836.02
675.84	23868.78
675.98	23194.71
676.12	23709.63
676.26	23784.52
676.40	23089.38
676.54	23599.62
676.68	23030.87
676.82	23211.09
676.96	23056.62
677.10	23063.64
677.23	22768.73
677.37	23065.98
677.51	22939.59
677.65	22773.41
677.79	22401.27
677.93	22253.81
678.07	22122.74
678.21	21743.58
678.34	21994.01
678.48	21741.24
678.62	21809.11
678.76	21743.58
678.90	21673.36
679.04	21823.16
679.18	21862.94
679.31	21703.79
679.45	21348.03
679.59	21406.54
679.73	21160.78
679.87	21149.08
680.00	21277.81
680.14	21130.36
680.28	20816.72
680.42	20671.61
680.56	20669.27
680.70	20482.03
680.83	20556.93
680.97	20210.53
681.11	20292.44
681.25	20397.77
681.39	20287.76
681.52	20226.91
681.66	20135.63
681.80	20119.24
681.94	20360.32
682.07	20247.97
682.21	19939.02
682.35	19826.68
682.49	19782.21
682.62	19740.08
682.76	19267.29
682.90	19262.61
683.04	19227.50
683.17	19583.26
683.31	19211.12
683.45	18988.77
683.59	18642.37
683.72	18494.91
683.86	18642.37
684.00	18614.28
684.13	18628.32
684.27	18375.55
684.41	18200.01
684.55	18347.46
684.68	18431.72
684.82	18312.35
684.96	18190.64
685.09	17975.31
685.23	17661.68
685.37	17755.30
685.50	17563.38
685.64	17802.11
685.78	17397.20
685.91	17603.17
686.05	17294.22
686.19	16592.06
686.32	15754.15
686.46	13907.46
686.60	12535.91
686.73	11496.71
686.87	11089.46
687.01	10881.15
687.14	10846.04
687.28	11220.53
687.42	11932.05
687.55	12564.00
687.69	13303.60
687.82	13750.65
687.96	14258.54
688.10	14202.37
688.23	14260.88
688.37	13783.41
688.50	13582.13
688.64	13556.38
688.78	13366.80
688.91	13366.80
689.05	13486.17
689.18	13359.78
689.32	13167.85
689.46	13067.21
689.59	13284.88
689.73	13261.48
689.86	13355.10
690.00	13233.39
690.13	13287.22
690.27	13296.58
690.41	13394.89
690.54	13425.31
690.68	13369.14
690.81	13486.17
690.95	13736.60
691.08	13619.58
691.22	13582.13
691.35	13610.22
691.49	13540.00
691.62	13535.32
691.76	13617.24
691.89	13687.45
692.03	13514.25
692.16	13324.67
692.30	13350.42
692.43	13315.31
692.57	12982.95
692.70	13116.36
692.84	12697.41
692.97	12592.08
693.11	12748.90
693.24	12648.26
693.38	12615.49
693.51	12627.19
693.65	12496.12
693.78	12123.98
693.92	12404.84
694.05	12063.12
694.19	12128.66
694.32	12149.72
694.45	12250.36
694.59	12224.62
694.72	12121.63
694.86	12152.06
694.99	12266.75
695.13	12002.27
695.26	11920.35
695.39	11599.70
695.53	11690.98
695.66	11634.80
695.80	11672.25
695.93	12035.03
696.07	11730.76
696.20	11824.39
696.33	11873.54
696.47	12332.28
696.60	12393.14
696.73	12372.07
696.87	12131.00
697.00	12423.56
697.14	12161.42
697.27	11887.58
697.40	11903.96
697.54	11314.15
697.67	11098.82
697.80	11030.94
697.94	10951.37
698.07	11260.32
698.21	11054.35
698.34	10768.80
698.47	10846.04
698.61	10565.18
698.74	10520.71
698.87	10534.75
699.01	10429.43
699.14	10441.13
699.27	10523.05
699.40	10633.05
699.54	10579.22
699.67	10286.65
699.80	10352.19
699.94	10225.80
700.07	10071.33
700.20	9813.87
700.34	9635.99
700.47	9640.67
700.60	9944.94
700.73	9713.22
700.87	9736.63
701.00	9863.02
701.13	9605.56
701.26	9537.68
701.40	9423.00
701.53	9350.44
701.66	9455.76
701.79	9554.07
701.93	9266.18
702.06	9373.85
702.19	9320.01
702.32	9334.06
702.46	9289.59
702.59	9376.19
702.72	9165.54
702.85	9266.18
702.99	9310.65
703.12	9343.42
703.25	9158.52
703.38	9078.94
703.51	8971.27
703.65	9067.24
703.78	8765.31
703.91	8739.56
704.04	8992.34
704.17	8762.97
704.31	8870.63
704.44	9167.88
704.57	8922.12
704.70	8840.20
704.83	8704.45
704.96	8704.45
705.10	8477.42
705.23	8376.78
>>>>>End Processed Spectral Data<<<<<
