SpectraSuite Data File
++++++++++++++++++++++++++++++++++++
Date: Mon Oct 07 14:54:59 GMT-05:00 2013
User: price-jones
Dark Spectrum Present: No
Reference Spectrum Present: No
Number of Sampled Component Spectra: 1
Spectrometers: USB2+H05261
Integration Time (usec): 10000 (USB2+H05261)
Spectra Averaged: 1 (USB2+H05261)
Boxcar Smoothing: 0 (USB2+H05261)
Correct for Electrical Dark: No (USB2+H05261)
Strobe/Lamp Enabled: No (USB2+H05261)
Correct for Detector Non-linearity: No (USB2+H05261)
Correct for Stray Light: No (USB2+H05261)
Number of Pixels in Processed Spectrum: 2048
>>>>>Begin Processed Spectral Data<<<<<
365.73	0.00
365.92	0.00
366.12	0.00
366.32	0.00
366.52	0.00
366.72	0.00
366.91	0.00
367.11	0.00
367.31	0.00
367.51	0.00
367.70	0.00
367.90	0.00
368.10	0.00
368.30	0.00
368.49	0.00
368.69	0.00
368.89	0.00
369.09	0.00
369.28	0.00
369.48	0.00
369.68	0.00
369.87	0.00
370.07	0.00
370.27	0.00
370.47	16.38
370.66	791.10
370.86	1121.12
371.06	1062.60
371.25	1114.10
371.45	1053.24
371.65	746.63
371.84	926.85
372.04	917.49
372.24	1008.77
372.44	1104.73
372.63	1050.90
372.83	952.60
373.03	826.21
373.22	784.08
373.42	898.77
373.62	1043.88
373.81	1067.28
374.01	1069.62
374.21	910.47
374.40	844.93
374.60	922.17
374.79	1163.25
374.99	1357.51
375.19	1446.45
375.38	1352.83
375.58	1139.84
375.78	1118.78
375.97	1233.46
376.17	1273.25
376.37	1306.02
376.56	1348.15
376.76	1462.83
376.95	1528.37
377.15	1636.03
377.35	1832.64
377.54	1834.98
377.74	1762.42
377.93	1783.49
378.13	1717.95
378.33	1654.76
378.52	1502.62
378.72	1460.49
378.91	1378.58
379.11	1315.38
379.31	1373.89
379.50	1343.47
379.70	1455.81
379.89	1521.35
380.09	1741.36
380.28	1781.15
380.48	1708.59
380.68	1666.46
380.87	1680.50
381.07	1533.05
381.26	1394.96
381.46	1203.04
381.65	1249.85
381.85	1132.82
382.04	1081.33
382.24	990.05
382.43	1055.58
382.63	976.00
382.83	917.49
383.02	999.41
383.22	1006.43
383.41	1050.90
383.61	1041.54
383.80	1317.72
384.00	1483.90
384.19	1586.88
384.39	1844.34
384.58	1722.63
384.78	1739.02
384.97	1556.46
385.17	1584.54
385.36	1476.88
385.56	1380.92
385.75	1418.36
385.95	1633.69
386.14	1753.06
386.34	1771.79
386.53	1561.14
386.72	1533.05
386.92	1568.16
387.11	1664.12
387.31	1650.08
387.50	1729.66
387.70	1600.93
387.89	1680.50
388.09	1696.89
388.28	1563.48
388.48	1769.44
388.67	1907.54
388.86	2129.89
389.06	2122.87
389.25	2499.69
389.45	2370.96
389.64	2413.09
389.84	2237.55
390.03	2090.10
390.22	2331.17
390.42	2394.37
390.61	2614.38
390.81	2766.51
391.00	2675.23
391.19	2658.85
391.39	2614.38
391.58	2284.36
391.78	2195.42
391.97	2197.76
392.16	1952.01
392.36	1767.10
392.55	1310.70
392.75	945.58
392.94	828.55
393.13	952.60
393.33	1139.84
393.52	1570.50
393.71	1823.28
393.91	2094.78
394.10	2331.17
394.29	2534.80
394.49	2672.89
394.68	2843.75
394.88	2780.56
395.07	2881.20
395.26	3063.76
395.46	2808.64
395.65	2558.21
395.84	2230.53
396.04	1820.94
396.23	1441.77
396.42	1179.63
396.62	1249.85
396.81	1549.43
397.00	2054.99
397.19	2499.69
397.39	2995.89
397.58	3269.73
397.77	3534.21
397.97	3585.70
398.16	3719.11
398.35	3810.39
398.55	3873.59
398.74	4065.51
398.93	4014.02
399.12	3974.23
399.32	3929.76
399.51	4168.49
399.70	4432.97
399.90	4201.26
400.09	4173.18
400.28	4161.47
400.47	4257.43
400.67	4498.51
400.86	4601.49
401.05	4489.15
401.24	4447.02
401.44	4685.75
401.63	4514.89
401.82	4685.75
402.01	4702.14
402.21	4685.75
402.40	4629.58
402.59	4449.36
402.78	4332.33
402.97	4334.67
403.17	4432.97
403.36	4568.73
403.55	4903.42
403.74	4821.50
403.93	4449.36
404.13	4236.37
404.32	4205.94
404.51	4561.70
404.70	4861.29
404.89	4856.61
405.09	4908.10
405.28	4472.76
405.47	4447.02
405.66	4690.43
405.85	4388.50
406.05	4311.27
406.24	4524.26
406.43	4631.92
406.62	4709.16
406.81	4734.90
407.00	4627.24
407.20	4468.08
407.39	4400.21
407.58	4798.10
407.77	4880.02
407.96	5060.24
408.15	5006.41
408.34	5055.56
408.54	5465.15
408.73	5357.49
408.92	5256.84
409.11	4978.32
409.30	4772.35
409.49	4472.76
409.68	4208.28
409.87	4315.95
410.07	4531.28
410.26	4770.01
410.45	5022.79
410.64	5378.55
410.83	5481.53
411.02	5753.04
411.21	5659.42
411.40	5640.69
411.59	5692.18
411.78	5722.61
411.98	5619.63
412.17	5612.60
412.36	5523.66
412.55	5495.58
412.74	5355.15
412.93	5207.69
413.12	5502.60
413.31	5961.34
413.50	5870.06
413.69	5923.90
413.88	5621.97
414.07	5469.83
414.26	5858.36
414.45	6003.47
414.64	5893.47
414.83	5832.62
415.02	5533.03
415.22	5727.29
415.41	5949.64
415.60	6253.91
415.79	6282.00
415.98	6525.41
416.17	6602.65
416.36	6251.57
416.55	6239.87
416.74	5928.58
416.93	5657.07
417.12	5743.67
417.31	5909.85
417.50	5973.05
417.69	6106.46
417.88	6300.72
418.07	6155.61
418.26	5980.07
418.45	6174.33
418.64	6272.64
418.83	6492.65
419.02	6654.14
419.21	6298.38
419.39	6069.01
419.58	5809.21
419.77	5685.16
419.96	5930.92
420.15	6392.00
420.34	6586.27
420.53	6693.93
420.72	6937.35
420.91	6782.87
421.10	6583.93
421.29	6775.85
421.48	6679.89
421.67	6757.13
421.86	6436.47
422.05	5975.39
422.24	5575.16
422.43	5743.67
422.61	6216.46
422.80	6352.21
422.99	6644.78
423.18	6218.80
423.37	6052.63
423.56	6291.36
423.75	6228.17
423.94	6235.19
424.13	6076.03
424.32	6073.69
424.50	6340.51
424.69	6193.06
424.88	6251.57
425.07	6298.38
425.26	6097.10
425.45	5858.36
425.64	5977.73
425.83	6092.41
426.01	6326.47
426.20	6476.26
426.39	6258.59
426.58	5767.08
426.77	5465.15
426.96	5348.12
427.15	5488.56
427.33	5830.27
427.52	6047.94
427.71	6029.22
427.90	5975.39
428.09	5959.00
428.28	5797.51
428.46	5673.46
428.65	5598.56
428.84	5762.40
429.03	5650.05
429.22	5273.23
429.40	5132.79
429.59	4643.62
429.78	4135.73
429.97	4187.22
430.16	4245.73
430.34	4250.41
430.53	4243.39
430.72	4416.59
430.91	5153.86
431.10	6045.60
431.28	6911.60
431.47	7222.89
431.66	7241.62
431.85	6499.67
432.03	5905.17
432.22	5689.84
432.41	6136.88
432.60	6890.54
432.79	6977.14
432.97	7150.34
433.16	6766.49
433.35	6143.91
433.54	5341.10
433.72	5465.15
433.91	5617.29
434.10	6333.49
434.28	6904.58
434.47	6843.73
434.66	6560.52
434.85	6588.61
435.03	6778.19
435.22	6787.55
435.41	7260.34
435.59	7239.28
435.78	7351.62
435.97	7482.69
436.16	7447.58
436.34	7377.37
436.53	7279.07
436.72	7389.07
436.90	6668.19
437.09	6895.22
437.28	6782.87
437.46	6972.46
437.65	6817.98
437.84	6197.74
438.02	6003.47
438.21	6104.12
438.40	6197.74
438.58	6677.55
438.77	6988.84
438.96	7260.34
439.14	7379.71
439.33	7442.90
439.52	7353.96
439.70	7157.36
439.89	7094.16
440.08	7108.21
440.26	7199.49
440.45	7396.09
440.63	7700.36
440.82	8161.45
441.01	7817.39
441.19	8156.77
441.38	8234.00
441.57	8173.15
441.75	8280.82
441.94	8650.62
442.12	8444.65
442.31	8793.39
442.50	8587.43
442.68	8552.32
442.87	8388.48
443.05	8128.68
443.24	8568.70
443.43	8725.52
443.61	8758.28
443.80	8702.11
443.98	8175.49
444.17	8351.03
444.35	8713.81
444.54	8847.22
444.73	8631.90
444.91	8245.71
445.10	7913.35
445.28	7627.81
445.47	7360.98
445.65	7461.63
445.84	7901.65
446.02	8030.38
446.21	8255.07
446.39	8184.85
446.58	8423.59
446.77	8360.39
446.95	8425.93
447.14	9193.62
447.32	9048.51
447.51	8674.03
447.69	8210.60
447.88	8191.88
448.06	8428.27
448.25	8751.26
448.43	8648.28
448.62	8486.78
448.80	8341.67
448.99	8746.58
449.17	8557.00
449.36	8678.71
449.54	8734.88
449.73	9041.49
449.91	8990.00
450.10	9057.87
450.28	9554.07
450.46	9296.61
450.65	9312.99
450.83	9043.83
451.02	8978.30
451.20	9050.85
451.39	9097.66
451.57	9027.45
451.76	9057.87
451.94	8730.20
452.13	8564.02
452.31	8505.51
452.49	8271.45
452.68	7997.61
452.86	8002.29
453.05	8212.94
453.23	8737.22
453.42	8992.34
453.60	8959.57
453.78	8800.41
453.97	8844.88
454.15	8915.10
454.34	8610.83
454.52	8603.81
454.70	8248.05
454.89	8641.26
455.07	8681.05
455.26	8664.66
455.44	9111.71
455.62	9324.69
455.81	9242.78
455.99	9039.15
456.17	8912.76
456.36	9121.07
456.54	9247.46
456.73	9186.60
456.91	9167.88
457.09	9610.24
457.28	9619.60
457.46	9069.58
457.64	8952.55
457.83	8688.07
458.01	8739.56
458.19	8879.99
458.38	8929.14
458.56	9109.36
458.74	9118.73
458.93	8959.57
459.11	8954.89
459.29	9050.85
459.48	9013.40
459.66	8847.22
459.84	9025.11
460.03	9013.40
460.21	9081.28
460.39	9432.36
460.57	9415.98
460.76	9528.32
460.94	9430.02
461.12	9376.19
461.31	9238.09
461.49	9371.50
461.67	9439.38
461.85	9542.36
462.04	9628.96
462.22	9460.45
462.40	9483.85
462.59	9348.10
462.77	9525.98
462.95	9596.20
463.13	9320.01
463.32	9156.18
463.50	9130.43
463.68	9144.47
463.86	9320.01
464.05	9015.74
464.23	8858.93
464.41	8950.21
464.59	8896.38
464.78	9359.80
464.96	9404.27
465.14	8912.76
465.32	9371.50
465.50	9507.26
465.69	9547.05
465.87	9322.35
466.05	8854.25
466.23	8704.45
466.41	8526.57
466.60	8791.05
466.78	9027.45
466.96	9104.68
467.14	9160.86
467.32	9137.45
467.51	8938.51
467.69	8559.34
467.87	8606.15
468.05	9008.72
468.23	8922.12
468.41	9179.58
468.60	8784.03
468.78	8849.57
468.96	8926.80
469.14	9280.22
469.32	9486.19
469.50	9008.72
469.69	8713.81
469.87	8762.97
470.05	8858.93
470.23	8542.96
470.41	8814.46
470.59	8798.07
470.77	8772.33
470.95	9107.02
471.14	9378.53
471.32	9329.38
471.50	9486.19
471.68	9839.61
471.86	9926.21
472.04	9589.17
472.22	10008.13
472.40	9591.52
472.58	9217.03
472.77	9186.60
472.95	9256.82
473.13	9563.43
473.31	9261.50
473.49	9444.06
473.67	9596.20
473.85	9720.24
474.03	9926.21
474.21	9738.97
474.39	9996.43
474.57	10019.83
474.75	9996.43
474.93	9968.34
475.12	9521.30
475.30	9806.84
475.48	9860.68
475.66	9687.48
475.84	9507.26
476.02	9696.84
476.20	9387.89
476.38	9661.73
476.56	9902.81
476.74	10031.54
476.92	10031.54
477.10	10342.83
477.28	10569.86
477.46	10382.62
477.64	10675.18
477.82	10534.75
478.00	10581.56
478.18	10387.30
478.36	10235.16
478.54	10494.96
478.72	10499.64
478.90	10726.68
479.08	11136.27
479.26	11239.25
479.44	11255.64
479.62	10960.73
479.80	10836.68
479.98	10963.07
480.16	11040.31
480.34	10927.96
480.52	10958.39
480.70	11094.14
480.88	11061.37
481.06	11770.55
481.24	11356.28
481.41	11826.73
481.59	11698.00
481.77	11344.58
481.95	11438.20
482.13	11742.47
482.31	11721.40
482.49	11922.69
482.67	11981.20
482.85	11700.34
483.03	12067.80
483.21	12065.46
483.39	11878.22
483.57	11777.58
483.74	11852.47
483.92	11805.66
484.10	11936.73
484.28	12161.42
484.46	12416.54
484.64	12205.89
484.82	11728.42
485.00	11634.80
485.18	11719.06
485.35	11269.68
485.53	10047.92
485.71	9563.43
485.89	9804.50
486.07	10139.20
486.25	10885.83
486.43	11618.42
486.61	11302.45
486.78	11515.44
486.96	11630.12
487.14	12219.94
487.32	12343.99
487.50	12608.47
487.68	13055.51
487.85	12884.65
488.03	12954.87
488.21	12767.62
488.39	12802.73
488.57	12507.82
488.75	12559.31
488.92	13238.07
489.10	13958.96
489.28	14106.41
489.46	14153.22
489.64	13865.33
489.81	14408.34
489.99	14005.77
490.17	14045.55
490.35	14663.46
490.53	14188.33
490.70	13678.09
490.88	14277.27
491.06	14747.72
491.24	14270.25
491.41	13448.72
491.59	12894.01
491.77	12919.76
491.95	13397.23
492.13	13500.21
492.30	13930.87
492.48	14768.78
492.66	15129.22
492.84	15138.58
493.01	14611.96
493.19	14623.67
493.37	14305.35
493.54	14059.60
493.72	14892.83
493.90	15082.41
494.08	15349.23
494.25	15206.46
494.43	15557.54
494.61	16208.21
494.79	15908.62
494.96	15873.51
495.14	15192.42
495.32	14752.40
495.49	14633.03
495.67	15562.22
495.85	15887.56
496.02	16196.51
496.20	15527.11
496.38	15541.16
496.55	15386.68
496.73	15868.83
496.91	16236.30
497.09	16313.53
497.26	16224.59
497.44	15627.76
497.62	15674.57
497.79	15133.90
497.97	14473.87
498.14	15098.80
498.32	15349.23
498.50	15302.42
498.67	16269.06
498.85	16105.23
499.03	15880.53
499.20	16266.72
499.38	15948.41
499.56	16100.55
499.73	15714.36
499.91	15765.85
500.08	15330.51
500.26	15033.26
500.44	15520.09
500.61	15763.51
500.79	15304.76
500.97	15250.93
501.14	14679.84
501.32	15227.53
501.49	15602.01
501.67	15232.21
501.84	15707.34
502.02	15449.88
502.20	15702.65
502.37	15520.09
502.55	15545.84
502.72	16297.15
502.90	16442.26
503.07	16006.92
503.25	15662.86
503.43	14885.81
503.60	14499.62
503.78	14743.03
503.95	14789.85
504.13	15522.43
504.30	16166.08
504.48	15964.79
504.65	15531.80
504.83	15733.08
505.01	15964.79
505.18	16652.91
505.36	17116.34
505.53	17081.23
505.71	16840.15
505.88	16643.55
506.06	16706.74
506.23	16018.63
506.41	16259.70
506.58	15873.51
506.76	15749.46
506.93	16320.56
507.11	15936.71
507.28	15690.95
507.46	15566.90
507.63	15410.09
507.81	15192.42
507.98	15676.91
508.16	15744.78
508.33	15836.06
508.50	16479.71
508.68	16322.90
508.85	16704.40
509.03	16816.75
509.20	16273.74
509.38	15627.76
509.55	15646.48
509.73	15880.53
509.90	15810.32
510.08	15789.25
510.25	15604.35
510.42	15573.92
510.60	15997.56
510.77	16238.64
510.95	16470.35
511.12	16166.08
511.30	16421.20
511.47	16465.67
511.64	16755.90
511.82	15915.64
511.99	15346.89
512.17	15077.73
512.34	15585.63
512.51	15522.43
512.69	15089.43
512.86	15517.75
513.04	15960.11
513.21	15660.52
513.38	15662.86
513.56	15033.26
513.73	15005.17
513.90	15349.23
514.08	14736.01
514.25	15264.97
514.43	15688.61
514.60	15758.83
514.77	15304.76
514.95	15578.61
515.12	15297.74
515.29	15683.93
515.47	15815.00
515.64	16350.98
515.81	16140.33
515.99	15573.92
516.16	14429.40
516.33	13247.43
516.51	12629.53
516.68	12248.02
516.85	11840.77
517.03	12606.13
517.20	13771.71
517.37	15101.14
517.54	15297.74
517.72	14647.07
517.89	13322.33
518.06	12657.62
518.24	13160.83
518.41	14071.30
518.58	14721.97
518.75	14761.76
518.93	14808.57
519.10	14831.97
519.27	15192.42
519.45	15260.29
519.62	15227.53
519.79	15552.86
519.96	15417.11
520.14	15068.37
520.31	14480.89
520.48	14413.02
520.65	14855.38
520.83	15346.89
521.00	15616.05
521.17	15356.25
521.34	15243.91
521.52	15208.80
521.69	15925.00
521.86	15838.41
522.03	15651.16
522.20	14670.48
522.38	14555.79
522.55	14347.48
522.72	14696.22
522.89	14597.92
523.07	15161.99
523.24	15676.91
523.41	15445.20
523.58	15702.65
523.75	15613.71
523.92	16084.16
524.10	16079.48
524.27	15932.03
524.44	15620.74
524.61	15276.68
524.78	15080.07
524.96	15548.18
525.13	15339.87
525.30	15555.20
525.47	15585.63
525.64	15562.22
525.81	14684.52
525.98	14071.30
526.16	13364.46
526.33	13219.35
526.50	12870.61
526.67	12863.58
526.84	13441.70
527.01	14148.54
527.18	14345.14
527.36	14780.48
527.53	15557.54
527.70	15080.07
527.87	14647.07
528.04	14501.96
528.21	14899.85
528.38	15611.37
528.55	16116.93
528.72	15800.96
528.89	15756.49
529.07	15646.48
529.24	15438.17
529.41	14974.75
529.58	14939.64
529.75	14775.80
529.92	15089.43
530.09	14949.00
530.26	15276.68
530.43	14906.87
530.60	15484.98
530.77	15798.62
530.94	15393.70
531.11	15414.77
531.28	15398.38
531.46	14581.54
531.63	14885.81
531.80	14810.91
531.97	15033.26
532.14	14228.12
532.31	13671.07
532.48	13624.26
532.65	13692.13
532.82	14080.66
532.99	14698.56
533.16	15054.33
533.33	15150.29
533.50	14815.59
533.67	14225.78
533.84	14310.04
534.01	14345.14
534.18	14567.49
534.35	14614.30
534.52	14396.64
534.69	14623.67
534.86	14661.12
535.03	15021.56
535.20	15386.68
535.37	15171.35
535.54	15246.25
535.71	15136.24
535.88	15215.82
536.05	15154.97
536.22	14721.97
536.38	14176.62
536.55	13694.47
536.72	14038.53
536.89	14026.83
537.06	13980.02
537.23	14010.45
537.40	14590.90
537.57	14633.03
537.74	14270.25
537.91	14560.47
538.08	14476.21
538.25	14452.81
538.42	14328.76
538.59	14272.59
538.75	13996.40
538.92	14008.11
539.09	13289.56
539.26	13039.12
539.43	13397.23
539.60	13357.44
539.77	13324.67
539.94	13259.13
540.11	13287.22
540.28	12980.61
540.44	12908.05
540.61	13092.96
540.78	13191.26
540.95	13872.36
541.12	13593.83
541.29	13502.55
541.46	13694.47
541.62	13650.00
541.79	13245.09
541.96	13207.64
542.13	13731.92
542.30	13565.74
542.47	13556.38
542.63	13130.41
542.80	13137.43
542.97	13437.02
543.14	13362.12
543.31	13238.07
543.48	13296.58
543.64	13802.14
543.81	13783.41
543.98	13675.75
544.15	13404.25
544.32	13163.17
544.48	13736.60
544.65	13600.85
544.82	13359.78
544.99	13294.24
545.16	13448.72
545.32	13437.02
545.49	13327.01
545.66	13902.78
545.83	13923.85
546.00	13661.71
546.16	13317.65
546.33	13364.46
546.50	13458.08
546.67	13600.85
546.83	13680.43
547.00	13312.97
547.17	13291.90
547.34	12922.10
547.50	12819.11
547.67	13090.62
547.84	12917.42
548.00	13240.41
548.17	13310.63
548.34	13109.34
548.51	13195.94
548.67	13392.55
548.84	13528.30
549.01	13832.57
549.18	13458.08
549.34	13312.97
549.51	12908.05
549.68	13261.48
549.84	13025.08
550.01	13383.18
550.18	13240.41
550.34	12571.02
550.51	12552.29
550.68	12725.49
550.84	12479.74
551.01	12690.38
551.18	12842.52
551.34	12830.82
551.51	13209.98
551.68	13177.22
551.84	12877.63
552.01	12968.91
552.18	12819.11
552.34	12435.27
552.51	12248.02
552.68	12444.63
552.84	12259.73
553.01	12512.50
553.18	12812.09
553.34	12535.91
553.51	12695.07
553.67	12720.81
553.84	12858.90
554.01	12795.71
554.17	12903.37
554.34	12992.31
554.51	13032.10
554.67	12971.25
554.84	12697.41
555.00	12933.80
555.17	12999.34
555.33	12950.18
555.50	13128.06
555.67	12758.26
555.83	12671.66
556.00	12468.03
556.16	12243.34
556.33	12039.72
556.50	11836.09
556.66	11571.61
556.83	11763.53
556.99	11845.45
557.16	11779.92
557.32	12416.54
557.49	12432.93
557.65	12231.64
557.82	12149.72
557.98	11997.59
558.15	11798.64
558.32	11480.33
558.48	11363.30
558.65	11414.79
558.81	11360.96
558.98	11447.56
559.14	11623.10
559.31	11707.36
559.47	11487.35
559.64	11541.18
559.80	11396.07
559.97	11365.64
560.13	11866.52
560.30	12329.94
560.46	12828.48
560.63	12500.80
560.79	12643.57
560.96	12184.83
561.12	11616.08
561.29	11391.39
561.45	11330.53
561.61	11641.82
561.78	11468.62
561.94	11332.87
562.11	11529.48
562.27	11669.91
562.44	11569.27
562.60	11557.57
562.77	11978.86
562.93	11878.22
563.10	11716.72
563.26	11557.57
563.42	11496.71
563.59	11136.27
563.75	11157.33
563.92	11499.05
564.08	11604.38
564.24	11138.61
564.41	11035.63
564.57	11346.92
564.74	11152.65
564.90	11178.40
565.07	11133.93
565.23	10960.73
565.39	10927.96
565.56	10937.32
565.72	10806.25
565.88	10628.37
566.05	11108.18
566.21	10848.38
566.38	10743.06
566.54	11154.99
566.70	10892.85
566.87	11169.04
567.03	11454.58
567.19	11571.61
567.36	11075.42
567.52	11236.91
567.68	10871.79
567.85	10782.85
568.01	10356.87
568.17	10389.64
568.34	10214.10
568.50	10377.94
568.66	10293.68
568.83	10581.56
568.99	10640.08
569.15	10490.28
569.32	10497.30
569.48	10834.34
569.64	10654.12
569.81	10548.79
569.97	10436.45
570.13	10628.37
570.30	10342.83
570.46	9975.36
570.62	9841.95
570.78	9921.53
570.95	9832.59
571.11	10384.96
571.27	10441.13
571.43	10317.08
571.60	10373.25
571.76	10338.15
571.92	10396.66
572.09	10480.92
572.25	10457.51
572.41	10597.95
572.57	10773.49
572.74	10300.70
572.90	10289.00
573.06	10413.04
573.22	10289.00
573.38	10611.99
573.55	10375.59
573.71	10399.00
573.87	10438.79
574.03	10462.19
574.20	10054.94
574.36	9947.28
574.52	10195.37
574.68	10068.98
574.84	9856.00
575.01	9528.32
575.17	9460.45
575.33	9975.36
575.49	9624.28
575.65	9696.84
575.82	9731.95
575.98	9605.56
576.14	9694.50
576.30	9736.63
576.46	9638.33
576.62	9731.95
576.79	9848.97
576.95	9809.19
577.11	9963.66
577.27	9877.06
577.43	9650.03
577.59	9804.50
577.75	9533.00
577.92	9420.66
578.08	9465.13
578.24	9493.21
578.40	9411.29
578.56	9219.37
578.72	9200.65
578.88	9090.64
579.04	9439.38
579.21	9460.45
579.37	9528.32
579.53	9638.33
579.69	9493.21
579.85	9334.06
580.01	9394.91
580.17	9224.05
580.33	9802.16
580.49	9554.07
580.65	9369.16
580.82	9561.09
580.98	9401.93
581.14	9146.81
581.30	9689.82
581.46	9612.58
581.62	9570.45
581.78	9757.69
581.94	9998.77
582.10	9624.28
582.26	9371.50
582.42	9500.23
582.58	9762.37
582.74	9542.36
582.90	9518.96
583.06	9799.82
583.22	9837.27
583.38	9596.20
583.54	9535.34
583.70	9666.41
583.86	9549.39
584.02	9535.34
584.18	9596.20
584.34	9544.70
584.50	9734.29
584.66	9783.44
584.82	9252.14
584.98	8997.02
585.14	9034.47
585.30	8863.61
585.46	8826.16
585.62	8528.91
585.78	9210.01
585.94	8903.40
586.10	9231.07
586.26	9123.41
586.42	9200.65
586.58	9224.05
586.74	8872.97
586.90	8868.29
587.06	8779.35
587.22	8650.62
587.38	8718.50
587.54	8938.51
587.70	8442.31
587.86	8587.43
588.02	8599.13
588.18	8236.35
588.34	7833.77
588.49	7571.63
588.65	7215.87
588.81	7339.92
588.97	7309.49
589.13	7456.95
589.29	7529.50
589.45	7705.04
589.61	7705.04
589.77	8243.37
589.93	8166.13
590.08	8397.84
590.24	8477.42
590.40	8491.46
590.56	8500.83
590.72	8219.96
590.88	8105.28
591.04	8243.37
591.20	8264.43
591.35	8234.00
591.51	8336.99
591.67	8409.54
591.83	8304.22
591.99	8280.82
592.15	8241.03
592.31	8297.20
592.46	8102.93
592.62	7868.88
592.78	8187.19
592.94	8219.96
593.10	8053.78
593.26	8032.72
593.41	8301.88
593.57	8100.59
593.73	7985.91
593.89	7995.27
594.05	7845.48
594.20	7653.55
594.36	7564.61
594.52	7801.01
594.68	7775.26
594.84	7826.75
594.99	7854.84
595.15	7936.76
595.31	8182.51
595.47	8196.56
595.62	8191.88
595.78	8023.36
595.94	7831.43
596.10	7868.88
596.25	7730.79
596.41	8025.70
596.57	8109.96
596.73	7908.67
596.88	7990.59
597.04	7658.23
597.20	7470.99
597.36	7857.18
597.51	8168.47
597.67	7733.13
597.83	7571.63
597.99	7571.63
598.14	7623.12
598.30	7651.21
598.46	7571.63
598.61	7810.37
598.77	7763.56
598.93	7695.68
599.09	7793.98
599.24	7744.83
599.40	7868.88
599.56	7812.71
599.71	7859.52
599.87	7599.72
600.03	7672.28
600.18	7798.66
600.34	7903.99
600.50	7698.02
600.65	7634.83
600.81	7981.23
600.97	7655.89
601.12	7576.31
601.28	7510.78
601.44	7487.37
601.59	7349.28
601.75	7456.95
601.91	7370.35
602.06	7272.04
602.22	7630.15
602.37	7482.69
602.53	7609.08
602.69	7496.74
602.84	7683.98
603.00	7676.96
603.16	7763.56
603.31	7377.37
603.47	7714.41
603.62	7349.28
603.78	7349.28
603.94	7304.81
604.09	7421.84
604.25	7449.93
604.40	7372.69
604.56	7431.20
604.71	7562.27
604.87	7508.44
605.03	7358.64
605.18	7276.73
605.34	7241.62
605.49	7538.87
605.65	7435.88
605.80	7344.60
605.96	7295.45
606.12	7449.93
606.27	7293.11
606.43	7410.14
606.58	7440.56
606.74	7314.17
606.89	7265.02
607.05	7201.83
607.20	7293.11
607.36	7365.67
607.51	7236.94
607.67	7115.23
607.82	7075.44
607.98	7077.78
608.13	7077.78
608.29	6906.92
608.44	6998.20
608.60	6881.18
608.75	6939.69
608.91	6942.03
609.06	6801.60
609.22	6965.43
609.37	6871.81
609.53	6740.74
609.68	6438.81
609.84	6581.59
609.99	6448.18
610.15	6630.74
610.30	6867.13
610.46	6778.19
610.61	6832.02
610.76	7021.61
610.92	7096.50
611.07	6801.60
611.23	7112.89
611.38	6874.15
611.54	6628.40
611.69	6469.24
611.84	6583.93
612.00	6305.40
612.15	6384.98
612.31	6551.16
612.46	6710.32
612.62	6738.40
612.77	6644.78
612.92	6801.60
613.08	6675.21
613.23	6260.93
613.39	6324.13
613.54	6279.66
613.69	6333.49
613.85	6586.27
614.00	6476.26
614.15	6307.74
614.31	6548.82
614.46	6450.52
614.62	6438.81
614.77	6415.41
614.92	6431.79
615.08	6494.99
615.23	6256.25
615.38	6476.26
615.54	6593.29
615.69	6092.41
615.84	5902.83
616.00	5912.19
616.15	6069.01
616.30	6186.04
616.46	5767.08
616.61	6106.46
616.76	6265.61
616.92	6239.87
617.07	6289.02
617.22	6326.47
617.37	5834.96
617.53	6164.97
617.68	6104.12
617.83	6232.85
617.99	6239.87
618.14	6171.99
618.29	6090.07
618.45	6085.39
618.60	6094.76
618.75	5823.25
618.90	6045.60
619.06	5961.34
619.21	6118.16
619.36	6221.14
619.51	6111.14
619.67	6080.71
619.82	5968.37
619.97	6118.16
620.12	6113.48
620.28	6005.81
620.43	6071.35
620.58	6171.99
620.73	6108.80
620.89	6104.12
621.04	6101.78
621.19	6141.57
621.34	5935.60
621.49	6012.84
621.65	5902.83
621.80	5928.58
621.95	5921.56
622.10	5881.77
622.25	5757.72
622.41	5762.40
622.56	5668.78
622.71	5638.35
622.86	5767.08
623.01	5741.33
623.16	5727.29
623.32	5809.21
623.47	5598.56
623.62	5736.65
623.77	5760.06
623.92	5748.36
624.07	5572.82
624.23	5397.28
624.38	5298.97
624.53	5486.22
624.68	5624.31
624.83	5479.19
624.98	5408.98
625.13	5273.23
625.29	5177.26
625.44	5357.49
625.59	5432.38
625.74	5511.96
625.89	5373.87
626.04	5352.81
626.19	5327.06
626.34	5205.35
626.49	5284.93
626.65	5135.14
626.80	5371.53
626.95	5385.57
627.10	5186.63
627.25	5144.50
627.40	4952.57
627.55	4943.21
627.70	4999.38
627.85	4971.30
628.00	5053.22
628.15	5107.05
628.30	5067.26
628.45	5186.63
628.60	5006.41
628.76	4987.68
628.91	5102.37
629.06	5097.69
629.21	5041.51
629.36	5020.45
629.51	4723.20
629.66	4877.68
629.81	4884.70
629.96	4865.97
630.11	5022.79
630.26	5069.60
630.41	5156.20
630.56	4938.53
630.71	5011.09
630.86	4957.25
631.01	4943.21
631.16	4924.49
631.31	4954.91
631.46	4849.59
631.61	4711.50
631.76	5057.90
631.91	4727.88
632.06	4765.33
632.21	4983.00
632.36	4950.23
632.51	4865.97
632.66	4924.49
632.81	4968.96
632.96	4755.97
633.10	4795.76
633.25	4887.04
633.40	4891.72
633.55	4812.14
633.70	4540.64
633.85	4615.54
634.00	4692.77
634.15	4629.58
634.30	4674.05
634.45	4786.40
634.60	5032.15
634.75	4992.36
634.90	4894.06
635.05	4830.87
635.19	4947.89
635.34	4814.48
635.49	4802.78
635.64	4737.24
635.79	4648.30
635.94	4702.14
636.09	4662.35
636.24	4695.11
636.39	4690.43
636.53	4638.94
636.68	4842.57
636.83	4887.04
636.98	4823.84
637.13	4643.62
637.28	4812.14
637.43	4873.00
637.57	4578.09
637.72	4692.77
637.87	4589.79
638.02	4559.36
638.17	4692.77
638.32	4746.61
638.46	4559.36
638.61	4615.54
638.76	4622.56
638.91	4674.05
639.06	4739.58
639.20	4690.43
639.35	4589.79
639.50	4449.36
639.65	4369.78
639.80	4383.82
639.94	4217.65
640.09	4304.25
640.24	4447.02
640.39	4582.77
640.54	4568.73
640.68	4472.76
640.83	4386.16
640.98	4489.15
641.13	4454.04
641.27	4538.30
641.42	4379.14
641.57	4292.54
641.72	4458.72
641.86	4358.08
642.01	4423.61
642.16	4294.88
642.31	4409.57
642.45	4241.05
642.60	4283.18
642.75	4273.82
642.90	4409.57
643.04	4262.12
643.19	4362.76
643.34	4348.72
643.48	4072.53
643.63	4021.04
643.78	4201.26
643.93	4236.37
644.07	4447.02
644.22	4346.37
644.37	4308.93
644.51	4259.78
644.66	4266.80
644.81	4238.71
644.95	4117.00
645.10	4203.60
645.25	4018.70
645.39	4154.45
645.54	4156.79
645.69	4060.83
645.83	4084.23
645.98	3948.48
646.13	3990.61
646.27	4044.45
646.42	4074.87
646.57	4095.94
646.71	4002.32
646.86	3913.38
647.00	3990.61
647.15	3768.26
647.30	4124.02
647.44	3911.04
647.59	3868.91
647.74	3768.26
647.88	3688.68
648.03	3798.69
648.17	3845.50
648.32	3925.08
648.47	3861.88
648.61	3779.97
648.76	3754.22
648.90	3833.80
649.05	3674.64
649.20	3637.19
649.34	3541.23
649.49	3620.81
649.63	3566.98
649.78	3611.45
649.92	3700.39
650.07	3712.09
650.21	3578.68
650.36	3826.78
650.51	3882.95
650.65	3742.52
650.80	3920.40
650.94	3871.25
651.09	3709.75
651.23	3679.32
651.38	3838.48
651.52	3662.94
651.67	3634.85
651.81	3705.07
651.96	3749.54
652.10	3576.34
652.25	3648.90
652.39	3597.40
652.54	3737.84
652.68	3742.52
652.83	3557.61
652.97	3808.05
653.12	3517.83
653.26	3672.30
653.41	3705.07
653.55	3681.66
653.70	3737.84
653.84	3632.51
653.99	3702.73
654.13	3660.60
654.27	3517.83
654.42	3428.88
654.56	3370.37
654.71	3562.30
654.85	3459.31
655.00	3368.03
655.14	3328.24
655.29	3309.52
655.43	3351.65
655.57	3368.03
655.72	2984.18
655.86	2715.02
656.01	2574.59
656.15	2661.19
656.30	2717.36
656.44	2818.00
656.58	3002.91
656.73	3042.70
656.87	3211.22
657.01	3185.47
657.16	3311.86
657.30	3290.79
657.45	3389.10
657.59	3382.07
657.73	3513.14
657.88	3473.36
658.02	3375.05
658.16	3389.10
658.31	3466.33
658.45	3454.63
658.60	3288.45
658.74	3499.10
658.88	3279.09
659.03	3283.77
659.17	3283.77
659.31	3316.54
659.46	3323.56
659.60	3321.22
659.74	3412.50
659.89	3403.14
660.03	3368.03
660.17	3243.98
660.32	3365.69
660.46	3283.77
660.60	3185.47
660.74	3213.56
660.89	3290.79
661.03	3192.49
661.17	2974.82
661.32	3213.56
661.46	3370.37
661.60	3485.06
661.74	3396.12
661.89	3377.39
662.03	3215.90
662.17	3365.69
662.31	3400.80
662.46	3272.07
662.60	3112.91
662.74	3162.06
662.88	3091.85
663.03	3133.98
663.17	2993.55
663.31	3152.70
663.45	3108.23
663.60	2993.55
663.74	3061.42
663.88	3084.83
664.02	3030.99
664.17	2963.12
664.31	3061.42
664.45	2993.55
664.59	2998.23
664.73	3136.32
664.88	3075.46
665.02	3115.25
665.16	3019.29
665.30	3215.90
665.44	3075.46
665.59	2998.23
665.73	3084.83
665.87	2998.23
666.01	3105.89
666.15	3073.12
666.29	3028.65
666.44	3229.94
666.58	3068.44
666.72	2913.97
666.86	2874.18
667.00	2951.42
667.14	2963.12
667.28	2892.90
667.43	2937.37
667.57	2906.95
667.71	2904.60
667.85	2909.29
667.99	2925.67
668.13	2932.69
668.27	2988.86
668.41	2834.39
668.56	2731.41
668.70	2818.00
668.84	2902.26
668.98	2829.71
669.12	2862.48
669.26	3012.27
669.40	2841.41
669.54	2796.94
669.68	2876.52
669.82	2864.82
669.96	2787.58
670.10	2733.75
670.25	2700.98
670.39	2731.41
670.53	2689.28
670.67	2684.59
670.81	2724.38
670.95	3028.65
671.09	2815.66
671.23	2715.02
671.37	2686.94
671.51	2665.87
671.65	2630.76
671.79	2628.42
671.93	2654.17
672.07	2633.10
672.21	2548.84
672.35	2661.19
672.49	2637.78
672.63	2572.25
672.77	2623.74
672.91	2663.53
673.05	2544.16
673.19	2511.39
673.33	2572.25
673.47	2708.00
673.61	2600.34
673.75	2541.82
673.89	2602.68
674.03	2504.37
674.17	2612.04
674.31	2525.44
674.45	2574.59
674.59	2473.95
674.73	2607.36
674.87	2452.88
675.01	2579.27
675.15	2605.02
675.29	2434.16
675.43	2296.07
675.56	2335.85
675.70	2333.51
675.84	2382.67
675.98	2396.71
676.12	2422.45
676.26	2462.24
676.40	2450.54
676.54	2518.42
676.68	2420.11
676.82	2310.11
676.96	2289.04
677.10	2438.84
677.23	2319.47
677.37	2319.47
677.51	2431.82
677.65	2408.41
677.79	2172.02
677.93	2258.62
678.07	2296.07
678.21	2293.72
678.34	2242.23
678.48	2218.83
678.62	2328.83
678.76	2249.25
678.90	2172.02
679.04	2214.15
679.18	2209.47
679.31	2277.34
679.45	2071.37
679.59	2078.40
679.73	2043.29
679.87	2141.59
680.00	2190.74
680.14	2132.23
680.28	2167.34
680.42	2019.88
680.56	2111.16
680.70	2031.58
680.83	2022.22
680.97	2165.00
681.11	2008.18
681.25	1991.80
681.39	1982.43
681.52	2029.24
681.66	2057.33
681.80	1977.75
681.94	2012.86
682.07	2052.65
682.21	2043.29
682.35	2094.78
682.49	1933.28
682.62	2003.50
682.76	1923.92
682.90	2015.20
683.04	2022.22
683.17	1769.44
683.31	1816.26
683.45	1856.04
683.59	1902.86
683.72	1820.94
683.86	1813.92
684.00	1858.39
684.13	1792.85
684.27	1968.39
684.41	1856.04
684.55	1853.70
684.68	1813.92
684.82	1715.61
684.96	1788.17
685.09	1764.76
685.23	1673.48
685.37	1696.89
685.50	1724.97
685.64	1825.62
685.78	1734.34
685.91	1661.78
686.05	1689.87
686.19	1699.23
686.32	1575.18
686.46	1383.26
686.60	1172.61
686.73	1071.97
686.87	1083.67
687.01	987.71
687.14	1055.58
687.28	1071.97
687.42	1160.91
687.55	1296.66
687.69	1270.91
687.82	1277.93
687.96	1322.40
688.10	1406.66
688.23	1301.34
688.37	1352.83
688.50	1350.49
688.64	1226.44
688.78	1217.08
688.91	1151.54
689.05	1301.34
689.18	1313.04
689.32	1320.06
689.46	1376.24
689.59	1301.34
689.73	1226.44
689.86	1174.95
690.00	1268.57
690.13	1156.22
690.27	1207.72
690.41	1390.28
690.54	1252.19
690.68	1203.04
690.81	1299.00
690.95	1317.72
691.08	1273.25
691.22	1406.66
691.35	1390.28
691.49	1289.64
691.62	1240.48
691.76	1273.25
691.89	1280.27
692.03	1128.14
692.16	1376.24
692.30	1390.28
692.43	1266.23
692.57	1193.67
692.70	1121.12
692.84	1160.91
692.97	1242.82
693.11	1254.53
693.24	1242.82
693.38	1268.57
693.51	1373.89
693.65	1233.46
693.78	1015.79
693.92	1249.85
694.05	1039.20
694.19	1114.10
694.32	1132.82
694.45	1137.50
694.59	1184.31
694.72	1249.85
694.86	1086.01
694.99	1144.52
695.13	1067.28
695.26	1177.29
695.39	1097.71
695.53	1107.07
695.66	1071.97
695.80	1074.31
695.93	1170.27
696.07	1039.20
696.20	1111.75
696.33	1109.41
696.47	1111.75
696.60	1181.97
696.73	1060.26
696.87	1083.67
697.00	1170.27
697.14	1156.22
697.27	1036.86
697.40	1071.97
697.54	1004.09
697.67	1004.09
697.80	1039.20
697.94	968.98
698.07	992.39
698.21	999.41
698.34	950.26
698.47	961.96
698.61	917.49
698.74	873.02
698.87	980.68
699.01	929.19
699.14	952.60
699.27	936.21
699.40	931.53
699.54	880.04
699.67	835.57
699.80	990.05
699.94	924.51
700.07	912.81
700.20	884.72
700.34	847.27
700.47	840.25
700.60	788.76
700.73	868.34
700.87	819.19
701.00	809.83
701.13	887.06
701.26	774.72
701.40	819.19
701.53	786.42
701.66	833.23
701.79	835.57
701.93	840.25
702.06	788.76
702.19	765.36
702.32	748.97
702.46	793.44
702.59	819.19
702.72	685.78
702.85	723.23
702.99	791.10
703.12	795.78
703.25	713.86
703.38	763.01
703.51	802.80
703.65	767.70
703.78	774.72
703.91	812.17
704.04	748.97
704.17	772.38
704.31	791.10
704.44	779.40
704.57	781.74
704.70	760.67
704.83	702.16
704.96	681.10
705.10	713.86
705.23	627.26
>>>>>End Processed Spectral Data<<<<<
