SpectraSuite Data File
++++++++++++++++++++++++++++++++++++
Date: Mon Oct 07 14:53:02 GMT-05:00 2013
User: price-jones
Dark Spectrum Present: No
Reference Spectrum Present: No
Number of Sampled Component Spectra: 1
Spectrometers: USB2+H05261
Integration Time (usec): 100000 (USB2+H05261)
Spectra Averaged: 1 (USB2+H05261)
Boxcar Smoothing: 0 (USB2+H05261)
Correct for Electrical Dark: No (USB2+H05261)
Strobe/Lamp Enabled: No (USB2+H05261)
Correct for Detector Non-linearity: No (USB2+H05261)
Correct for Stray Light: No (USB2+H05261)
Number of Pixels in Processed Spectrum: 2048
>>>>>Begin Processed Spectral Data<<<<<
365.73	0.00
365.92	0.00
366.12	0.00
366.32	0.00
366.52	0.00
366.72	0.00
366.91	0.00
367.11	0.00
367.31	0.00
367.51	0.00
367.70	0.00
367.90	0.00
368.10	0.00
368.30	0.00
368.49	0.00
368.69	0.00
368.89	0.00
369.09	0.00
369.28	0.00
369.48	0.00
369.68	0.00
369.87	0.00
370.07	0.00
370.27	0.00
370.47	524.28
370.66	2850.77
370.86	3171.43
371.06	3459.31
371.25	3604.42
371.45	3157.38
371.65	2761.83
371.84	2609.70
372.04	2876.52
372.24	3091.85
372.44	3225.26
372.63	3091.85
372.83	2963.12
373.03	2626.08
373.22	2499.69
373.42	2642.46
373.62	2930.35
373.81	3005.25
374.01	3201.85
374.21	2923.33
374.40	2747.79
374.60	2745.45
374.79	3190.15
374.99	3660.60
375.19	3927.42
375.38	3978.91
375.58	3684.00
375.78	3602.08
375.97	3651.24
376.17	3911.04
376.37	3777.62
376.56	3887.63
376.76	4308.93
376.95	4437.66
377.15	4695.11
377.35	5027.47
377.54	5207.69
377.74	5270.89
377.93	5320.04
378.13	5219.39
378.33	4844.91
378.52	4360.42
378.72	4358.08
378.91	4198.92
379.11	4135.73
379.31	4016.36
379.50	3859.54
379.70	4411.91
379.89	4716.18
380.09	5015.77
380.28	5210.03
380.48	5165.56
380.68	5011.09
380.87	4875.34
381.07	4507.87
381.26	4287.86
381.46	3934.44
381.65	3861.88
381.85	3779.97
382.04	3506.12
382.24	3419.52
382.43	3091.85
382.63	3080.14
382.83	3185.47
383.02	2986.52
383.22	3162.06
383.41	3141.00
383.61	3365.69
383.80	4063.17
384.00	4510.21
384.19	5069.60
384.39	4966.62
384.58	5130.45
384.78	4975.98
384.97	4875.34
385.17	4470.42
385.36	4496.17
385.56	4266.80
385.75	4503.19
385.95	4985.34
386.14	5181.95
386.34	5210.03
386.53	5083.64
386.72	4550.00
386.92	4844.91
387.11	5219.39
387.31	5231.10
387.50	5231.10
387.70	4915.12
387.89	4826.18
388.09	5022.79
388.28	4954.91
388.48	5015.77
388.67	5530.69
388.86	6094.76
389.06	6457.54
389.25	6724.36
389.45	6736.06
389.64	6745.42
389.84	6562.86
390.03	6555.84
390.22	6551.16
390.42	6850.75
390.61	7412.48
390.81	7852.50
391.00	7868.88
391.19	7669.94
391.39	7609.08
391.58	7045.01
391.78	6787.55
391.97	6553.50
392.16	5989.43
392.36	5448.77
392.55	4447.02
392.75	3478.04
392.94	2942.05
393.13	3056.74
393.33	3447.61
393.52	4273.82
393.71	5380.89
393.91	5895.81
394.10	6499.67
394.29	7150.34
394.49	7501.42
394.68	8262.09
394.88	8365.07
395.07	8573.38
395.26	8456.36
395.46	8273.79
395.65	7793.98
395.84	6808.62
396.04	5626.65
396.23	4610.86
396.42	3871.25
396.62	3740.18
396.81	4365.10
397.00	5596.22
397.19	7283.75
397.39	8404.86
397.58	9490.87
397.77	9942.60
397.97	10445.81
398.16	10551.14
398.35	10787.53
398.55	11272.02
398.74	11625.44
398.93	12079.50
399.12	11573.95
399.32	11269.68
399.51	11829.07
399.70	12217.60
399.90	11967.16
400.09	12191.85
400.28	12025.67
400.47	12051.42
400.67	13001.68
400.86	12936.14
401.05	13060.19
401.24	13242.75
401.44	13144.45
401.63	13584.47
401.82	13385.52
402.01	13493.19
402.21	13568.09
402.40	13685.11
402.59	13231.05
402.78	12421.22
402.97	12388.46
403.17	12865.92
403.36	13432.33
403.55	13870.01
403.74	13961.30
403.93	13303.60
404.13	12547.61
404.32	11932.05
404.51	12823.80
404.70	13909.80
404.89	13980.02
405.09	13476.80
405.28	13245.09
405.47	13289.56
405.66	13107.00
405.85	12793.37
406.05	12538.25
406.24	12641.23
406.43	13167.85
406.62	13745.97
406.81	13806.82
407.00	13406.59
407.20	13102.32
407.39	13221.69
407.58	13521.27
407.77	14354.51
407.96	14750.06
408.15	14883.47
408.34	14885.81
408.54	15936.71
408.73	15829.04
408.92	15637.12
409.11	15117.52
409.30	14190.67
409.49	13418.29
409.68	12554.63
409.87	12156.74
410.07	12999.34
410.26	13806.82
410.45	14696.22
410.64	15492.01
410.83	16046.71
411.02	16081.82
411.21	16697.38
411.40	16514.82
411.59	16446.94
411.78	16201.19
411.98	16180.12
412.17	16400.13
412.36	16016.29
412.55	16393.11
412.74	15885.22
412.93	15410.09
413.12	15777.55
413.31	17376.14
413.50	17177.19
413.69	17369.12
413.88	16861.22
414.07	16355.66
414.26	16741.85
414.45	17341.03
414.64	17184.21
414.83	17392.52
415.02	17209.96
415.22	17130.38
415.41	17486.14
415.60	18312.35
415.79	18789.82
415.98	19220.48
416.17	19466.24
416.36	18445.76
416.55	18394.27
416.74	17759.98
416.93	17106.98
417.12	17397.20
417.31	17535.29
417.50	17914.46
417.69	18335.76
417.88	18197.67
418.07	17926.16
418.26	17635.94
418.45	18148.51
418.64	18607.26
418.83	19206.44
419.02	18853.02
419.21	18691.52
419.39	18129.79
419.58	17444.01
419.77	17202.94
419.96	17940.21
420.15	18899.83
420.34	19494.32
420.53	19999.88
420.72	20463.30
420.91	20343.94
421.10	20030.30
421.29	19803.27
421.48	19307.08
421.67	20313.51
421.86	19463.90
422.05	18090.00
422.24	16498.44
422.43	16285.45
422.61	18087.66
422.80	19653.48
422.99	19571.56
423.18	19183.03
423.37	18602.58
423.56	18377.89
423.75	18995.79
423.94	19126.86
424.13	18082.98
424.32	18104.04
424.50	18216.39
424.69	18277.24
424.88	18258.52
425.07	18228.09
425.26	18471.51
425.45	17837.22
425.64	17577.42
425.83	17694.45
426.01	18600.24
426.20	19344.53
426.39	18801.52
426.58	17385.50
426.77	16194.17
426.96	15716.70
427.15	16465.67
427.33	17958.93
427.52	18139.15
427.71	18405.97
427.90	18317.03
428.09	18239.79
428.28	17570.40
428.46	17207.62
428.65	16954.84
428.84	17380.82
429.03	17392.52
429.22	16472.69
429.40	15690.95
429.59	14288.97
429.78	12662.30
429.97	12896.35
430.16	12865.92
430.34	12868.27
430.53	12964.23
430.72	13172.54
430.91	14654.09
431.10	17338.69
431.28	20327.55
431.47	21998.70
431.66	21886.35
431.85	19873.49
432.03	18457.46
432.22	17820.84
432.41	18214.05
432.60	20664.59
432.79	21479.10
432.97	22092.32
433.16	21106.95
433.35	19066.00
433.54	17289.54
433.72	16423.54
433.91	16828.45
434.10	19218.14
434.28	20570.97
434.47	21453.35
434.66	20856.51
434.85	20470.33
435.03	20573.31
435.22	21130.36
435.41	22258.49
435.59	22195.30
435.78	22265.52
435.97	23098.75
436.16	23461.53
436.34	22817.88
436.53	21958.91
436.72	22349.78
436.90	21186.53
437.09	21156.10
437.28	20900.98
437.46	21844.22
437.65	21511.86
437.84	20060.73
438.02	18457.46
438.21	18593.22
438.40	19286.01
438.58	21109.29
438.77	21345.69
438.96	21504.84
439.14	22817.88
439.33	23075.34
439.52	23634.73
439.70	22862.35
439.89	22293.60
440.08	21734.21
440.26	21495.48
440.45	22616.60
440.63	24484.34
440.82	25474.39
441.01	24833.08
441.19	24753.51
441.38	25050.75
441.57	26029.10
441.75	26155.49
441.94	26260.81
442.12	26302.94
442.31	26710.19
442.50	26567.42
442.68	26305.28
442.87	26218.68
443.05	25818.45
443.24	26068.89
443.43	26677.43
443.61	27297.67
443.80	27711.94
443.98	26192.94
444.17	25886.32
444.35	27564.49
444.54	27730.67
444.73	27599.60
444.91	26354.43
445.10	25619.50
445.28	24414.13
445.47	24013.90
445.65	24112.20
445.84	24943.09
446.02	25647.59
446.21	26384.86
446.39	26136.76
446.58	26235.06
446.77	26792.11
446.95	27154.90
447.14	28056.00
447.32	28772.21
447.51	28002.17
447.69	26703.17
447.88	26366.13
448.06	27075.32
448.25	27438.10
448.43	27819.61
448.62	26984.04
448.80	26869.35
448.99	26984.04
449.17	27414.69
449.36	27426.40
449.54	28320.48
449.73	28421.13
449.91	29202.86
450.10	29898.00
450.28	29916.73
450.46	29907.37
450.65	29951.84
450.83	29797.36
451.02	28975.83
451.20	28959.45
451.39	29003.92
451.57	28912.64
451.76	29013.28
451.94	28788.59
452.13	28224.52
452.31	26696.15
452.49	25642.91
452.68	26356.77
452.86	26256.13
453.05	26307.62
453.23	27337.46
453.42	28161.33
453.60	28208.14
453.78	28620.07
453.97	28559.22
454.15	28723.05
454.34	27812.59
454.52	28402.40
454.70	27487.25
454.89	27716.62
455.07	27892.16
455.26	28451.55
455.44	29528.20
455.62	29996.31
455.81	30260.79
455.99	29603.10
456.17	29596.07
456.36	29675.65
456.54	30455.05
456.73	30401.22
456.91	31044.87
457.09	31157.21
457.28	31735.32
457.46	30202.27
457.64	30146.10
457.83	29015.62
458.01	28774.55
458.19	29228.61
458.38	29397.13
458.56	30230.36
458.74	30560.37
458.93	29909.71
459.11	29909.71
459.29	29408.83
459.48	29893.32
459.66	29668.63
459.84	30110.99
460.03	30286.53
460.21	30230.36
460.39	31019.12
460.57	31316.37
460.76	31342.11
460.94	31346.79
461.12	30810.81
461.31	31527.02
461.49	30941.88
461.67	31337.43
461.85	31960.02
462.04	32105.13
462.22	32439.82
462.40	32109.81
462.59	32236.20
462.77	31903.84
462.95	31957.67
463.13	31742.35
463.32	31171.25
463.50	31225.09
463.68	31033.16
463.86	31061.25
464.05	30759.32
464.23	29963.54
464.41	30061.84
464.59	29841.83
464.78	31292.96
464.96	30719.53
465.14	30572.08
465.32	31597.23
465.50	32046.62
465.69	32746.44
465.87	31342.11
466.05	30761.66
466.23	29214.57
466.41	28790.93
466.60	29853.53
466.78	29809.06
466.96	30216.32
467.14	30696.13
467.32	31498.93
467.51	31349.14
467.69	30047.80
467.87	30525.27
468.05	31220.41
468.23	31140.83
468.41	30738.26
468.60	31218.07
468.78	31735.32
468.96	30567.40
469.14	31281.26
469.32	31700.22
469.50	30614.21
469.69	30429.30
469.87	30029.07
470.05	30008.01
470.23	29771.61
470.41	30031.41
470.59	30497.18
470.77	30361.43
470.95	31316.37
471.14	31938.95
471.32	31845.33
471.50	33137.30
471.68	33450.94
471.86	34162.46
472.04	33947.13
472.22	33673.29
472.40	32006.83
472.58	32126.19
472.77	31857.03
472.95	32393.01
473.13	33387.74
473.31	32355.57
473.49	32826.01
473.67	33216.88
473.85	34000.96
474.03	34029.05
474.21	34309.91
474.39	34686.74
474.57	35129.10
474.75	34794.40
474.93	34450.35
475.12	33865.21
475.30	33867.55
475.48	34534.60
475.66	34773.34
475.84	34323.96
476.02	33720.10
476.20	33268.37
476.38	34132.03
476.56	35377.20
476.74	35562.10
476.92	35583.16
477.10	36154.26
477.28	37600.71
477.46	36919.61
477.64	37654.54
477.82	37858.17
478.00	37357.29
478.18	37340.91
478.36	37326.86
478.54	36851.73
478.72	37305.80
478.90	38253.72
479.08	39133.76
479.26	40098.06
479.44	39735.27
479.62	39718.89
479.80	39660.38
479.98	39906.13
480.16	40514.67
480.34	39566.76
480.52	40044.23
480.70	39665.06
480.88	40112.10
481.06	41226.20
481.24	41450.89
481.41	42377.74
481.59	42944.15
481.77	41977.51
481.95	41523.44
482.13	41694.30
482.31	41703.67
482.49	42462.00
482.67	42113.26
482.85	42635.20
483.03	43007.34
483.21	43503.54
483.39	43901.43
483.57	42714.78
483.74	42424.55
483.92	42808.40
484.10	42754.57
484.28	43725.89
484.46	44404.64
484.64	44634.02
484.82	43763.34
485.00	43328.00
485.18	42602.43
485.35	41144.28
485.53	37752.84
485.71	34888.03
485.89	34543.97
486.07	36631.72
486.25	39782.09
486.43	41684.94
486.61	42373.06
486.78	42246.67
486.96	42302.84
487.14	44371.88
487.32	45006.16
487.50	45972.80
487.68	47353.72
487.85	47622.88
488.03	47819.49
488.21	47126.69
488.39	46358.99
488.57	45453.20
488.75	45219.15
488.92	46581.34
489.10	48968.69
489.28	50653.87
489.46	51327.95
489.64	50859.84
489.81	51196.88
489.99	50920.70
490.17	51009.64
490.35	51229.65
490.53	50518.12
490.70	50328.54
490.88	50387.05
491.06	51386.46
491.24	51143.05
491.41	50174.06
491.59	48126.10
491.77	47498.83
491.95	48854.00
492.13	50246.62
492.30	51430.93
492.48	52481.83
492.66	53069.31
492.84	52715.89
493.01	52472.47
493.19	51842.87
493.37	51634.56
493.54	51470.72
493.72	52355.44
493.90	53130.16
494.08	54064.03
494.25	54115.53
494.43	54471.29
494.61	54925.35
494.79	54981.52
494.96	54614.06
495.14	53832.32
495.32	52802.49
495.49	52430.34
495.67	53593.59
495.85	54974.50
496.02	55428.57
496.20	55203.88
496.38	54703.00
496.55	54494.69
496.73	55133.66
496.91	55035.36
497.09	55622.83
497.26	55983.27
497.44	55529.21
497.62	54672.57
497.79	54033.61
497.97	52715.89
498.14	53083.35
498.32	54422.14
498.50	55063.44
498.67	55781.99
498.85	55655.60
499.03	55789.01
499.20	55927.10
499.38	55746.88
499.56	55716.45
499.73	55484.74
499.91	54848.11
500.08	54206.81
500.26	53881.47
500.44	54152.97
500.61	54628.10
500.79	54740.45
500.97	54220.85
501.14	54307.45
501.32	53996.16
501.49	53851.05
501.67	54192.76
501.84	54747.47
502.02	55332.60
502.20	55669.64
502.37	55597.09
502.55	55700.07
502.72	56095.62
502.90	56603.52
503.07	56067.53
503.25	55852.20
503.43	54995.57
503.60	54148.29
503.78	53595.93
503.95	54447.88
504.13	55608.79
504.30	56245.41
504.48	56002.00
504.65	55695.39
504.83	55936.46
505.01	56657.35
505.18	56982.68
505.36	57516.32
505.53	57460.15
505.71	57670.80
505.88	57558.45
506.06	57109.07
506.23	56851.61
506.41	56650.33
506.58	56797.78
506.76	56640.96
506.93	56631.60
507.11	56493.51
507.28	56947.57
507.46	56130.73
507.63	55512.83
507.81	55341.97
507.98	55702.41
508.16	56327.33
508.33	56741.61
508.50	57385.25
508.68	57364.19
508.85	57904.85
509.03	57916.56
509.20	57556.11
509.38	56844.59
509.55	56317.97
509.73	56378.82
509.90	56914.81
510.08	57303.34
510.25	57289.29
510.42	56727.56
510.60	56842.25
510.77	57181.63
510.95	57872.09
511.12	57778.46
511.30	58101.46
511.47	58206.78
511.64	58419.77
511.82	57900.17
511.99	57080.98
512.17	56664.37
512.34	56289.88
512.51	56559.05
512.69	56669.05
512.86	56914.81
513.04	57373.55
513.21	57317.38
513.38	56844.59
513.56	56353.08
513.73	55599.43
513.90	56083.92
514.08	56313.29
514.25	56357.76
514.43	56708.84
514.60	56868.00
514.77	56844.59
514.95	56879.70
515.12	56856.29
515.29	57333.76
515.47	57783.15
515.64	57748.04
515.81	57436.75
515.99	56947.57
516.16	55276.43
516.33	52704.18
516.51	51487.10
516.68	50576.64
516.85	50035.97
517.03	50923.04
517.20	53539.75
517.37	56109.66
517.54	57020.13
517.72	56416.27
517.89	53893.18
518.06	51629.88
518.24	52442.04
518.41	54372.99
518.58	55487.08
518.75	55681.34
518.93	55779.65
519.10	55730.50
519.27	56334.35
519.45	56591.81
519.62	57380.57
519.79	57551.43
519.96	57394.62
520.14	56856.29
520.31	56254.78
520.48	56161.15
520.65	56605.86
520.83	57469.51
521.00	57680.16
521.17	57389.94
521.34	57125.46
521.52	57425.04
521.69	58024.22
521.86	58461.90
522.03	57956.35
522.20	56863.32
522.38	55847.52
522.55	55660.28
522.72	56477.13
522.89	56580.11
523.07	56800.12
523.24	57059.92
523.41	58071.03
523.58	58241.89
523.75	58539.14
523.92	58548.50
524.10	58277.00
524.27	58464.24
524.44	57949.32
524.61	58061.67
524.78	58052.31
524.96	57724.63
525.13	57939.96
525.30	58082.73
525.47	58546.16
525.64	58459.56
525.81	57659.10
525.98	56271.16
526.16	54983.86
526.33	54181.06
526.50	54000.84
526.67	53485.92
526.84	54333.20
527.01	55040.04
527.18	56039.45
527.36	57066.94
527.53	57801.87
527.70	57979.75
527.87	57336.10
528.04	56956.94
528.21	57584.20
528.38	58244.23
528.55	58670.21
528.72	58988.52
528.89	59288.11
529.07	58911.28
529.24	58124.86
529.41	57495.26
529.58	56886.72
529.75	57275.25
529.92	57565.48
530.09	57841.66
530.26	58464.24
530.43	58672.55
530.60	58824.68
530.77	59025.97
530.94	58990.86
531.11	58534.46
531.28	58042.95
531.46	58078.05
531.63	58021.88
531.80	58059.33
531.97	57766.76
532.14	56767.35
532.31	55779.65
532.48	55077.49
532.65	55522.19
532.82	56292.22
532.99	57254.18
533.16	57628.67
533.33	57972.73
533.50	58131.89
533.67	57436.75
533.84	56966.30
534.01	57258.87
534.18	57045.88
534.35	57511.64
534.52	57474.20
534.69	57640.37
534.86	57874.43
535.03	58197.42
535.20	58534.46
535.37	59011.93
535.54	59131.29
535.71	58644.46
535.88	58372.96
536.05	57642.71
536.22	57373.55
536.38	57139.50
536.55	56519.26
536.72	55941.14
536.89	55901.36
537.06	57010.77
537.23	57911.88
537.40	58017.20
537.57	58033.58
537.74	57722.29
537.91	57769.10
538.08	57771.44
538.25	57790.17
538.42	57895.49
538.59	57778.46
538.75	57036.51
538.92	56779.06
539.09	56732.25
539.26	56643.30
539.43	56631.60
539.60	56573.09
539.77	56816.50
539.94	56647.99
540.11	55676.66
540.28	55351.33
540.44	55435.59
540.61	55650.92
540.78	56058.17
540.95	56343.72
541.12	56655.01
541.29	57064.60
541.46	57123.11
541.62	57317.38
541.79	57111.41
541.96	56439.68
542.13	56470.11
542.30	56893.74
542.47	56989.70
542.63	56678.41
542.80	56484.15
542.97	56685.43
543.14	56566.07
543.31	56622.24
543.48	57265.89
543.64	57893.15
543.81	58045.29
543.98	57928.26
544.15	57146.52
544.32	56713.52
544.48	56816.50
544.65	57214.40
544.82	57457.81
544.99	57123.11
545.16	56727.56
545.32	56757.99
545.49	57481.22
545.66	57696.55
545.83	57282.27
546.00	57190.99
546.16	56797.78
546.33	56757.99
546.50	57078.64
546.67	57350.15
546.83	56924.17
547.00	56781.40
547.17	56217.33
547.34	55753.90
547.50	55569.00
547.67	55903.70
547.84	56222.01
548.00	56601.18
548.17	57169.93
548.34	56912.47
548.51	56720.54
548.67	56687.78
548.84	57144.18
549.01	56942.89
549.18	56891.40
549.34	56718.20
549.51	56933.53
549.68	56701.82
549.84	56458.40
550.01	56371.80
550.18	56226.69
550.34	56437.34
550.51	56353.08
550.68	56411.59
550.84	55807.73
551.01	56053.49
551.18	56172.86
551.34	56322.65
551.51	56828.21
551.68	56935.87
551.84	56910.13
552.01	56722.88
552.18	56502.87
552.34	56088.60
552.51	55559.64
552.68	55339.63
552.84	55807.73
553.01	56158.81
553.18	55924.76
553.34	56184.56
553.51	56238.39
553.67	56598.83
553.84	56685.43
554.01	56610.54
554.17	56418.61
554.34	56376.48
554.51	56680.75
554.67	56802.46
554.84	56711.18
555.00	56353.08
555.17	56151.79
555.33	56002.00
555.50	56119.02
555.67	56156.47
555.83	55929.44
556.00	55508.14
556.16	55578.36
556.33	55234.30
556.50	55033.02
556.66	55220.26
556.83	54866.84
556.99	55110.25
557.16	54981.52
557.32	55395.80
557.49	55564.32
557.65	55632.19
557.82	55297.50
557.98	55323.24
558.15	54490.01
558.32	53928.28
558.48	52980.37
558.65	53272.93
558.81	53710.61
558.98	54192.76
559.14	54227.87
559.31	54431.50
559.47	54452.56
559.64	53982.12
559.80	53712.95
559.97	54085.10
560.13	54520.44
560.30	55313.88
560.46	55826.46
560.63	56135.41
560.79	55725.81
560.96	55772.63
561.12	54457.24
561.29	53537.41
561.45	53689.55
561.61	54309.79
561.78	54588.31
561.94	54354.26
562.11	54281.70
562.27	54164.68
562.44	54794.28
562.60	54820.03
562.77	54990.89
562.93	54656.19
563.10	54714.70
563.26	54380.01
563.42	54326.17
563.59	54405.75
563.75	54160.00
563.92	54450.22
564.08	54145.95
564.24	54515.76
564.41	54377.67
564.57	54485.33
564.74	54199.79
564.90	54108.50
565.07	54026.59
565.23	53715.29
565.39	52856.32
565.56	52573.11
565.72	52498.22
565.88	53095.05
566.05	52978.03
566.21	53104.41
566.38	53499.97
566.54	53453.15
566.70	53626.35
566.87	53996.16
567.03	54251.28
567.19	54550.87
567.36	54075.74
567.52	53956.37
567.68	53460.18
567.85	53237.83
568.01	52694.82
568.17	52240.76
568.34	52385.87
568.50	52105.01
568.66	52367.15
568.83	52652.69
568.99	52832.91
569.15	53345.49
569.32	53116.12
569.48	52617.58
569.64	52465.45
569.81	51964.57
569.97	52158.84
570.13	52006.70
570.30	51384.12
570.46	51365.40
570.62	50810.69
570.78	50174.06
570.95	50604.72
571.11	51686.05
571.27	51693.07
571.43	52079.26
571.60	52222.03
571.76	52355.44
571.92	52987.39
572.09	53024.84
572.25	53055.26
572.41	53066.97
572.57	52772.06
572.74	52484.17
572.90	52289.91
573.06	52198.63
573.22	52266.50
573.38	52435.02
573.55	52207.99
573.71	52317.99
573.87	52371.83
574.03	52238.42
574.20	51971.60
574.36	51686.05
574.52	51578.39
574.68	51157.09
574.84	50714.73
575.01	50422.16
575.17	50529.83
575.33	50930.06
575.49	51068.15
575.65	51021.34
575.82	51217.94
575.98	50602.38
576.14	50958.14
576.30	51267.09
576.46	51377.10
576.62	51522.21
576.79	51669.67
576.95	51129.00
577.11	50897.29
577.27	50986.23
577.43	50979.21
577.59	50731.11
577.75	50024.27
577.92	49621.70
578.08	49406.37
578.24	48961.67
578.40	49841.71
578.56	49715.32
578.72	50195.13
578.88	50431.52
579.04	50497.06
579.21	50714.73
579.37	50513.44
579.53	50637.49
579.69	50344.92
579.85	50937.08
580.01	50667.92
580.17	49815.96
580.33	50230.24
580.49	50527.48
580.65	50569.61
580.82	51028.36
580.98	50586.00
581.14	50330.88
581.30	50904.31
581.46	50284.07
581.62	50665.58
581.78	50990.91
581.94	51096.24
582.10	51143.05
582.26	50817.71
582.42	51033.04
582.58	50939.42
582.74	50869.20
582.90	50822.39
583.06	50735.79
583.22	50726.43
583.38	50501.74
583.54	50419.82
583.70	50417.48
583.86	50756.86
584.02	50220.87
584.18	50272.37
584.34	50518.12
584.50	50356.63
584.66	50117.89
584.82	49841.71
584.98	49535.10
585.14	49242.53
585.30	48083.97
585.46	48142.48
585.62	48144.82
585.78	48273.55
585.94	48535.69
586.10	48884.43
586.26	49272.96
586.42	49483.61
586.58	49373.60
586.74	49614.68
586.90	49099.76
587.06	48971.03
587.22	49202.74
587.38	48421.00
587.54	48460.79
587.70	48390.58
587.86	47983.32
588.02	47547.98
588.18	47482.45
588.34	46162.39
588.49	44055.90
588.65	42122.62
588.81	41989.21
588.97	41727.07
589.13	41979.85
589.29	41434.50
589.45	42986.28
589.61	44051.22
589.77	45350.22
589.93	46511.13
590.08	46878.59
590.24	47196.90
590.40	47222.65
590.56	47379.46
590.72	46923.06
590.88	47021.36
591.04	46277.07
591.20	46047.70
591.35	45961.10
591.51	46567.30
591.67	46373.03
591.83	46497.08
591.99	46384.74
592.15	46621.13
592.31	46719.43
592.46	46672.62
592.62	46485.38
592.78	45546.82
592.94	46101.53
593.10	46024.29
593.26	46480.70
593.41	46876.25
593.57	46614.11
593.73	46005.57
593.89	45897.91
594.05	45593.64
594.20	44823.60
594.36	44718.28
594.52	44481.88
594.68	44549.76
594.84	45268.30
594.99	45670.87
595.15	45521.08
595.31	45581.93
595.47	45972.80
595.62	45708.32
595.78	45827.69
595.94	46089.83
596.10	46571.98
596.25	46019.61
596.41	45584.27
596.57	45563.21
596.73	45869.82
596.88	45516.40
597.04	45713.00
597.20	45078.72
597.36	44891.48
597.51	44849.35
597.67	45059.99
597.83	44870.41
597.99	44273.57
598.14	44495.92
598.30	44488.90
598.46	44371.88
598.61	44718.28
598.77	44500.61
598.93	44612.95
599.09	44928.92
599.24	45139.57
599.40	44882.11
599.56	44861.05
599.71	44797.85
599.87	44877.43
600.03	44360.17
600.18	44367.20
600.34	43697.80
600.50	43599.50
600.65	43978.67
600.81	44486.56
600.97	44240.81
601.12	44156.55
601.28	44002.07
601.44	43899.09
601.59	43723.55
601.75	42887.98
601.91	43391.19
602.06	43430.98
602.22	43180.54
602.37	43370.13
602.53	43672.06
602.69	44091.01
602.84	44275.91
603.00	44678.49
603.16	44524.01
603.31	44538.05
603.47	44612.95
603.62	44210.38
603.78	44395.28
603.94	43711.84
604.09	43945.90
604.25	44243.15
604.40	43889.73
604.56	44271.23
604.71	44252.51
604.87	43892.07
605.03	43789.08
605.18	43503.54
605.34	42967.55
605.49	43248.42
605.65	43461.41
605.80	43309.27
605.96	43082.24
606.12	42864.57
606.27	42869.25
606.43	42976.92
606.58	43089.26
606.74	43372.47
606.89	43150.12
607.05	43304.59
607.20	43601.84
607.36	42763.93
607.51	42277.10
607.67	42408.17
607.82	41794.95
607.98	41783.24
608.13	42281.78
608.29	41612.38
608.44	41792.61
608.60	41113.85
608.75	41684.94
608.91	41904.95
609.06	41127.89
609.22	42000.91
609.37	41265.99
609.53	42010.28
609.68	40708.94
609.84	40598.93
609.99	40130.83
610.15	40502.97
610.30	40835.33
610.46	41113.85
610.61	41404.08
610.76	41450.89
610.92	42010.28
611.07	41907.29
611.23	42036.02
611.38	41841.76
611.54	41132.57
611.69	40907.88
611.84	39765.70
612.00	39981.03
612.15	39892.09
612.31	40140.19
612.46	40399.99
612.62	40271.26
612.77	40275.94
612.92	40814.26
613.08	39796.13
613.23	38895.02
613.39	38373.08
613.54	38387.13
613.69	38483.09
613.85	38969.92
614.00	38909.07
614.15	39707.19
614.31	39765.70
614.46	39515.26
614.62	39475.48
614.77	39681.44
614.92	39679.10
615.08	39201.63
615.23	39037.80
615.38	39093.97
615.54	38096.90
615.69	37640.50
615.84	36706.62
616.00	36739.39
616.15	36816.63
616.30	37521.13
616.46	36950.04
616.61	36921.95
616.76	36804.92
616.92	37301.12
617.07	37993.92
617.22	37879.23
617.37	38480.75
617.53	38525.22
617.68	38714.80
617.83	38888.00
617.99	38604.80
618.14	38710.12
618.29	38466.70
618.45	37916.68
618.60	37354.95
618.75	36952.38
618.90	36999.19
619.06	37839.44
619.21	38153.07
619.36	38094.56
619.51	38260.74
619.67	37759.86
619.82	37907.32
619.97	37958.81
620.12	37806.67
620.28	37944.76
620.43	38139.03
620.58	37656.88
620.73	37596.03
620.89	37511.77
621.04	37055.36
621.19	37053.02
621.34	36369.58
621.49	36435.12
621.65	36360.22
621.80	36547.47
621.95	35791.47
622.10	36058.29
622.25	36556.83
622.41	35967.01
622.56	35711.89
622.71	35358.47
622.86	35108.04
623.01	35763.39
623.16	35646.36
623.32	35857.01
623.47	35618.27
623.62	35461.46
623.77	35225.06
623.92	35311.66
624.07	34492.47
624.23	34588.44
624.38	34213.95
624.53	34899.73
624.68	34871.64
624.83	34412.90
624.98	34115.65
625.13	33738.82
625.29	34024.37
625.44	33989.26
625.59	33900.32
625.74	34431.62
625.89	34553.33
626.04	34326.30
626.19	34293.53
626.34	34382.47
626.49	34352.04
626.65	34078.20
626.80	34403.53
626.95	34136.71
627.10	33998.62
627.25	33324.55
627.40	32395.35
627.55	31660.43
627.70	31030.82
627.85	31683.83
628.00	32025.55
628.15	32776.86
628.30	32638.77
628.45	32893.89
628.60	32723.03
628.76	33216.88
628.91	32622.39
629.06	32622.39
629.21	32285.35
629.36	32311.10
629.51	32119.17
629.66	31594.89
629.81	31290.62
629.96	31681.49
630.11	32175.34
630.26	32400.04
630.41	32465.57
630.56	32301.73
630.71	32009.17
630.86	32519.40
631.01	31950.65
631.16	31510.63
631.31	30909.11
631.46	30808.47
631.61	30717.19
631.76	31625.32
631.91	31316.37
632.06	31842.99
632.21	31737.66
632.36	31992.78
632.51	31927.25
632.66	32032.57
632.81	32182.37
632.96	31452.12
633.10	31260.20
633.25	30941.88
633.40	31140.83
633.55	31407.65
633.70	31358.50
633.85	31267.22
634.00	31641.70
634.15	31182.96
634.30	31309.35
634.45	31260.20
634.60	31325.73
634.75	31707.24
634.90	31428.71
635.05	31007.42
635.19	31339.77
635.34	31019.12
635.49	30841.24
635.64	30527.61
635.79	30508.88
635.94	30373.13
636.09	30731.23
636.24	30852.94
636.39	30850.60
636.53	30986.35
636.68	30850.60
636.83	30401.22
636.98	31173.60
637.13	30906.77
637.28	31316.37
637.43	31250.83
637.57	30841.24
637.72	30927.84
637.87	30457.39
638.02	30389.52
638.17	30859.96
638.32	30614.21
638.46	30574.42
638.61	30801.45
638.76	29890.98
638.91	30174.19
639.06	29778.64
639.20	29780.98
639.35	29455.64
639.50	29142.01
639.65	29118.60
639.80	29216.91
639.94	29593.73
640.09	29575.01
640.24	29582.03
640.39	29460.32
640.54	29439.26
640.68	29111.58
640.83	29158.39
640.98	28627.09
641.13	28790.93
641.27	29163.08
641.42	28863.49
641.57	29142.01
641.72	28346.23
641.86	28779.23
642.01	28545.17
642.16	29111.58
642.31	29371.38
642.45	29359.68
642.60	29134.99
642.75	28496.02
642.90	28769.86
643.04	28804.97
643.19	28503.04
643.34	28226.86
643.48	28212.82
643.63	28318.14
643.78	28247.93
643.93	28552.20
644.07	28912.64
644.22	29064.77
644.37	28638.80
644.51	28582.62
644.66	28472.62
644.81	28067.70
644.95	28189.41
645.10	27733.01
645.25	27580.87
645.39	27653.43
645.54	27672.15
645.69	27269.58
645.83	27087.02
645.98	26347.41
646.13	26747.64
646.27	26803.82
646.42	26939.57
646.57	26810.84
646.71	26616.57
646.86	26663.38
647.00	26670.40
647.15	26455.08
647.30	26553.38
647.44	25996.33
647.59	25888.67
647.74	25937.82
647.88	26106.34
648.03	25979.95
648.17	25944.84
648.32	26368.48
648.47	26476.14
648.61	26422.31
648.76	25886.32
648.90	25324.60
649.05	24802.66
649.20	23971.77
649.34	24226.89
649.49	24100.50
649.63	24919.68
649.78	25397.15
649.92	25708.44
650.07	26429.33
650.21	26541.68
650.36	26274.85
650.51	26710.19
650.65	27030.85
650.80	26153.15
650.94	26036.12
651.09	25518.86
651.23	24919.68
651.38	24737.12
651.52	24533.50
651.67	24582.65
651.81	25294.17
651.96	25596.10
652.10	25481.41
652.25	25319.92
652.39	25783.34
652.54	25956.54
652.68	25259.06
652.83	25092.88
652.97	25277.79
653.12	25390.13
653.26	25666.31
653.41	25750.57
653.55	25565.67
653.70	25694.40
653.84	25591.42
653.99	24957.13
654.13	24744.14
654.27	24236.25
654.42	24332.21
654.56	23943.68
654.71	24102.84
654.85	23943.68
655.00	24112.20
655.14	23726.01
655.29	23098.75
655.43	22820.22
655.57	21802.09
655.72	20238.61
655.86	18724.29
656.01	17877.01
656.15	18150.85
656.30	19199.41
656.44	20299.47
656.58	21326.96
656.73	21982.31
656.87	22373.18
657.01	22562.76
657.16	22855.33
657.30	23419.40
657.45	23765.80
657.59	23541.11
657.73	23583.24
657.88	23758.78
658.02	23775.16
658.16	23796.23
658.31	23866.44
658.45	23388.97
658.60	23557.49
658.74	23545.79
658.88	23269.61
659.03	23028.53
659.17	23094.07
659.31	22970.02
659.46	23414.72
659.60	23222.80
659.74	23424.08
659.89	23571.54
660.03	23559.83
660.17	23536.43
660.32	23531.75
660.46	23571.54
660.60	23117.47
660.74	23098.75
660.89	23243.86
661.03	23101.09
661.17	22850.65
661.32	23377.27
661.46	23236.84
661.60	23405.36
661.74	23215.77
661.89	23089.38
662.03	23054.28
662.17	23033.21
662.31	23058.96
662.46	23077.68
662.60	23131.51
662.74	22590.85
662.88	22497.23
663.03	22153.17
663.17	22064.23
663.31	22169.55
663.45	22485.53
663.60	22293.60
663.74	22071.25
663.88	22057.21
664.02	22279.56
664.17	22068.91
664.31	21989.33
664.45	22225.73
664.59	22265.52
664.73	21984.65
664.88	22139.13
665.02	21891.03
665.16	21888.69
665.30	22146.15
665.44	21874.65
665.59	21680.38
665.73	21764.64
665.87	21179.51
666.01	20989.92
666.15	20987.58
666.29	21238.02
666.44	21397.18
666.58	21144.40
666.72	20781.62
666.86	21270.79
667.00	21329.30
667.14	20975.88
667.28	21013.33
667.43	20786.30
667.57	20926.73
667.71	20432.88
667.85	20947.79
667.99	20875.24
668.13	20863.54
668.27	21172.49
668.41	20896.30
668.56	20528.84
668.70	20711.40
668.84	20706.72
668.98	20489.05
669.12	20482.03
669.26	20308.83
669.40	20276.06
669.54	20336.91
669.68	20451.60
669.82	20088.82
669.96	20077.12
670.10	20025.62
670.25	19632.41
670.39	19850.08
670.53	19702.63
670.67	19814.98
670.81	19754.12
670.95	19463.90
671.09	19286.01
671.23	19407.72
671.37	19311.76
671.51	19075.37
671.65	19000.47
671.79	19012.17
671.93	19391.34
672.07	19524.75
672.21	19014.51
672.35	19248.57
672.49	19147.92
672.63	19187.71
672.77	18974.72
672.91	19035.58
673.05	18780.46
673.19	18707.90
673.33	19005.15
673.47	18640.03
673.61	19199.41
673.75	18822.59
673.89	18735.99
674.03	18792.16
674.17	18473.85
674.31	18373.21
674.45	18267.88
674.59	18097.02
674.73	18047.87
674.87	17912.12
675.01	17907.44
675.15	18097.02
675.29	18281.92
675.43	18092.34
675.56	18047.87
675.70	18068.94
675.84	17717.86
675.98	17352.73
676.12	17930.84
676.26	17813.82
676.40	17696.79
676.54	17406.56
676.68	17504.87
676.82	17202.94
676.96	17146.76
677.10	17064.85
677.23	17003.99
677.37	17092.93
677.51	17132.72
677.65	17301.24
677.79	16840.15
677.93	16819.09
678.07	16734.83
678.21	16493.76
678.34	16662.27
678.48	16336.94
678.62	16194.17
678.76	16594.40
678.90	16545.25
679.04	16475.03
679.18	16407.16
679.31	16365.03
679.45	15995.22
679.59	15894.58
679.73	16386.09
679.87	16248.00
680.00	16102.89
680.14	15768.19
680.28	15843.09
680.42	15517.75
680.56	15477.96
680.70	15438.17
680.83	15403.07
680.97	15339.87
681.11	15386.68
681.25	15372.64
681.39	15211.14
681.52	15536.48
681.66	15183.06
681.80	15475.62
681.94	15264.97
682.07	15206.46
682.21	15351.57
682.35	14759.42
682.49	15056.67
682.62	14827.29
682.76	14712.61
682.90	14743.03
683.04	14771.12
683.17	14452.81
683.31	14583.88
683.45	14431.74
683.59	14235.14
683.72	14242.16
683.86	13853.63
684.00	13923.85
684.13	13729.58
684.27	13638.30
684.41	13844.27
684.55	13757.67
684.68	13907.46
684.82	13884.06
684.96	13956.61
685.09	13598.51
685.23	13291.90
685.37	13060.19
685.50	13139.77
685.64	13455.74
685.78	13083.59
685.91	13511.91
686.05	13172.54
686.19	12652.94
686.32	11756.51
686.46	10628.37
686.60	9235.75
686.73	8870.63
686.87	8259.75
687.01	8145.06
687.14	8400.18
687.28	8596.79
687.42	9006.38
687.55	9294.27
687.69	10143.88
687.82	10436.45
687.96	10761.78
688.10	10450.49
688.23	10686.89
688.37	10361.55
688.50	10195.37
688.64	10312.40
688.78	9951.96
688.91	10190.69
689.05	10052.60
689.18	9603.22
689.32	9844.29
689.46	10040.90
689.59	9905.15
689.73	9951.96
689.86	9923.87
690.00	10080.69
690.13	10057.28
690.27	10223.46
690.41	10171.97
690.54	10228.14
690.68	10139.20
690.81	10452.83
690.95	10312.40
691.08	10300.70
691.22	10186.01
691.35	10207.08
691.49	10193.03
691.62	10321.76
691.76	10516.03
691.89	10457.51
692.03	10073.67
692.16	9916.85
692.30	9919.19
692.43	9834.93
692.57	9858.34
692.70	9944.94
692.84	9673.43
692.97	9628.96
693.11	9563.43
693.24	9738.97
693.38	9666.41
693.51	9432.36
693.65	9514.28
693.78	9221.71
693.92	9242.78
694.05	9167.88
694.19	9202.99
694.32	9376.19
694.45	9289.59
694.59	9366.82
694.72	9334.06
694.86	9191.28
694.99	9191.28
695.13	9088.30
695.26	8800.41
695.39	8905.74
695.53	8788.71
695.66	8741.90
695.80	8833.18
695.93	8940.85
696.07	8922.12
696.20	9116.39
696.33	9092.98
696.47	9153.84
696.60	9401.93
696.73	9219.37
696.87	9315.33
697.00	9284.91
697.14	8882.33
697.27	8994.68
697.40	8713.81
697.54	8423.59
697.67	8348.69
697.80	8306.56
697.94	8358.05
698.07	8273.79
698.21	8379.12
698.34	8400.18
698.47	8219.96
698.61	8079.53
698.74	7721.43
698.87	7913.35
699.01	7964.84
699.14	7939.10
699.27	8152.09
699.40	8262.09
699.54	7707.38
699.67	7889.95
699.80	7585.68
699.94	7772.92
700.07	7562.27
700.20	7433.54
700.34	7283.75
700.47	7276.73
700.60	7234.60
700.73	7290.77
700.87	7358.64
701.00	7360.98
701.13	7152.68
701.26	7129.27
701.40	7255.66
701.53	6984.16
701.66	7180.76
701.79	7391.41
701.93	7159.70
702.06	7148.00
702.19	7105.87
702.32	6963.09
702.46	7030.97
702.59	6864.79
702.72	7049.69
702.85	6904.58
702.99	6799.26
703.12	6998.20
703.25	6918.62
703.38	6796.92
703.51	6836.70
703.65	6600.31
703.78	6642.44
703.91	6775.85
704.04	6602.65
704.17	6813.30
704.31	6597.97
704.44	6766.49
704.57	6752.45
704.70	6682.23
704.83	6569.88
704.96	6635.42
705.10	6565.20
705.23	6579.25
>>>>>End Processed Spectral Data<<<<<
