SpectraSuite Data File
++++++++++++++++++++++++++++++++++++
Date: Mon Oct 07 14:53:04 GMT-05:00 2013
User: price-jones
Dark Spectrum Present: No
Reference Spectrum Present: No
Number of Sampled Component Spectra: 1
Spectrometers: USB2+H05261
Integration Time (usec): 100000 (USB2+H05261)
Spectra Averaged: 1 (USB2+H05261)
Boxcar Smoothing: 0 (USB2+H05261)
Correct for Electrical Dark: No (USB2+H05261)
Strobe/Lamp Enabled: No (USB2+H05261)
Correct for Detector Non-linearity: No (USB2+H05261)
Correct for Stray Light: No (USB2+H05261)
Number of Pixels in Processed Spectrum: 2048
>>>>>Begin Processed Spectral Data<<<<<
365.73	0.00
365.92	0.00
366.12	0.00
366.32	0.00
366.52	0.00
366.72	0.00
366.91	0.00
367.11	0.00
367.31	0.00
367.51	0.00
367.70	0.00
367.90	0.00
368.10	0.00
368.30	0.00
368.49	0.00
368.69	0.00
368.89	0.00
369.09	0.00
369.28	0.00
369.48	0.00
369.68	0.00
369.87	0.00
370.07	0.00
370.27	0.00
370.47	482.15
370.66	2410.75
370.86	2925.67
371.06	3314.20
371.25	3396.12
371.45	2932.69
371.65	2675.23
371.84	2380.32
372.04	2588.63
372.24	2913.97
372.44	3103.55
372.63	2913.97
372.83	2700.98
373.03	2445.86
373.22	2202.44
373.42	2431.82
373.62	2839.07
373.81	3098.87
374.01	3007.59
374.21	2733.75
374.40	2551.18
374.60	2513.74
374.79	3012.27
374.99	3424.20
375.19	3686.34
375.38	3702.73
375.58	3419.52
375.78	3386.76
375.97	3459.31
376.17	3660.60
376.37	3400.80
376.56	3733.15
376.76	3896.99
376.95	4145.09
377.15	4414.25
377.35	4662.35
377.54	4692.77
377.74	4821.50
377.93	4957.25
378.13	4798.10
378.33	4440.00
378.52	4255.09
378.72	4044.45
378.91	3892.31
379.11	3866.56
379.31	3726.13
379.50	3688.68
379.70	4238.71
379.89	4627.24
380.09	4734.90
380.28	4849.59
380.48	4770.01
380.68	4758.31
380.87	4599.15
381.07	4283.18
381.26	3929.76
381.46	3784.65
381.65	3541.23
381.85	3417.18
382.04	3363.35
382.24	3112.91
382.43	2949.08
382.63	2963.12
382.83	2932.69
383.02	3016.95
383.22	3047.38
383.41	2909.29
383.61	3206.53
383.80	3588.04
384.00	4058.49
384.19	4613.20
384.39	4664.69
384.58	4720.86
384.78	4620.22
384.97	4498.51
385.17	4297.22
385.36	4175.52
385.56	4074.87
385.75	4264.46
385.95	4645.96
386.14	4945.55
386.34	4901.08
386.53	4681.07
386.72	4463.40
386.92	4437.66
387.11	4699.80
387.31	5128.11
387.50	4898.74
387.70	4683.41
387.89	4514.89
388.09	4671.71
388.28	4620.22
388.48	4858.95
388.67	5193.65
388.86	5650.05
389.06	5954.32
389.25	6450.52
389.45	6363.92
389.64	6296.04
389.84	6260.93
390.03	6270.30
390.22	6195.40
390.42	6314.77
390.61	6731.38
390.81	7309.49
391.00	7529.50
391.19	7176.08
391.39	7068.42
391.58	6736.06
391.78	6244.55
391.97	5977.73
392.16	5731.97
392.36	5156.20
392.55	4210.62
392.75	3281.43
392.94	2649.49
393.13	2626.08
393.33	3162.06
393.52	3995.29
393.71	5041.51
393.91	5563.45
394.10	6069.01
394.29	6691.59
394.49	7164.38
394.68	7686.32
394.88	7847.82
395.07	8042.08
395.26	7789.30
395.46	7901.65
395.65	7531.84
395.84	6361.58
396.04	5313.02
396.23	4332.33
396.42	3646.55
396.62	3578.68
396.81	4159.13
397.00	5437.06
397.19	6487.96
397.39	7927.39
397.58	8912.76
397.77	9266.18
397.97	9781.10
398.16	9685.14
398.35	10200.05
398.55	9963.66
398.74	10991.16
398.93	11262.66
399.12	10876.47
399.32	10501.98
399.51	10817.96
399.70	11260.32
399.90	11098.82
400.09	11288.40
400.28	11138.61
400.47	11124.57
400.67	11693.32
400.86	12320.58
401.05	12070.14
401.24	12159.08
401.44	12702.09
401.63	12439.95
401.82	12844.86
402.01	12393.14
402.21	12681.02
402.40	12575.70
402.59	12500.80
402.78	11541.18
402.97	11363.30
403.17	11885.24
403.36	12425.90
403.55	13132.75
403.74	13085.94
403.93	12755.92
404.13	11719.06
404.32	11461.60
404.51	12142.70
404.70	12989.97
404.89	13015.72
405.09	12608.47
405.28	12376.75
405.47	12386.12
405.66	12439.95
405.85	11948.43
406.05	11632.46
406.24	11829.07
406.43	12414.20
406.62	12905.71
406.81	12823.80
407.00	12549.95
407.20	12079.50
407.39	12180.15
407.58	13254.45
407.77	13509.57
407.96	13762.35
408.15	13933.21
408.34	14019.81
408.54	14286.63
408.73	14698.56
408.92	14354.51
409.11	14293.65
409.30	13366.80
409.49	12690.38
409.68	11800.98
409.87	11531.82
410.07	12049.08
410.26	13221.69
410.45	13933.21
410.64	14438.76
410.83	14658.78
411.02	15066.03
411.21	15576.27
411.40	15396.04
411.59	15206.46
411.78	15459.24
411.98	15323.49
412.17	15637.12
412.36	15129.22
412.55	15239.23
412.74	15138.58
412.93	14614.30
413.12	14850.70
413.31	15934.37
413.50	16238.64
413.69	16596.74
413.88	15894.58
414.07	15243.91
414.26	15641.80
414.45	16198.85
414.64	16299.49
414.83	16313.53
415.02	15910.96
415.22	15786.91
415.41	16271.40
415.60	16664.61
415.79	17596.15
415.98	17767.01
416.17	17745.94
416.36	17514.23
416.55	16957.18
416.74	16828.45
416.93	16109.91
417.12	16135.65
417.31	16491.41
417.50	16578.01
417.69	17263.79
417.88	17027.40
418.07	16896.33
418.26	16578.01
418.45	16893.99
418.64	17848.93
418.83	18082.98
419.02	17848.93
419.21	17366.78
419.39	16755.90
419.58	16044.37
419.77	16334.60
419.96	17046.12
420.15	17664.02
420.34	18134.47
420.53	18960.68
420.72	19433.47
420.91	19374.95
421.10	18862.38
421.29	18714.92
421.48	18050.21
421.67	18881.10
421.86	18181.28
422.05	17099.95
422.24	15524.77
422.43	15335.19
422.61	16856.54
422.80	18504.28
422.99	18188.30
423.18	17874.67
423.37	17172.51
423.56	17488.48
423.75	17720.20
423.94	17961.27
424.13	16950.16
424.32	17036.76
424.50	17198.26
424.69	16968.88
424.88	17296.56
425.07	17130.38
425.26	17312.94
425.45	16617.80
425.64	16610.78
425.83	16444.60
426.01	17579.76
426.20	17923.82
426.39	17774.03
426.58	16542.91
426.77	15197.10
426.96	14848.36
427.15	15187.74
427.33	16393.11
427.52	17200.60
427.71	17228.68
427.90	16879.94
428.09	16828.45
428.28	16603.76
428.46	16035.01
428.65	15681.59
428.84	16208.21
429.03	16589.72
429.22	15730.74
429.40	14897.51
429.59	13268.50
429.78	11754.17
429.97	11854.81
430.16	11929.71
430.34	11927.37
430.53	12219.94
430.72	12285.47
430.91	13682.77
431.10	16051.39
431.28	18956.00
431.47	20456.28
431.66	20542.88
431.85	18977.06
432.03	17060.16
432.22	16638.87
432.41	17202.94
432.60	19035.58
432.79	19688.59
432.97	20236.27
433.16	19826.68
433.35	18094.68
433.54	16243.32
433.72	15255.61
433.91	15913.30
434.10	17881.69
434.28	19000.47
434.47	20159.03
434.66	19393.68
434.85	18890.46
435.03	18897.49
435.22	19733.06
435.41	21106.95
435.59	20922.05
435.78	21184.19
435.97	21404.20
436.16	21521.23
436.34	21488.46
436.53	20987.58
436.72	20802.68
436.90	19775.19
437.09	19812.63
437.28	19173.67
437.46	20287.76
437.65	20027.96
437.84	18579.17
438.02	16959.52
438.21	16922.07
438.40	18368.52
438.58	19634.75
438.77	19922.64
438.96	20039.67
439.14	20835.45
439.33	21759.96
439.52	22073.59
439.70	21553.99
439.89	20762.89
440.08	20580.33
440.26	20365.00
440.45	21076.52
440.63	22272.54
440.82	23667.50
441.01	23157.26
441.19	22888.10
441.38	23388.97
441.57	24121.56
441.75	25064.80
441.94	24741.80
442.12	24517.11
442.31	25287.15
442.50	25034.37
442.68	24760.53
442.87	24535.84
443.05	23660.48
443.24	24491.37
443.43	24732.44
443.61	25050.75
443.80	25273.10
443.98	24636.48
444.17	24271.36
444.35	25514.18
444.54	26398.90
444.73	25799.73
444.91	24484.34
445.10	23632.39
445.28	22656.39
445.47	22244.45
445.65	22424.67
445.84	23187.69
446.02	24135.60
446.21	24409.45
446.39	24306.46
446.58	24648.18
446.77	25233.32
446.95	25151.40
447.14	26134.42
447.32	26380.18
447.51	25612.48
447.69	24741.80
447.88	24758.19
448.06	24912.66
448.25	25518.86
448.43	25947.18
448.62	25261.40
448.80	24989.90
448.99	24994.58
449.17	25160.76
449.36	25558.65
449.54	26326.35
449.73	26536.99
449.91	27742.37
450.10	27847.69
450.28	28432.83
450.46	28177.71
450.65	28208.14
450.83	27854.72
451.02	27171.28
451.20	27215.75
451.39	27236.81
451.57	27077.66
451.76	26754.66
451.94	27241.50
452.13	26349.75
452.31	25125.65
452.49	24034.96
452.68	24245.61
452.86	23997.51
453.05	24521.79
453.23	25546.95
453.42	26235.06
453.60	26548.70
453.78	27185.32
453.97	26553.38
454.15	26469.12
454.34	25832.49
454.52	26054.84
454.70	25748.23
454.89	25687.38
455.07	26113.36
455.26	26356.77
455.44	27398.31
455.62	28266.65
455.81	28140.26
455.99	27955.36
456.17	27796.20
456.36	27344.48
456.54	28201.11
456.73	27889.82
456.91	28559.22
457.09	28900.94
457.28	29118.60
457.46	28308.78
457.64	28229.20
457.83	27562.15
458.01	26333.37
458.19	27255.54
458.38	27330.44
458.56	28362.61
458.74	28535.81
458.93	27683.86
459.11	27831.31
459.29	27548.11
459.48	27470.87
459.66	27342.14
459.84	27922.59
460.03	28332.18
460.21	28283.03
460.39	29132.65
460.57	28898.59
460.76	29085.84
460.94	29378.40
461.12	29301.17
461.31	28879.87
461.49	29174.78
461.67	29340.96
461.85	30188.23
462.04	29757.57
462.22	30164.82
462.40	29893.32
462.59	29511.81
462.77	29685.01
462.95	29481.39
463.13	29287.12
463.32	29331.59
463.50	28456.23
463.68	28973.49
463.86	29193.50
464.05	29095.20
464.23	27960.04
464.41	28217.50
464.59	27321.07
464.78	29116.26
464.96	28549.85
465.14	28411.76
465.32	29692.04
465.50	29867.58
465.69	30218.66
465.87	29692.04
466.05	28437.51
466.23	27150.21
466.41	26876.37
466.60	27700.24
466.78	27838.33
466.96	28236.22
467.14	28627.09
467.32	29207.55
467.51	28872.85
467.69	27608.96
467.87	28458.57
468.05	28973.49
468.23	28645.82
468.41	28900.94
468.60	28905.62
468.78	29282.44
468.96	29046.05
469.14	29352.66
469.32	29219.25
469.50	28294.74
469.69	28348.57
469.87	27765.78
470.05	28257.29
470.23	27917.91
470.41	27871.10
470.59	28446.87
470.77	28786.25
470.95	29301.17
471.14	29387.77
471.32	29802.04
471.50	31058.91
471.68	31630.00
471.86	31709.58
472.04	31627.66
472.22	31866.39
472.40	30213.98
472.58	30075.88
472.77	29280.10
472.95	30284.19
473.13	31049.55
473.31	30216.32
473.49	30316.96
473.67	30782.73
473.85	31590.21
474.03	32060.66
474.21	32102.79
474.39	32547.49
474.57	32383.65
474.75	32222.16
474.93	32283.01
475.12	31187.64
475.30	31667.45
475.48	31974.06
475.66	32257.26
475.84	31601.91
476.02	31384.24
476.20	31309.35
476.38	31295.30
476.56	32781.54
476.74	33022.62
476.92	33146.67
477.10	34134.37
477.28	35152.51
477.46	34939.52
477.64	35117.40
477.82	34885.68
478.00	35168.89
478.18	34618.86
478.36	34527.58
478.54	34756.96
478.72	34958.24
478.90	35754.02
479.08	36601.30
479.26	37212.18
479.44	36861.10
479.62	36690.24
479.80	36952.38
479.98	37174.73
480.16	37483.68
480.34	36788.54
480.52	37371.33
480.70	37584.32
480.88	37167.71
481.06	37989.24
481.24	38597.77
481.41	39405.26
481.59	39856.98
481.77	39491.86
481.95	38960.56
482.13	39042.48
482.31	39271.85
482.49	39599.52
482.67	39468.45
482.85	39814.85
483.03	40474.88
483.21	40886.82
483.39	40690.21
483.57	39978.69
483.74	40081.67
483.92	39974.01
484.10	39744.64
484.28	41654.51
484.46	41493.02
484.64	41935.38
484.82	40947.67
485.00	40825.96
485.18	39793.79
485.35	38513.52
485.53	35604.23
485.71	32458.55
485.89	32322.80
486.07	33853.51
486.25	36947.70
486.43	38574.37
486.61	39122.05
486.78	39494.20
486.96	40275.94
487.14	41141.94
487.32	42719.46
487.50	43484.81
487.68	44404.64
487.85	44961.69
488.03	44837.64
488.21	43889.73
488.39	43548.01
488.57	42707.76
488.75	42579.03
488.92	44296.98
489.10	46160.05
489.28	48020.77
489.46	48790.81
489.64	48470.15
489.81	48629.31
489.99	48301.64
490.17	48100.35
490.35	48587.18
490.53	48219.72
490.70	47737.57
490.88	47646.29
491.06	48811.87
491.24	48535.69
491.41	47636.92
491.59	45734.07
491.77	44739.34
491.95	46286.43
492.13	47760.97
492.30	49092.74
492.48	49989.16
492.66	50529.83
492.84	50525.14
493.01	50012.57
493.19	49275.30
493.37	49422.75
493.54	49104.44
493.72	49567.87
493.90	51063.47
494.08	51487.10
494.25	51906.06
494.43	52385.87
494.61	52617.58
494.79	52889.09
494.96	52570.77
495.14	51606.47
495.32	50789.62
495.49	49839.37
495.67	51704.77
495.85	52657.37
496.02	53392.30
496.20	53364.21
496.38	52538.01
496.55	52446.72
496.73	52786.10
496.91	53052.92
497.09	53727.00
497.26	54197.44
497.44	53284.64
497.62	52903.13
497.79	51859.25
497.97	50370.67
498.14	51004.95
498.32	52420.98
498.50	53003.77
498.67	53563.16
498.85	53567.84
499.03	53689.55
499.20	53942.33
499.38	54054.67
499.56	53869.77
499.73	53233.14
499.91	52706.52
500.08	52315.65
500.26	51426.25
500.44	52051.17
500.61	52914.83
500.79	52519.28
500.97	51936.49
501.14	52222.03
501.32	51606.47
501.49	51702.43
501.67	52186.92
501.84	52734.61
502.02	53357.19
502.20	53212.08
502.37	53450.81
502.55	53780.83
502.72	54117.87
502.90	54780.24
503.07	53984.46
503.25	54075.74
503.43	53020.16
503.60	52083.94
503.78	51391.14
503.95	51875.63
504.13	53762.11
504.30	54651.51
504.48	54047.65
504.65	53600.61
504.83	54082.76
505.01	54707.68
505.18	54948.76
505.36	55952.85
505.53	55524.53
505.71	55992.64
505.88	55990.30
506.06	55306.86
506.23	54901.95
506.41	54438.52
506.58	54923.01
506.76	54937.05
506.93	54457.24
507.11	54415.11
507.28	54637.47
507.46	54094.46
507.63	53350.17
507.81	53506.99
507.98	53607.63
508.16	54148.29
508.33	55056.42
508.50	55257.71
508.68	55648.58
508.85	56062.85
509.03	55913.06
509.20	56041.79
509.38	55054.08
509.55	54436.18
509.73	54642.15
509.90	54864.50
510.08	55334.95
510.25	55154.72
510.42	54892.58
510.60	54803.64
510.77	55391.12
510.95	55784.33
511.12	55915.40
511.30	55987.95
511.47	56566.07
511.64	56589.47
511.82	55845.18
511.99	54955.78
512.17	54637.47
512.34	54372.99
512.51	54424.48
512.69	54794.28
512.86	55002.59
513.04	55421.55
513.21	55554.96
513.38	54843.43
513.56	54302.77
513.73	53914.24
513.90	54270.00
514.08	54195.10
514.25	54616.40
514.43	54501.71
514.60	54726.41
514.77	55077.49
514.95	55093.87
515.12	54901.95
515.29	55201.53
515.47	55880.29
515.64	55870.93
515.81	55580.70
515.99	55143.02
516.16	52945.26
516.33	50426.84
516.51	48870.39
516.68	48168.22
516.85	47327.97
517.03	48107.37
517.20	51632.22
517.37	54028.93
517.54	55145.36
517.72	54272.34
517.89	51711.80
518.06	49043.59
518.24	49900.22
518.41	52184.58
518.58	53509.33
518.75	53577.20
518.93	53972.75
519.10	53766.79
519.27	54183.40
519.45	54642.15
519.62	55367.71
519.79	55557.30
519.96	55451.97
520.14	55126.64
520.31	54403.41
520.48	53851.05
520.65	54824.71
520.83	55395.80
521.00	56004.34
521.17	55566.66
521.34	55049.40
521.52	55384.10
521.69	56083.92
521.86	56603.52
522.03	55913.06
522.20	54747.47
522.38	53729.34
522.55	53921.26
522.72	54578.95
522.89	54815.35
523.07	54880.88
523.24	55224.94
523.41	56182.22
523.58	56299.25
523.75	57095.03
523.92	56582.45
524.10	56540.32
524.27	56556.70
524.44	56498.19
524.61	56264.14
524.78	56168.18
524.96	55756.24
525.13	55751.56
525.30	56446.70
525.47	56760.33
525.64	56757.99
525.81	55934.12
525.98	54377.67
526.16	52807.17
526.33	51985.64
526.50	51763.29
526.67	51686.05
526.84	52093.30
527.01	53085.69
527.18	54092.12
527.36	55105.57
527.53	55894.33
527.70	56119.02
527.87	55559.64
528.04	55042.38
528.21	55791.35
528.38	56301.59
528.55	57190.99
528.72	57209.71
528.89	57364.19
529.07	56954.60
529.24	56360.10
529.41	55550.27
529.58	54836.41
529.75	55126.64
529.92	55924.76
530.09	56196.26
530.26	56570.75
530.43	57172.27
530.60	56938.21
530.77	57392.28
530.94	57202.69
531.11	56699.48
531.28	56664.37
531.46	56240.73
531.63	56523.94
531.80	56226.69
531.97	55711.77
532.14	55023.65
532.31	53853.39
532.48	53312.72
532.65	53396.98
532.82	54169.36
532.99	55519.85
533.16	55814.76
533.33	56491.17
533.50	56317.97
533.67	55463.67
533.84	55037.70
534.01	55622.83
534.18	55569.00
534.35	55625.17
534.52	55615.81
534.69	55700.07
534.86	56189.24
535.03	56514.58
535.20	56884.38
535.37	57097.37
535.54	57186.31
535.71	56743.95
535.88	56367.12
536.05	55826.46
536.22	55536.23
536.38	55231.96
536.55	54738.11
536.72	54014.88
536.89	54162.34
537.06	55105.57
537.23	56041.79
537.40	56088.60
537.57	56046.47
537.74	55959.87
537.91	55824.12
538.08	55695.39
538.25	55835.82
538.42	56053.49
538.59	55964.55
538.75	55119.62
538.92	55084.51
539.09	54948.76
539.26	54417.46
539.43	54466.61
539.60	54389.37
539.77	54803.64
539.94	54735.77
540.11	53670.82
540.28	53202.72
540.44	53345.49
540.61	53904.88
540.78	53736.36
540.95	54281.70
541.12	54848.11
541.29	54848.11
541.46	55423.89
541.62	55444.95
541.79	55299.84
541.96	54443.20
542.13	54396.39
542.30	55072.81
542.47	54813.01
542.63	54740.45
542.80	54494.69
542.97	54438.52
543.14	54653.85
543.31	54700.66
543.48	54951.10
543.64	56081.58
543.81	56339.04
543.98	56048.81
544.15	55332.60
544.32	54639.81
544.48	55164.09
544.65	55363.03
544.82	55412.18
544.99	55325.58
545.16	54693.64
545.32	54632.78
545.49	55648.58
545.66	55875.61
545.83	55508.14
546.00	55049.40
546.16	54679.60
546.33	54871.52
546.50	55047.06
546.67	55332.60
546.83	55077.49
547.00	55105.57
547.17	54204.47
547.34	53691.89
547.50	53638.06
547.67	53916.58
547.84	54007.86
548.00	54515.76
548.17	55004.93
548.34	54686.62
548.51	54983.86
548.67	54937.05
548.84	55079.83
549.01	54934.71
549.18	54831.73
549.34	54885.56
549.51	54672.57
549.68	54609.38
549.84	54239.57
550.01	54478.31
550.18	54033.61
550.34	54464.27
550.51	54616.40
550.68	54438.52
550.84	54021.90
551.01	53956.37
551.18	54225.53
551.34	54384.69
551.51	54897.27
551.68	55110.25
551.84	55114.94
552.01	54700.66
552.18	54583.63
552.34	53867.43
552.51	53504.65
552.68	53202.72
552.84	53902.54
553.01	54068.72
553.18	53942.33
553.34	54138.93
553.51	54323.83
553.67	54541.50
553.84	54679.60
554.01	54695.98
554.17	54468.95
554.34	54260.64
554.51	54576.61
554.67	54951.10
554.84	54567.25
555.00	54358.94
555.17	54101.48
555.33	53874.45
555.50	54167.02
555.67	54071.06
555.83	53853.39
556.00	53352.51
556.16	53712.95
556.33	53305.70
556.50	52905.47
556.66	53289.32
556.83	52963.98
556.99	52959.30
557.16	53275.27
557.32	53343.15
557.49	53422.73
557.65	53291.66
557.82	53427.41
557.98	53258.89
558.15	52807.17
558.32	51758.61
558.48	50908.99
558.65	51283.48
558.81	51763.29
558.98	52264.16
559.14	52268.84
559.31	52332.04
559.47	52310.97
559.64	52055.85
559.80	51405.19
559.97	51435.61
560.13	52264.16
560.30	53097.39
560.46	53640.40
560.63	54075.74
560.79	54115.53
560.96	53446.13
561.12	52126.07
561.29	51398.16
561.45	51140.71
561.61	52219.69
561.78	52624.60
561.94	52193.95
562.11	51929.47
562.27	52193.95
562.44	52598.86
562.60	52839.93
562.77	53097.39
562.93	53020.16
563.10	52825.89
563.26	52156.50
563.42	52474.81
563.59	51931.81
563.75	51913.08
563.92	52095.64
564.08	52428.00
564.24	52163.52
564.41	52488.85
564.57	52261.82
564.74	52119.05
564.90	51973.94
565.07	51906.06
565.23	51281.14
565.39	50707.71
565.56	50328.54
565.72	50504.08
565.88	50483.01
566.05	50951.12
566.21	51239.01
566.38	51283.48
566.54	51358.38
566.70	51765.63
566.87	51980.96
567.03	52058.20
567.19	52605.88
567.36	52179.90
567.52	51739.88
567.68	51437.95
567.85	50653.87
568.01	50396.42
568.17	49631.06
568.34	49844.05
568.50	49834.69
568.66	50071.08
568.83	50515.78
568.99	50274.71
569.15	50646.85
569.32	50653.87
569.48	50305.13
569.64	50223.22
569.81	49584.25
569.97	49705.96
570.13	49612.34
570.30	48926.56
570.46	48343.77
570.62	48100.35
570.78	47920.13
570.95	48421.00
571.11	49111.46
571.27	49071.67
571.43	49492.97
571.60	49984.48
571.76	50267.69
571.92	50330.88
572.09	50759.20
572.25	50569.61
572.41	50501.74
572.57	50263.00
572.74	50335.56
572.90	49851.07
573.06	50073.42
573.22	50253.64
573.38	49895.54
573.55	49841.71
573.71	49972.78
573.87	50033.63
574.03	49853.41
574.20	49909.58
574.36	49389.98
574.52	49308.07
574.68	48704.21
574.84	48224.40
575.01	48027.79
575.17	47835.87
575.33	48198.65
575.49	48697.19
575.65	48940.60
575.82	48521.65
575.98	48296.95
576.14	48488.88
576.30	48825.92
576.46	49202.74
576.62	48879.75
576.79	48849.32
576.95	48353.13
577.11	48554.41
577.27	48521.65
577.43	48697.19
577.59	48273.55
577.75	47557.35
577.92	46813.05
578.08	46590.70
578.24	46525.17
578.40	47540.96
578.56	47477.77
578.72	47105.62
578.88	47667.35
579.04	47915.45
579.21	48067.58
579.37	47793.74
579.53	48060.56
579.69	48346.11
579.85	48406.96
580.01	48205.67
580.17	47791.40
580.33	47365.42
580.49	47501.17
580.65	48002.05
580.82	48039.50
580.98	47943.53
581.14	47995.03
581.30	47922.47
581.46	48357.81
581.62	48055.88
581.78	48154.18
581.94	48369.51
582.10	48306.32
582.26	48512.28
582.42	48610.59
582.58	48289.93
582.74	47887.36
582.90	48285.25
583.06	48692.50
583.22	48320.36
583.38	48041.84
583.54	47943.53
583.70	47910.77
583.86	47882.68
584.02	47416.91
584.18	48058.22
584.34	47576.07
584.50	47566.71
584.66	47866.30
584.82	47224.99
584.98	47232.01
585.14	46618.79
585.30	45743.43
585.46	45727.05
585.62	45443.84
585.78	46110.89
585.94	45680.24
586.10	45984.51
586.26	45921.31
586.42	46614.11
586.58	47126.69
586.74	46911.36
586.90	46593.04
587.06	46321.54
587.22	46728.80
587.38	46047.70
587.54	45691.94
587.70	45729.39
587.86	45195.74
588.02	45188.72
588.18	44949.99
588.34	43503.54
588.49	41457.91
588.65	39145.46
588.81	39313.98
588.97	39611.23
589.13	39267.17
589.29	38972.26
589.45	39746.98
589.61	41301.09
589.77	42707.76
589.93	43194.59
590.08	44053.56
590.24	44109.74
590.40	44713.59
590.56	44671.46
590.72	44411.67
590.88	43683.76
591.04	43536.30
591.20	43728.23
591.35	43194.59
591.51	43875.68
591.67	43255.44
591.83	43660.35
591.99	43578.43
592.15	43777.38
592.31	44311.02
592.46	43562.05
592.62	43761.00
592.78	43082.24
592.94	43304.59
593.10	43611.20
593.26	43807.81
593.41	44329.75
593.57	43770.36
593.73	43229.69
593.89	43035.43
594.05	42642.22
594.20	42234.97
594.36	41970.49
594.52	41553.87
594.68	42092.19
594.84	42361.36
594.99	42923.08
595.15	43012.02
595.31	42962.87
595.47	43253.10
595.62	42824.78
595.78	43147.78
595.94	43569.07
596.10	43346.72
596.25	43342.04
596.41	42848.19
596.57	42621.16
596.73	43168.84
596.88	42426.89
597.04	42653.92
597.20	42454.98
597.36	41790.27
597.51	42721.80
597.67	42082.83
597.83	41684.94
597.99	42141.35
598.14	41584.30
598.30	41375.99
598.46	41776.22
598.61	42061.77
598.77	41729.41
598.93	41991.55
599.09	42344.97
599.24	42211.56
599.40	42220.92
599.56	42213.90
599.71	42007.94
599.87	42047.72
600.03	41743.45
600.18	41680.26
600.34	40877.46
600.50	41151.30
600.65	41209.81
600.81	41333.86
600.97	40917.25
601.12	41596.00
601.28	41418.12
601.44	40744.05
601.59	40308.71
601.75	40404.67
601.91	40004.44
602.06	40004.44
602.22	40556.80
602.37	40648.08
602.53	40708.94
602.69	41343.22
602.84	41483.66
603.00	41785.58
603.16	42134.32
603.31	42192.84
603.47	42057.09
603.62	41516.42
603.78	41401.74
603.94	41045.97
604.09	41399.40
604.25	40931.29
604.40	41408.76
604.56	40891.50
604.71	41624.09
604.87	41212.15
605.03	40818.94
605.18	40528.72
605.34	40856.39
605.49	40713.62
605.65	40914.90
605.80	40685.53
605.96	40407.01
606.12	39906.13
606.27	40430.41
606.43	39789.11
606.58	40273.60
606.74	39929.54
606.89	40453.82
607.05	40727.66
607.20	40332.11
607.36	40140.19
607.51	39679.10
607.67	39395.90
607.82	39517.60
607.98	39416.96
608.13	39578.46
608.29	39178.23
608.44	39255.46
608.60	38820.13
608.75	38948.85
608.91	39063.54
609.06	38593.09
609.22	39807.83
609.37	39335.04
609.53	39189.93
609.68	38740.55
609.84	37619.43
609.99	37818.38
610.15	38026.68
610.30	38066.47
610.46	38508.83
610.61	38623.52
610.76	39105.67
610.92	39388.88
611.07	39339.72
611.23	39035.45
611.38	39700.17
611.54	39058.86
611.69	38050.09
611.84	37380.70
612.00	37317.50
612.15	37378.36
612.31	37649.86
612.46	37429.85
612.62	37703.69
612.77	37701.35
612.92	38361.38
613.08	37118.56
613.23	36510.02
613.39	36091.06
613.54	35945.95
613.69	35976.37
613.85	36449.16
614.00	36407.03
614.15	36877.48
614.31	36807.26
614.46	36921.95
614.62	36999.19
614.77	37130.26
614.92	37083.45
615.08	36732.37
615.23	36741.73
615.38	36589.59
615.54	35639.34
615.69	35173.57
615.84	34539.29
616.00	34209.27
616.15	34281.83
616.30	35051.86
616.46	34745.25
616.61	34822.49
616.76	34920.79
616.92	35098.67
617.07	35096.33
617.22	35583.16
617.37	35416.99
617.53	35721.26
617.68	35583.16
617.83	36098.08
617.99	35810.20
618.14	35920.20
618.29	35955.31
618.45	35325.71
618.60	35070.59
618.75	34583.76
618.90	34857.60
619.06	35096.33
619.21	35454.44
619.36	35894.46
619.51	35552.74
619.67	34976.97
619.82	34934.84
619.97	35601.89
620.12	35236.77
620.28	35728.28
620.43	35161.87
620.58	35325.71
620.73	35489.54
620.89	34881.00
621.04	34778.02
621.19	34338.00
621.34	34429.28
621.49	33839.47
621.65	34380.13
621.80	34148.42
621.95	34082.88
622.10	34087.56
622.25	34066.50
622.41	33799.68
622.56	33486.04
622.71	33362.00
622.86	33036.66
623.01	33174.75
623.16	32936.02
623.32	33628.82
623.47	33638.18
623.62	33411.15
623.77	32818.99
623.92	32486.64
624.07	32074.70
624.23	32222.16
624.38	32077.04
624.53	32173.00
624.68	32407.06
624.83	32222.16
624.98	31922.57
625.13	31700.22
625.29	32032.57
625.44	31978.74
625.59	31405.31
625.74	31978.74
625.89	32332.16
626.04	32086.40
626.19	32086.40
626.34	32006.83
626.49	31990.44
626.65	31578.51
626.80	31798.52
626.95	31508.29
627.10	31730.64
627.25	30883.37
627.40	30108.65
627.55	29982.26
627.70	29542.24
627.85	29591.39
628.00	29661.61
628.15	30436.33
628.30	30787.41
628.45	30810.81
628.60	31042.53
628.76	30817.83
628.91	30874.01
629.06	30218.66
629.21	30057.16
629.36	30000.99
629.51	30071.20
629.66	29481.39
629.81	29359.68
629.96	29612.46
630.11	30206.95
630.26	30059.50
630.41	30157.80
630.56	29902.68
630.71	30197.59
630.86	30342.70
631.01	29626.50
631.16	29158.39
631.31	29127.97
631.46	28758.16
631.61	29123.29
631.76	29289.46
631.91	29406.49
632.06	29830.13
632.21	29830.13
632.36	30008.01
632.51	29851.19
632.66	30029.07
632.81	29640.54
632.96	30017.37
633.10	29523.52
633.25	29261.38
633.40	29134.99
633.55	29518.84
633.70	29139.67
633.85	29064.77
634.00	29312.87
634.15	29008.60
634.30	29022.64
634.45	29179.46
634.60	29142.01
634.75	29097.54
634.90	29172.44
635.05	29024.98
635.19	29048.39
635.34	29057.75
635.49	28716.03
635.64	28856.46
635.79	28360.27
635.94	27667.47
636.09	28706.67
636.24	28685.61
636.39	28898.59
636.53	28929.02
636.68	28762.84
636.83	28868.17
636.98	28975.83
637.13	28800.29
637.28	29617.14
637.43	29308.19
637.57	28753.48
637.72	28851.78
637.87	28341.55
638.02	28694.97
638.17	28910.30
638.32	28404.74
638.46	28313.46
638.61	28393.04
638.76	28297.08
638.91	27758.75
639.06	27639.39
639.20	27850.03
639.35	28011.53
639.50	27674.49
639.65	27552.79
639.80	27569.17
639.94	27587.89
640.09	27786.84
640.24	27702.58
640.39	27735.35
640.54	27440.44
640.68	27026.17
640.83	27005.10
640.98	26672.74
641.13	26487.84
641.27	27108.08
641.42	26897.44
641.57	26974.67
641.72	26600.19
641.86	26639.98
642.01	26813.18
642.16	27115.11
642.31	27414.69
642.45	27571.51
642.60	27190.00
642.75	26909.14
642.90	27065.96
643.04	26684.45
643.19	26820.20
643.34	26621.25
643.48	26211.66
643.63	26256.13
643.78	26312.30
643.93	26845.94
644.07	26766.37
644.22	26998.08
644.37	26328.69
644.51	26354.43
644.66	26307.62
644.81	26115.70
644.95	26253.79
645.10	26033.78
645.25	25865.26
645.39	25668.66
645.54	25865.26
645.69	25450.99
645.83	25259.06
645.98	25144.38
646.13	24769.89
646.27	25130.33
646.42	25109.27
646.57	25034.37
646.71	24994.58
646.86	24809.68
647.00	24835.42
647.15	24627.12
647.30	24748.82
647.44	24362.64
647.59	24276.04
647.74	24393.06
647.88	24687.97
648.03	24486.68
648.17	24484.34
648.32	24687.97
648.47	24659.88
648.61	24423.49
648.76	24292.42
648.90	24030.28
649.05	23150.24
649.20	22703.20
649.34	22672.77
649.49	22860.01
649.63	23388.97
649.78	23999.85
649.92	24304.12
650.07	24507.75
650.21	24730.10
650.36	24538.18
650.51	24519.45
650.65	24964.15
650.80	24797.98
650.94	24215.18
651.09	23714.31
651.23	23573.88
651.38	23370.25
651.52	23016.83
651.67	23381.95
651.81	23683.88
651.96	23847.72
652.10	23782.18
652.25	23985.81
652.39	24063.05
652.54	24006.87
652.68	23697.92
652.83	23686.22
652.97	23751.76
653.12	23491.96
653.26	23391.31
653.41	23976.45
653.55	24105.18
653.70	23714.31
653.84	23721.33
653.99	23290.67
654.13	23002.78
654.27	22649.36
654.42	22576.81
654.56	22405.95
654.71	23080.02
654.85	22176.58
655.00	22317.01
655.14	21933.16
655.29	21694.43
655.43	21226.32
655.57	20245.63
655.72	19243.88
655.86	17535.29
656.01	16500.78
656.15	16961.86
656.30	18132.13
656.44	19180.69
656.58	19803.27
656.73	20496.07
656.87	20786.30
657.01	21137.38
657.16	21504.84
657.30	21703.79
657.45	22134.45
657.59	22260.84
657.73	22171.89
657.88	22333.39
658.02	22625.96
658.16	22560.42
658.31	22293.60
658.45	22043.17
658.60	21776.34
658.74	21951.88
658.88	21743.58
659.03	21228.66
659.17	21619.53
659.31	21530.59
659.46	21556.33
659.60	21769.32
659.74	21830.18
659.89	21926.14
660.03	21715.49
660.17	22312.33
660.32	21748.26
660.46	21930.82
660.60	21654.64
660.74	21427.60
660.89	21619.53
661.03	21652.30
661.17	21516.54
661.32	21214.62
661.46	21593.78
661.60	22022.10
661.74	21816.13
661.89	21626.55
662.03	21490.80
662.17	21139.72
662.31	21216.96
662.46	21460.37
662.60	20968.86
662.74	21343.35
662.88	21071.84
663.03	20788.64
663.17	20840.13
663.31	20622.46
663.45	20905.66
663.60	20795.66
663.74	20589.69
663.88	20952.48
664.02	20638.84
664.17	20458.62
664.31	20458.62
664.45	20533.52
664.59	20641.18
664.73	20812.04
664.88	20648.21
665.02	20680.97
665.16	20559.27
665.30	20400.11
665.44	20374.36
665.59	20421.17
665.73	20196.48
665.87	19728.38
666.01	20060.73
666.15	19740.08
666.29	19857.10
666.44	19817.32
666.58	19824.34
666.72	19690.93
666.86	19803.27
667.00	20025.62
667.14	19709.65
667.28	19658.16
667.43	19742.42
667.57	19365.59
667.71	19538.79
667.85	19356.23
667.99	19412.40
668.13	19545.81
668.27	19466.24
668.41	19955.41
668.56	19363.25
668.70	19129.20
668.84	19157.28
668.98	19211.12
669.12	19419.42
669.26	19068.34
669.40	18899.83
669.54	18948.98
669.68	18960.68
669.82	18972.38
669.96	18995.79
670.10	18600.24
670.25	18485.55
670.39	18785.14
670.53	18326.39
670.67	18394.27
670.81	18417.68
670.95	18427.04
671.09	18026.81
671.23	18183.62
671.37	17980.00
671.51	17972.97
671.65	17867.65
671.79	17804.46
671.93	18052.55
672.07	18518.32
672.21	18001.06
672.35	17825.52
672.49	18092.34
672.63	17961.27
672.77	18115.75
672.91	17451.03
673.05	17525.93
673.19	17345.71
673.33	17596.15
673.47	17355.07
673.61	17853.61
673.75	17717.86
673.89	17455.72
674.03	17259.11
674.17	17298.90
674.31	17432.31
674.45	17158.47
674.59	17116.34
674.73	16886.97
674.87	16805.05
675.01	16711.42
675.15	17270.81
675.29	16968.88
675.43	17032.08
675.56	16833.13
675.70	16767.60
675.84	16683.34
675.98	16311.19
676.12	16753.55
676.26	16400.13
676.40	16130.97
676.54	16620.14
676.68	16306.51
676.82	16224.59
676.96	16355.66
677.10	16093.52
677.23	15957.77
677.37	15742.44
677.51	15833.72
677.65	15730.74
677.79	15386.68
677.93	15822.02
678.07	15899.26
678.21	15353.91
678.34	15564.56
678.48	15262.63
678.62	15351.57
678.76	15412.43
678.90	15501.37
679.04	15145.61
679.18	15470.94
679.31	15110.50
679.45	15386.68
679.59	15136.24
679.73	15166.67
679.87	15187.74
680.00	14970.07
680.14	14817.93
680.28	14375.57
680.42	14415.36
680.56	14885.81
680.70	14377.91
680.83	14403.66
680.97	14342.80
681.11	14473.87
681.25	14544.09
681.39	14520.68
681.52	14384.93
681.66	14469.19
681.80	14221.10
681.94	14335.78
682.07	14052.58
682.21	14225.78
682.35	13809.16
682.49	13905.12
682.62	13521.27
682.76	13853.63
682.90	13652.34
683.04	13820.86
683.17	13729.58
683.31	13554.04
683.45	13427.65
683.59	13174.88
683.72	12978.27
683.86	12912.74
684.00	13039.12
684.13	12910.40
684.27	13062.53
684.41	12879.97
684.55	13011.04
684.68	12769.96
684.82	12884.65
684.96	12774.64
685.09	12622.51
685.23	12402.50
685.37	12379.09
685.50	12608.47
685.64	12226.96
685.78	12152.06
685.91	12451.65
686.05	12224.62
686.19	11976.52
686.32	11232.23
686.46	9837.27
686.60	8685.73
686.73	8128.68
686.87	7728.45
687.01	7777.60
687.14	7658.23
687.28	8030.38
687.42	8425.93
687.55	8830.84
687.69	9500.23
687.82	9811.53
687.96	9916.85
688.10	9919.19
688.23	9987.07
688.37	9860.68
688.50	9563.43
688.64	9617.26
688.78	9399.59
688.91	9373.85
689.05	9378.53
689.18	9123.41
689.32	9118.73
689.46	9245.12
689.59	9446.40
689.73	9329.38
689.86	9324.69
690.00	9310.65
690.13	9596.20
690.27	9511.94
690.41	9460.45
690.54	9460.45
690.68	9570.45
690.81	9659.39
690.95	9413.63
691.08	9530.66
691.22	9425.34
691.35	9603.22
691.49	9659.39
691.62	9570.45
691.76	9383.21
691.89	9614.92
692.03	9523.64
692.16	9437.04
692.30	9462.79
692.43	9362.14
692.57	9312.99
692.70	9158.52
692.84	8964.25
692.97	9233.41
693.11	9195.96
693.24	9092.98
693.38	9020.42
693.51	8798.07
693.65	8624.87
693.78	8615.51
693.92	8683.39
694.05	8561.68
694.19	8638.92
694.32	8669.34
694.45	8601.47
694.59	8669.34
694.72	8627.21
694.86	8725.52
694.99	8585.08
695.13	8439.97
695.26	8327.63
695.39	8208.26
695.53	8304.22
695.66	8290.18
695.80	8187.19
695.93	8210.60
696.07	8290.18
696.20	8339.33
696.33	8498.49
696.47	8528.91
696.60	8547.64
696.73	8802.75
696.87	8475.08
697.00	8587.43
697.14	8234.00
697.27	8262.09
697.40	8114.64
697.54	7896.97
697.67	8002.29
697.80	7712.07
697.94	7906.33
698.07	7777.60
698.21	7864.20
698.34	7740.15
698.47	7775.26
698.61	7538.87
698.74	7506.10
698.87	7377.37
699.01	7356.30
699.14	7281.41
699.27	7400.77
699.40	7705.04
699.54	7559.93
699.67	7377.37
699.80	7218.21
699.94	7117.57
700.07	7192.47
700.20	7009.90
700.34	6878.83
700.47	6920.96
700.60	6836.70
700.73	6913.94
700.87	7066.08
701.00	6806.28
701.13	6846.07
701.26	6724.36
701.40	6516.05
701.53	6775.85
701.66	6717.34
701.79	6775.85
701.93	6649.46
702.06	6670.53
702.19	6724.36
702.32	6656.48
702.46	6523.07
702.59	6516.05
702.72	6413.07
702.85	6466.90
702.99	6635.42
703.12	6647.12
703.25	6375.62
703.38	6408.39
703.51	6305.40
703.65	6384.98
703.78	6413.07
703.91	6345.19
704.04	6228.17
704.17	6256.25
704.31	6307.74
704.44	6157.95
704.57	6190.72
704.70	6246.89
704.83	6193.06
704.96	6193.06
705.10	5930.92
705.23	6031.56
>>>>>End Processed Spectral Data<<<<<
