SpectraSuite Data File
++++++++++++++++++++++++++++++++++++
Date: Mon Oct 07 14:54:58 GMT-05:00 2013
User: price-jones
Dark Spectrum Present: No
Reference Spectrum Present: No
Number of Sampled Component Spectra: 1
Spectrometers: USB2+H05261
Integration Time (usec): 10000 (USB2+H05261)
Spectra Averaged: 1 (USB2+H05261)
Boxcar Smoothing: 0 (USB2+H05261)
Correct for Electrical Dark: No (USB2+H05261)
Strobe/Lamp Enabled: No (USB2+H05261)
Correct for Detector Non-linearity: No (USB2+H05261)
Correct for Stray Light: No (USB2+H05261)
Number of Pixels in Processed Spectrum: 2048
>>>>>Begin Processed Spectral Data<<<<<
365.73	0.00
365.92	0.00
366.12	0.00
366.32	0.00
366.52	0.00
366.72	0.00
366.91	0.00
367.11	0.00
367.31	0.00
367.51	0.00
367.70	0.00
367.90	0.00
368.10	0.00
368.30	0.00
368.49	0.00
368.69	0.00
368.89	0.00
369.09	0.00
369.28	0.00
369.48	0.00
369.68	0.00
369.87	0.00
370.07	0.00
370.27	0.00
370.47	105.32
370.66	1373.89
370.86	1671.14
371.06	1652.42
371.25	1645.40
371.45	1418.36
371.65	1383.26
371.84	1270.91
372.04	1273.25
372.24	1593.90
372.44	1614.97
372.63	1551.78
372.83	1336.45
373.03	1221.76
373.22	1268.57
373.42	1366.87
373.62	1411.34
373.81	1565.82
374.01	1383.26
374.21	1362.19
374.40	1317.72
374.60	1432.41
374.79	1734.34
374.99	1879.45
375.19	2003.50
375.38	1886.47
375.58	1867.75
375.78	1846.68
375.97	1865.41
376.17	1994.14
376.37	1966.05
376.56	2026.90
376.76	2108.82
376.95	2328.83
377.15	2452.88
377.35	2548.84
377.54	2658.85
377.74	2663.53
377.93	2672.89
378.13	2448.20
378.33	2483.31
378.52	2167.34
378.72	2129.89
378.91	2078.40
379.11	2080.74
379.31	1970.73
379.50	1937.96
379.70	2209.47
379.89	2485.65
380.09	2548.84
380.28	2614.38
380.48	2602.68
380.68	2633.10
380.87	2511.39
381.07	2298.41
381.26	2052.65
381.46	1937.96
381.65	1870.09
381.85	1820.94
382.04	1666.46
382.24	1460.49
382.43	1563.48
382.63	1474.54
382.83	1373.89
383.02	1558.80
383.22	1453.47
383.41	1530.71
383.61	1769.44
383.80	2062.01
384.00	2349.90
384.19	2492.67
384.39	2551.18
384.58	2586.29
384.78	2569.91
384.97	2469.27
385.17	2389.69
385.36	2235.21
385.56	2174.36
385.75	2303.09
385.95	2506.71
386.14	2628.42
386.34	2689.28
386.53	2539.48
386.72	2377.98
386.92	2373.30
387.11	2600.34
387.31	2633.10
387.50	2686.94
387.70	2544.16
387.89	2583.95
388.09	2595.65
388.28	2485.65
388.48	2658.85
388.67	2801.62
388.86	3045.04
389.06	3393.78
389.25	3510.80
389.45	3538.89
389.64	3442.93
389.84	3316.54
390.03	3248.66
390.22	3421.86
390.42	3583.36
390.61	3859.54
390.81	4109.98
391.00	4154.45
391.19	4032.74
391.39	3845.50
391.58	3620.81
391.78	3426.54
391.97	3288.45
392.16	2984.18
392.36	2523.10
392.55	2076.06
392.75	1558.80
392.94	1397.30
393.13	1511.99
393.33	1842.00
393.52	2310.11
393.71	2717.36
393.91	3098.87
394.10	3494.42
394.29	3702.73
394.49	3988.27
394.68	4332.33
394.88	4285.52
395.07	4339.35
395.26	4315.95
395.46	4201.26
395.65	3838.48
395.84	3199.51
396.04	2736.09
396.23	2160.31
396.42	1956.69
396.62	1877.11
396.81	2417.77
397.00	3162.06
397.19	3794.01
397.39	4531.28
397.58	4891.72
397.77	5324.72
397.97	5301.31
398.16	5408.98
398.35	5570.48
398.55	5741.33
398.74	6073.69
398.93	6132.20
399.12	5872.40
399.32	5900.49
399.51	6031.56
399.70	6235.19
399.90	6342.85
400.09	6293.70
400.28	6483.28
400.47	6106.46
400.67	6698.61
400.86	6796.92
401.05	6696.27
401.24	6689.25
401.44	6822.66
401.63	6935.01
401.82	6977.14
402.01	7040.33
402.21	6972.46
402.40	7192.47
402.59	6642.44
402.78	6296.04
402.97	6321.79
403.17	6717.34
403.36	6960.75
403.55	7030.97
403.74	7049.69
403.93	6857.77
404.13	6141.57
404.32	6394.34
404.51	6878.83
404.70	7155.02
404.89	7197.15
405.09	6927.99
405.28	6715.00
405.47	6899.90
405.66	7091.82
405.85	6487.96
406.05	6265.61
406.24	6490.31
406.43	6918.62
406.62	7056.72
406.81	7180.76
407.00	6768.83
407.20	6689.25
407.39	6895.22
407.58	7295.45
407.77	7559.93
407.96	7595.04
408.15	7758.88
408.34	7691.00
408.54	8105.28
408.73	8131.02
408.92	7803.35
409.11	7707.38
409.30	7419.50
409.49	6825.00
409.68	6429.45
409.87	6509.03
410.07	6834.36
410.26	7133.95
410.45	7819.73
410.64	7995.27
410.83	8170.81
411.02	8477.42
411.21	8706.79
411.40	8339.33
411.59	8381.46
411.78	8664.66
411.98	8229.32
412.17	8444.65
412.36	8187.19
412.55	8280.82
412.74	8285.50
412.93	7969.52
413.12	8271.45
413.31	8758.28
413.50	8919.78
413.69	8858.93
413.88	8533.59
414.07	8407.20
414.26	8805.10
414.45	8805.10
414.64	8915.10
414.83	9053.19
415.02	8690.41
415.22	8812.12
415.41	8940.85
415.60	9282.56
415.79	9399.59
415.98	9802.16
416.17	9554.07
416.36	9610.24
416.55	9266.18
416.74	9032.13
416.93	8706.79
417.12	8929.14
417.31	8826.16
417.50	8945.53
417.69	9322.35
417.88	9296.61
418.07	9139.79
418.26	9214.69
418.45	9380.87
418.64	9589.17
418.83	9825.57
419.02	9701.52
419.21	9256.82
419.39	8964.25
419.58	8603.81
419.77	8821.48
419.96	9202.99
420.15	9708.54
420.34	10064.30
420.53	10511.35
420.72	10565.18
420.91	10237.50
421.10	10223.46
421.29	10031.54
421.48	9970.68
421.67	10263.25
421.86	9907.49
422.05	9004.04
422.24	8091.23
422.43	8608.49
422.61	9406.61
422.80	9764.72
422.99	9888.76
423.18	9612.58
423.37	9460.45
423.56	9841.95
423.75	9813.87
423.94	9916.85
424.13	9231.07
424.32	9315.33
424.50	9320.01
424.69	9430.02
424.88	9486.19
425.07	9193.62
425.26	9116.39
425.45	9156.18
425.64	9144.47
425.83	9308.31
426.01	9760.03
426.20	9762.37
426.39	9387.89
426.58	8762.97
426.77	8285.50
426.96	8077.19
427.15	8491.46
427.33	9228.73
427.52	9432.36
427.71	9603.22
427.90	8901.06
428.09	9102.34
428.28	8809.78
428.46	8613.17
428.65	8503.17
428.84	8971.27
429.03	8777.01
429.22	8201.24
429.40	7742.49
429.59	7059.06
429.78	6352.21
429.97	6258.59
430.16	6223.48
430.34	6457.54
430.53	6499.67
430.72	7030.97
430.91	7751.85
431.10	9029.79
431.28	10122.82
431.47	10953.71
431.66	11044.99
431.85	9996.43
432.03	8929.14
432.22	9011.06
432.41	9509.60
432.60	10239.84
432.79	10785.19
432.97	10862.43
433.16	10413.04
433.35	9657.05
433.54	8671.68
433.72	8353.37
433.91	8971.27
434.10	9907.49
434.28	10532.41
434.47	10696.25
434.66	10366.23
434.85	10223.46
435.03	10602.63
435.22	10649.44
435.41	11143.29
435.59	11136.27
435.78	11201.80
435.97	11749.49
436.16	11632.46
436.34	11286.06
436.53	11103.50
436.72	11449.90
436.90	10478.58
437.09	10420.06
437.28	10539.43
437.46	11042.65
437.65	10885.83
437.84	9738.97
438.02	9390.23
438.21	9472.15
438.40	10083.03
438.58	10647.10
438.77	10516.03
438.96	10916.26
439.14	11445.22
439.33	11473.31
439.52	11754.17
439.70	11595.01
439.89	10878.81
440.08	10888.17
440.26	10934.98
440.45	11482.67
440.63	12126.32
440.82	12814.43
441.01	12325.26
441.19	12205.89
441.38	12847.20
441.57	12961.89
441.75	13132.75
441.94	13303.60
442.12	12926.78
442.31	13322.33
442.50	13448.72
442.68	13305.95
442.87	13256.79
443.05	13214.66
443.24	13411.27
443.43	13355.10
443.61	13626.60
443.80	13877.04
443.98	13090.62
444.17	13296.58
444.35	13968.32
444.54	13940.23
444.73	14001.08
444.91	13013.38
445.10	12477.40
445.28	12084.19
445.47	11960.14
445.65	12079.50
445.84	12210.57
446.02	12636.55
446.21	12924.44
446.39	13107.00
446.58	13451.06
446.77	13584.47
446.95	13778.73
447.14	13916.83
447.32	14052.58
447.51	13558.72
447.69	13177.22
447.88	13067.21
448.06	13289.56
448.25	13537.66
448.43	13369.14
448.62	13135.09
448.80	13270.84
448.99	13530.64
449.17	13635.96
449.36	13537.66
449.54	13722.56
449.73	14485.58
449.91	14459.83
450.10	15129.22
450.28	15000.49
450.46	14384.93
450.65	14544.09
450.83	14403.66
451.02	14537.07
451.20	14066.62
451.39	14143.86
451.57	14092.37
451.76	14314.72
451.94	14040.87
452.13	13715.54
452.31	13186.58
452.49	12531.23
452.68	12933.80
452.86	13090.62
453.05	13296.58
453.23	13949.59
453.42	14127.47
453.60	14101.73
453.78	14160.24
453.97	13738.94
454.15	13790.44
454.34	13694.47
454.52	13556.38
454.70	13584.47
454.89	13497.87
455.07	13537.66
455.26	13647.66
455.44	14031.51
455.62	14885.81
455.81	14696.22
455.99	14347.48
456.17	14413.02
456.36	14654.09
456.54	14958.36
456.73	15002.83
456.91	15241.57
457.09	15009.86
457.28	15166.67
457.46	14721.97
457.64	14586.22
457.83	14045.55
458.01	13722.56
458.19	14377.91
458.38	14335.78
458.56	14581.54
458.74	14918.57
458.93	14352.16
459.11	14249.18
459.29	14223.44
459.48	14499.62
459.66	13870.01
459.84	14284.29
460.03	14871.76
460.21	14717.29
460.39	14956.02
460.57	14916.23
460.76	15358.60
460.94	15101.14
461.12	15159.65
461.31	15068.37
461.49	15026.24
461.67	15229.87
461.85	15569.24
462.04	15302.42
462.22	15290.72
462.40	15360.94
462.59	15279.02
462.77	15002.83
462.95	15396.04
463.13	15482.64
463.32	15248.59
463.50	14588.56
463.68	15037.94
463.86	15213.48
464.05	15019.22
464.23	14312.38
464.41	14349.82
464.59	14272.59
464.78	14698.56
464.96	14448.13
465.14	14651.75
465.32	15026.24
465.50	15473.28
465.69	15213.48
465.87	15192.42
466.05	14511.32
466.23	14127.47
466.41	14251.52
466.60	14642.39
466.78	14604.94
466.96	14216.41
467.14	15023.90
467.32	15157.31
467.51	14661.12
467.69	13902.78
467.87	14303.01
468.05	14644.73
468.23	14853.04
468.41	14721.97
468.60	14452.81
468.78	14757.08
468.96	14703.25
469.14	14764.10
469.32	15169.01
469.50	14335.78
469.69	14572.18
469.87	14036.19
470.05	14279.61
470.23	14221.10
470.41	14679.84
470.59	14485.58
470.77	14644.73
470.95	14579.20
471.14	14993.47
471.32	15051.99
471.50	16030.33
471.68	16238.64
471.86	16350.98
472.04	16215.23
472.22	15913.30
472.40	15360.94
472.58	15199.44
472.77	14773.46
472.95	15517.75
473.13	15484.98
473.31	15632.44
473.49	15702.65
473.67	15786.91
473.85	15372.64
474.03	15878.19
474.21	16128.63
474.39	15953.09
474.57	16074.80
474.75	16587.38
474.93	16365.03
475.12	15896.92
475.30	16006.92
475.48	16240.98
475.66	16498.44
475.84	16023.31
476.02	16280.77
476.20	15871.17
476.38	15999.90
476.56	16402.47
476.74	16659.93
476.92	17177.19
477.10	17001.65
477.28	17804.46
477.46	17572.74
477.64	17902.76
477.82	17603.17
478.00	17724.88
478.18	17348.05
478.36	17256.77
478.54	17228.68
478.72	17837.22
478.90	18347.46
479.08	18412.99
479.26	18153.20
479.44	18200.01
479.62	18515.98
479.80	18986.43
479.98	18630.66
480.16	18881.10
480.34	18911.53
480.52	18457.46
480.70	18497.25
480.88	18906.85
481.06	19826.68
481.24	19709.65
481.41	20451.60
481.59	20535.86
481.77	19807.95
481.95	19529.43
482.13	19784.55
482.31	19398.36
482.49	20065.41
482.67	19637.09
482.85	19913.28
483.03	19814.98
483.21	20095.84
483.39	19964.77
483.57	20063.07
483.74	20058.39
483.92	19826.68
484.10	20418.83
484.28	20816.72
484.46	20819.07
484.64	20297.13
484.82	20638.84
485.00	20610.76
485.18	19412.40
485.35	18750.03
485.53	16917.39
485.71	15527.11
485.89	16217.57
486.07	17048.46
486.25	18417.68
486.43	19335.17
486.61	18916.21
486.78	19117.50
486.96	19709.65
487.14	20922.05
487.32	21198.23
487.50	21467.39
487.68	20982.90
487.85	22305.31
488.03	21586.76
488.21	21219.30
488.39	20964.18
488.57	21043.76
488.75	21287.17
488.92	22223.39
489.10	23887.51
489.28	24018.58
489.46	24507.75
489.64	24980.54
489.81	24950.11
489.99	24247.95
490.17	24247.95
490.35	24783.93
490.53	24116.88
490.70	23669.84
490.88	24285.40
491.06	25137.35
491.24	24746.48
491.41	23374.93
491.59	23063.64
491.77	21984.65
491.95	23300.03
492.13	23339.82
492.30	24086.45
492.48	25940.16
492.66	26167.19
492.84	25406.52
493.01	25589.08
493.19	24608.39
493.37	23924.96
493.54	24009.22
493.72	25336.30
493.90	26005.69
494.08	26672.74
494.25	26937.23
494.43	27147.87
494.61	27426.40
494.79	27721.30
494.96	27089.36
495.14	26136.76
495.32	25816.11
495.49	25502.48
495.67	26001.01
495.85	27702.58
496.02	27871.10
496.20	27716.62
496.38	27461.51
496.55	27058.93
496.73	27660.45
496.91	27688.54
497.09	27807.90
497.26	27711.94
497.44	28016.21
497.62	27222.77
497.79	26609.55
497.97	25750.57
498.14	26127.40
498.32	26813.18
498.50	27180.64
498.67	28233.88
498.85	27683.86
499.03	27166.60
499.20	27976.42
499.38	27749.39
499.56	26939.57
499.73	26878.71
499.91	26457.42
500.08	25785.68
500.26	25762.28
500.44	26586.15
500.61	27243.84
500.79	26237.41
500.97	26398.90
501.14	26057.18
501.32	25525.88
501.49	25542.27
501.67	26223.36
501.84	27271.92
502.02	27119.79
502.20	27438.10
502.37	27800.88
502.55	28278.35
502.72	28510.07
502.90	28811.99
503.07	28189.41
503.25	27931.95
503.43	26675.09
503.60	25474.39
503.78	25572.69
503.95	26544.02
504.13	27072.98
504.30	28311.12
504.48	28320.48
504.65	27995.15
504.83	27651.09
505.01	27733.01
505.18	28189.41
505.36	28980.51
505.53	29036.69
505.71	29310.53
505.88	29537.56
506.06	29315.21
506.23	28276.01
506.41	28072.39
506.58	28851.78
506.76	28233.88
506.93	28505.38
507.11	27367.88
507.28	28147.28
507.46	27534.06
507.63	27346.82
507.81	26859.99
507.98	26909.14
508.16	28114.52
508.33	28645.82
508.50	28266.65
508.68	29085.84
508.85	29769.27
509.03	29174.78
509.20	28201.11
509.38	28130.90
509.55	27627.68
509.73	28591.98
509.90	29331.59
510.08	27868.76
510.25	27859.40
510.42	27735.35
510.60	28011.53
510.77	29062.43
510.95	29656.93
511.12	28886.89
511.30	29130.31
511.47	30022.05
511.64	29172.44
511.82	29151.37
511.99	28540.49
512.17	28540.49
512.34	27819.61
512.51	28002.17
512.69	27756.41
512.86	28322.82
513.04	28849.44
513.21	28460.91
513.38	28058.34
513.56	28067.70
513.73	27037.87
513.90	26436.35
514.08	27044.89
514.25	27597.26
514.43	28273.67
514.60	28105.15
514.77	28322.82
514.95	28189.41
515.12	28063.02
515.29	28676.24
515.47	28790.93
515.64	28414.10
515.81	28650.50
515.99	28133.24
516.16	26043.14
516.33	23676.86
516.51	22918.53
516.68	22120.40
516.85	21633.57
517.03	22607.23
517.20	24783.93
517.37	27096.38
517.54	27119.79
517.72	25909.73
517.89	24144.97
518.06	23215.77
518.24	24151.99
518.41	25443.96
518.58	26281.88
518.75	26604.87
518.93	26492.52
519.10	26845.94
519.27	26934.88
519.45	27342.14
519.62	28081.75
519.79	28617.73
519.96	28313.46
520.14	27520.02
520.31	26583.80
520.48	26539.33
520.65	27271.92
520.83	27536.40
521.00	27576.19
521.17	27646.41
521.34	27049.57
521.52	27335.12
521.69	27873.44
521.86	28088.77
522.03	27424.06
522.20	26307.62
522.38	25675.68
522.55	25790.36
522.72	26499.55
522.89	26181.23
523.07	27185.32
523.24	27571.51
523.41	27880.46
523.58	28210.48
523.75	28056.00
523.92	29027.32
524.10	28467.94
524.27	28355.59
524.44	28477.30
524.61	29212.23
524.78	28671.56
524.96	28313.46
525.13	28067.70
525.30	29020.30
525.47	29270.74
525.64	28716.03
525.81	27061.27
525.98	25235.66
526.16	24772.23
526.33	24449.24
526.50	24552.22
526.67	24627.12
526.84	24315.83
527.01	25542.27
527.18	26855.31
527.36	26981.70
527.53	28467.94
527.70	27438.10
527.87	26518.27
528.04	26436.35
528.21	27300.01
528.38	27735.35
528.55	29116.26
528.72	28694.97
528.89	28547.51
529.07	29092.86
529.24	27276.60
529.41	27501.29
529.58	26993.40
529.75	26871.69
529.92	27229.79
530.09	27634.71
530.26	27428.74
530.43	26775.73
530.60	28329.84
530.77	28748.80
530.94	29186.48
531.11	28126.22
531.28	27648.75
531.46	28095.79
531.63	28252.61
531.80	28535.81
531.97	27431.08
532.14	25848.88
532.31	24432.85
532.48	24315.83
532.65	24409.45
532.82	25717.81
532.99	26361.45
533.16	27873.44
533.33	28896.25
533.50	27819.61
533.67	26724.24
533.84	26733.60
534.01	26810.84
534.18	27124.47
534.35	26712.53
534.52	26773.39
534.69	27168.94
534.86	26806.16
535.03	27557.47
535.20	28004.51
535.37	27917.91
535.54	28219.84
535.71	27583.21
535.88	27267.24
536.05	26492.52
536.22	26328.69
536.38	25832.49
536.55	26328.69
536.72	26267.83
536.89	25905.05
537.06	26586.15
537.23	26995.74
537.40	26789.77
537.57	26874.03
537.74	26073.57
537.91	26263.15
538.08	27267.24
538.25	27395.97
538.42	26307.62
538.59	26855.31
538.75	26700.83
538.92	26450.39
539.09	26022.08
539.26	25343.32
539.43	24781.59
539.60	24828.40
539.77	25001.60
539.94	24547.54
540.11	23669.84
540.28	23491.96
540.44	24039.64
540.61	24348.59
540.78	24683.29
540.95	26103.99
541.12	25017.99
541.29	26038.46
541.46	25652.27
541.62	25546.95
541.79	24877.55
541.96	24734.78
542.13	25612.48
542.30	25734.19
542.47	25727.17
542.63	25322.26
542.80	24652.86
542.97	24812.02
543.14	24374.34
543.31	24725.42
543.48	25797.38
543.64	25975.27
543.81	26696.15
543.98	25865.26
544.15	25439.28
544.32	24982.88
544.48	25759.94
544.65	24524.13
544.82	25146.72
544.99	25453.33
545.16	24882.24
545.32	25364.39
545.49	26029.10
545.66	26206.98
545.83	25663.97
546.00	25184.16
546.16	25055.43
546.33	25191.19
546.50	25713.13
546.67	25296.51
546.83	24842.45
547.00	24765.21
547.17	24503.07
547.34	24699.67
547.50	24746.48
547.67	24800.32
547.84	24584.99
548.00	24854.15
548.17	24531.15
548.34	24556.90
548.51	24208.16
548.67	25858.24
548.84	25420.56
549.01	25556.31
549.18	25481.41
549.34	25738.87
549.51	25710.78
549.68	25352.68
549.84	25006.28
550.01	24971.18
550.18	23875.80
550.34	24149.65
550.51	24362.64
550.68	23974.11
550.84	23007.47
551.01	22988.74
551.18	22888.10
551.34	22988.74
551.51	24142.63
551.68	25235.66
551.84	24039.64
552.01	24561.58
552.18	23718.99
552.34	23763.46
552.51	23625.37
552.68	24435.19
552.84	23838.36
553.01	23821.97
553.18	25039.05
553.34	24570.94
553.51	24266.67
553.67	24065.39
553.84	24842.45
554.01	24641.16
554.17	23405.36
554.34	24159.01
554.51	24980.54
554.67	24975.86
554.84	23838.36
555.00	23543.45
555.17	24079.43
555.33	24173.05
555.50	24694.99
555.67	23929.64
555.83	24458.60
556.00	23791.55
556.16	23955.38
556.33	23718.99
556.50	23417.06
556.66	22820.22
556.83	22125.08
556.99	22836.61
557.16	23267.27
557.32	23356.21
557.49	23234.50
557.65	23431.10
557.82	22487.87
557.98	22904.48
558.15	23461.53
558.32	23023.85
558.48	21675.70
558.65	21551.65
558.81	21860.60
558.98	22267.86
559.14	22146.15
559.31	22803.84
559.47	22457.44
559.64	21570.38
559.80	22518.29
559.97	22104.02
560.13	22820.22
560.30	23110.45
560.46	23246.20
560.63	23269.61
560.79	23646.43
560.96	22609.58
561.12	22345.09
561.29	22368.50
561.45	21624.21
561.61	21900.39
561.78	22539.36
561.94	22352.12
562.11	21509.52
562.27	21902.73
562.44	22799.16
562.60	22244.45
562.77	22757.03
562.93	22237.43
563.10	22209.34
563.26	22026.78
563.42	21390.16
563.59	21490.80
563.75	21855.92
563.92	22050.19
564.08	22178.92
564.24	21685.06
564.41	20861.19
564.57	21488.46
564.74	21399.52
564.90	21184.19
565.07	20657.57
565.23	19983.49
565.39	20271.38
565.56	21338.66
565.72	21099.93
565.88	21308.24
566.05	20774.60
566.21	20943.11
566.38	20329.89
566.54	20538.20
566.70	20704.38
566.87	21207.59
567.03	22003.38
567.19	22349.78
567.36	20613.10
567.52	21654.64
567.68	20680.97
567.85	20842.47
568.01	20961.84
568.17	20205.84
568.34	19756.46
568.50	19541.13
568.66	20100.52
568.83	20269.04
568.99	20814.38
569.15	20790.98
569.32	21053.12
569.48	20556.93
569.64	20196.48
569.81	19403.04
569.97	19852.42
570.13	20173.08
570.30	20006.90
570.46	19300.06
570.62	18384.91
570.78	18279.58
570.95	18623.64
571.11	19463.90
571.27	19618.37
571.43	19721.35
571.60	19880.51
571.76	19950.73
571.92	19946.05
572.09	20252.66
572.25	20177.76
572.41	20645.87
572.57	20521.82
572.74	19655.82
572.90	19896.89
573.06	19932.00
573.22	19704.97
573.38	19431.13
573.55	19033.24
573.71	19866.47
573.87	19662.84
574.03	19679.22
574.20	19892.21
574.36	19576.24
574.52	19407.72
574.68	19040.26
574.84	19276.65
575.01	19335.17
575.17	19227.50
575.33	19197.07
575.49	18705.56
575.65	19094.09
575.82	18735.99
575.98	19080.05
576.14	19070.68
576.30	18831.95
576.46	18443.42
576.62	19005.15
576.79	19096.43
576.95	18256.18
577.11	18232.77
577.27	18153.20
577.43	18380.23
577.59	18310.01
577.75	18991.11
577.92	18078.30
578.08	18118.09
578.24	17764.67
578.40	18031.49
578.56	18078.30
578.72	17975.31
578.88	18525.34
579.04	18476.19
579.21	18190.64
579.37	18293.63
579.53	17916.80
579.69	17841.90
579.85	17860.63
580.01	17806.80
580.17	17860.63
580.33	17738.92
580.49	17940.21
580.65	18349.80
580.82	18293.63
580.98	18178.94
581.14	18052.55
581.30	18595.56
581.46	18101.70
581.62	17963.61
581.78	18455.12
581.94	18707.90
582.10	18431.72
582.26	18342.78
582.42	18211.71
582.58	18939.62
582.74	18478.53
582.90	18160.22
583.06	18633.00
583.22	18462.15
583.38	18583.85
583.54	18398.95
583.70	18506.62
583.86	18214.05
584.02	18586.19
584.18	18052.55
584.34	18267.88
584.50	19183.03
584.66	18745.35
584.82	18085.32
584.98	17937.87
585.14	17668.70
585.30	17074.21
585.46	16966.54
585.62	16453.97
585.78	17200.60
585.94	17406.56
586.10	17458.06
586.26	17542.32
586.42	17518.91
586.58	17525.93
586.74	16669.30
586.90	17006.33
587.06	17394.86
587.22	16842.50
587.38	17114.00
587.54	16765.26
587.70	17099.95
587.86	16575.67
588.02	16805.05
588.18	16418.86
588.34	15838.41
588.49	15639.46
588.65	14516.00
588.81	14136.84
588.97	14609.62
589.13	14256.20
589.29	14413.02
589.45	15173.69
589.61	15571.58
589.77	15964.79
589.93	16168.42
590.08	16105.23
590.24	16350.98
590.40	16042.03
590.56	16039.69
590.72	15740.10
590.88	15494.35
591.04	15590.31
591.20	15660.52
591.35	16203.53
591.51	16657.59
591.67	16664.61
591.83	16168.42
591.99	16039.69
592.15	15887.56
592.31	15681.59
592.46	15414.77
592.62	15569.24
592.78	15810.32
592.94	15447.54
593.10	15571.58
593.26	15784.57
593.41	16025.65
593.57	16009.26
593.73	16100.55
593.89	15585.63
594.05	15194.76
594.20	14794.53
594.36	14843.68
594.52	15391.36
594.68	15204.12
594.84	15080.07
594.99	15215.82
595.15	15531.80
595.31	15337.53
595.47	15246.25
595.62	15229.87
595.78	15358.60
595.94	15178.37
596.10	15019.22
596.25	15164.33
596.41	15639.46
596.57	15456.90
596.73	15129.22
596.88	14993.47
597.04	14988.79
597.20	14401.32
597.36	14118.11
597.51	14448.13
597.67	14839.00
597.83	14457.49
597.99	14569.83
598.14	14370.89
598.30	13500.21
598.46	13884.06
598.61	14195.35
598.77	14766.44
598.93	15066.03
599.09	14998.15
599.24	14813.25
599.40	14813.25
599.56	14679.84
599.71	14478.55
599.87	14862.40
600.03	14913.89
600.18	15087.09
600.34	15459.24
600.50	14750.06
600.65	15255.61
600.81	15262.63
600.97	14881.13
601.12	14211.73
601.28	13874.70
601.44	13891.08
601.59	14010.45
601.75	14066.62
601.91	14452.81
602.06	13860.65
602.22	14382.59
602.37	14434.08
602.53	14420.04
602.69	14026.83
602.84	13621.92
603.00	14747.72
603.16	14363.87
603.31	14541.75
603.47	14183.65
603.62	13874.70
603.78	14544.09
603.94	14354.51
604.09	14621.33
604.25	15061.35
604.40	14654.09
604.56	14771.12
604.71	14780.48
604.87	14703.25
605.03	14963.04
605.18	14424.72
605.34	14003.43
605.49	14052.58
605.65	14506.64
605.80	14015.13
605.96	13830.23
606.12	13617.24
606.27	13650.00
606.43	13783.41
606.58	13881.72
606.74	13933.21
606.89	14174.28
607.05	13544.68
607.20	14167.26
607.36	14033.85
607.51	13942.57
607.67	13820.86
607.82	14038.53
607.98	13797.46
608.13	13703.84
608.29	13750.65
608.44	13668.73
608.60	13209.98
608.75	13458.08
608.91	13465.10
609.06	13343.39
609.22	13418.29
609.37	13750.65
609.53	13752.99
609.68	13125.72
609.84	12830.82
609.99	13015.72
610.15	12343.99
610.30	12851.88
610.46	12723.15
610.61	12947.84
610.76	13462.76
610.92	13839.59
611.07	14300.67
611.23	14209.39
611.38	13607.87
611.54	13308.29
611.69	12540.59
611.84	12442.29
612.00	12470.37
612.15	12713.79
612.31	13144.45
612.46	13062.53
612.62	12950.18
612.77	12999.34
612.92	13036.78
613.08	12519.53
613.23	12453.99
613.39	12376.75
613.54	12112.27
613.69	12184.83
613.85	12046.74
614.00	12009.29
614.15	12161.42
614.31	12414.20
614.46	12383.77
614.62	12301.86
614.77	12280.79
614.92	12173.13
615.08	12468.03
615.23	12156.74
615.38	12278.45
615.54	11705.02
615.69	11499.05
615.84	11143.29
616.00	11630.12
616.15	11896.94
616.30	11552.88
616.46	11414.79
616.61	11789.28
616.76	11719.06
616.92	11896.94
617.07	12245.68
617.22	12259.73
617.37	11939.07
617.53	12063.12
617.68	11824.39
617.83	11871.20
617.99	11948.43
618.14	11934.39
618.29	11983.54
618.45	11424.15
618.60	11009.88
618.75	11328.19
618.90	11592.67
619.06	11609.06
619.21	11971.84
619.36	11613.74
619.51	11976.52
619.67	11903.96
619.82	11487.35
619.97	11779.92
620.12	11716.72
620.28	11611.40
620.43	11506.07
620.58	11784.60
620.73	11480.33
620.89	11948.43
621.04	11791.62
621.19	11356.28
621.34	11311.81
621.49	10963.07
621.65	11232.23
621.80	10967.75
621.95	10864.77
622.10	11382.03
622.25	10726.68
622.41	10895.19
622.56	10785.19
622.71	11126.91
622.86	11145.63
623.01	11501.39
623.16	11337.56
623.32	11173.72
623.47	10846.04
623.62	10944.34
623.77	11098.82
623.92	10967.75
624.07	10569.86
624.23	10759.44
624.38	10466.88
624.53	11070.73
624.68	10555.82
624.83	10310.06
624.98	10270.27
625.13	10406.02
625.29	10134.52
625.44	10150.90
625.59	10546.45
625.74	11030.94
625.89	10544.11
626.04	10239.84
626.19	10078.35
626.34	10139.20
626.49	10101.75
626.65	10113.45
626.80	10190.69
626.95	10441.13
627.10	10576.88
627.25	10221.12
627.40	9603.22
627.55	9600.88
627.70	9652.37
627.85	9308.31
628.00	9750.67
628.15	9951.96
628.30	9900.47
628.45	9547.05
628.60	9783.44
628.76	9811.53
628.91	9568.11
629.06	9783.44
629.21	9596.20
629.36	9715.56
629.51	9764.72
629.66	9799.82
629.81	9781.10
629.96	9703.86
630.11	9717.90
630.26	9540.02
630.41	9717.90
630.56	9476.83
630.71	9476.83
630.86	9149.15
631.01	9205.33
631.16	9123.41
631.31	8847.22
631.46	8964.25
631.61	9301.29
631.76	9598.54
631.91	9542.36
632.06	9668.75
632.21	9905.15
632.36	10225.80
632.51	9909.83
632.66	10225.80
632.81	9432.36
632.96	9577.47
633.10	9303.63
633.25	9572.79
633.40	9668.75
633.55	9254.48
633.70	9022.77
633.85	9139.79
634.00	9006.38
634.15	8737.22
634.30	8844.88
634.45	8879.99
634.60	9479.17
634.75	9329.38
634.90	9528.32
635.05	9174.90
635.19	9135.11
635.34	9357.46
635.49	9242.78
635.64	9308.31
635.79	8905.74
635.94	8816.80
636.09	8840.20
636.24	9001.70
636.39	8854.25
636.53	9111.71
636.68	9214.69
636.83	9315.33
636.98	9282.56
637.13	9210.01
637.28	9233.41
637.43	9188.94
637.57	9064.89
637.72	9184.26
637.87	8924.46
638.02	8510.19
638.17	9116.39
638.32	9249.80
638.46	8587.43
638.61	8404.86
638.76	8667.00
638.91	8475.08
639.06	8922.12
639.20	8980.64
639.35	8940.85
639.50	8629.56
639.65	8727.86
639.80	8814.46
639.94	8678.71
640.09	8547.64
640.24	8451.67
640.39	8636.58
640.54	8802.75
640.68	8599.13
640.83	8812.12
640.98	8636.58
641.13	8418.91
641.27	8365.07
641.42	8072.51
641.57	8060.80
641.72	8180.17
641.86	8308.90
642.01	8491.46
642.16	8819.14
642.31	8521.89
642.45	8788.71
642.60	8557.00
642.75	8589.77
642.90	8409.54
643.04	8723.18
643.19	8538.27
643.34	8322.94
643.48	7857.18
643.63	7906.33
643.78	7866.54
643.93	8142.72
644.07	8053.78
644.22	8404.86
644.37	8161.45
644.51	8201.24
644.66	8016.33
644.81	7922.71
644.95	8042.08
645.10	8074.85
645.25	8105.28
645.39	8081.87
645.54	7833.77
645.69	7714.41
645.83	7431.20
645.98	7686.32
646.13	7836.11
646.27	8037.40
646.42	7812.71
646.57	7810.37
646.71	7749.51
646.86	7819.73
647.00	7775.26
647.15	7419.50
647.30	7775.26
647.44	7602.06
647.59	7660.57
647.74	7442.90
647.88	7346.94
648.03	7403.11
648.17	7243.96
648.32	7468.65
648.47	7398.43
648.61	7112.89
648.76	6881.18
648.90	6853.09
649.05	6707.98
649.20	6672.87
649.34	6757.13
649.49	6607.33
649.63	6930.33
649.78	7138.63
649.92	7213.53
650.07	7536.52
650.21	7634.83
650.36	7442.90
650.51	7194.81
650.65	7297.79
650.80	7492.05
650.94	7052.03
651.09	7192.47
651.23	7150.34
651.38	7286.09
651.52	7372.69
651.67	7201.83
651.81	7344.60
651.96	7143.32
652.10	7164.38
652.25	7183.10
652.39	7124.59
652.54	7262.68
652.68	7241.62
652.83	7302.47
652.97	7377.37
653.12	7363.33
653.26	7194.81
653.41	7131.61
653.55	7197.15
653.70	7152.68
653.84	7281.41
653.99	7403.11
654.13	7314.17
654.27	6986.50
654.42	6867.13
654.56	6764.15
654.71	6609.67
654.85	6747.76
655.00	6825.00
655.14	6504.35
655.29	6506.69
655.43	6497.33
655.57	6061.99
655.72	5753.04
655.86	5137.48
656.01	5076.62
656.15	5210.03
656.30	5935.60
656.44	6022.20
656.58	5916.87
656.73	6251.57
656.87	6232.85
657.01	5989.43
657.16	6242.21
657.30	6394.34
657.45	6607.33
657.59	6637.76
657.73	6686.91
657.88	6635.42
658.02	6511.37
658.16	6644.78
658.31	6740.74
658.45	6839.05
658.60	6817.98
658.74	6757.13
658.88	6787.55
659.03	6600.31
659.17	6829.68
659.31	6581.59
659.46	6567.54
659.60	6511.37
659.74	6607.33
659.89	6825.00
660.03	6640.10
660.17	6513.71
660.32	6663.51
660.46	6333.49
660.60	6286.68
660.74	6211.78
660.89	6349.87
661.03	6553.50
661.17	6286.68
661.32	6422.43
661.46	6438.81
661.60	6553.50
661.74	6672.87
661.89	6724.36
662.03	6370.94
662.17	6354.55
662.31	6553.50
662.46	6626.06
662.60	6553.50
662.74	6384.98
662.88	6193.06
663.03	6202.42
663.17	6298.38
663.31	6087.73
663.45	6090.07
663.60	6228.17
663.74	5987.09
663.88	6120.50
664.02	5696.86
664.17	5998.79
664.31	5797.51
664.45	5863.04
664.59	5834.96
664.73	5757.72
664.88	5830.27
665.02	6010.50
665.16	5825.59
665.30	5830.27
665.44	5881.77
665.59	6078.37
665.73	6174.33
665.87	6174.33
666.01	6038.58
666.15	5909.85
666.29	5907.51
666.44	5790.49
666.58	5680.48
666.72	6083.05
666.86	5790.49
667.00	5884.11
667.14	5750.70
667.28	5750.70
667.43	5558.77
667.57	5713.25
667.71	5523.66
667.85	5582.18
667.99	5652.39
668.13	6017.52
668.27	5621.97
668.41	5556.43
668.56	5451.11
668.70	5675.80
668.84	5455.79
668.98	5509.62
669.12	5558.77
669.26	5575.16
669.40	5514.30
669.54	5280.25
669.68	5378.55
669.82	4992.36
669.96	5160.88
670.10	5132.79
670.25	5212.37
670.39	5327.06
670.53	5121.09
670.67	5104.71
670.81	5369.19
670.95	5516.64
671.09	5369.19
671.23	5137.48
671.37	5125.77
671.51	5114.07
671.65	5343.44
671.79	5205.35
671.93	5174.92
672.07	5090.67
672.21	5165.56
672.35	5109.39
672.49	5172.58
672.63	5224.08
672.77	5015.77
672.91	5008.75
673.05	5231.10
673.19	5020.45
673.33	5015.77
673.47	5048.54
673.61	4945.55
673.75	4730.22
673.89	4753.63
674.03	4863.63
674.17	5050.88
674.31	5078.96
674.45	5074.28
674.59	5018.11
674.73	5001.72
674.87	4912.78
675.01	4873.00
675.15	4858.95
675.29	4826.18
675.43	4512.55
675.56	4690.43
675.70	4762.99
675.84	4634.26
675.98	4622.56
676.12	4500.85
676.26	4531.28
676.40	4671.71
676.54	4926.83
676.68	4603.83
676.82	4388.50
676.96	4440.00
677.10	4475.10
677.23	4608.51
677.37	4589.79
677.51	4634.26
677.65	4512.55
677.79	4451.70
677.93	4507.87
678.07	4676.39
678.21	4554.68
678.34	4599.15
678.48	4407.23
678.62	4545.32
678.76	4498.51
678.90	4423.61
679.04	4435.32
679.18	4461.06
679.31	4358.08
679.45	4447.02
679.59	4306.59
679.73	4315.95
679.87	4124.02
680.00	4081.89
680.14	4046.79
680.28	4042.11
680.42	4009.34
680.56	3920.40
680.70	4028.06
680.83	4021.04
680.97	3885.29
681.11	3985.93
681.25	3953.16
681.39	3955.51
681.52	3751.88
681.66	3868.91
681.80	3990.61
681.94	4004.66
682.07	3805.71
682.21	4037.42
682.35	4072.53
682.49	3833.80
682.62	3737.84
682.76	3939.12
682.90	3803.37
683.04	3857.20
683.17	3688.68
683.31	3658.26
683.45	3756.56
683.59	3646.55
683.72	3754.22
683.86	3578.68
684.00	3461.65
684.13	3499.10
684.27	3740.18
684.41	3658.26
684.55	3588.04
684.68	3585.70
684.82	3562.30
684.96	3412.50
685.09	3372.71
685.23	3412.50
685.37	3358.67
685.50	3421.86
685.64	3574.00
685.78	3428.88
685.91	3222.92
686.05	3227.60
686.19	3073.12
686.32	3082.49
686.46	2768.85
686.60	2368.62
686.73	2162.66
686.87	2104.14
687.01	2003.50
687.14	2038.61
687.28	2120.53
687.42	2363.94
687.55	2661.19
687.69	2551.18
687.82	2726.72
687.96	2818.00
688.10	2555.86
688.23	2579.27
688.37	2705.66
688.50	2682.25
688.64	2476.29
688.78	2368.62
688.91	2394.37
689.05	2382.67
689.18	2424.80
689.32	2431.82
689.46	2389.69
689.59	2541.82
689.73	2359.26
689.86	2375.64
690.00	2415.43
690.13	2548.84
690.27	2642.46
690.41	2565.23
690.54	2541.82
690.68	2633.10
690.81	2457.56
690.95	2583.95
691.08	2518.42
691.22	2579.27
691.35	2621.40
691.49	2810.98
691.62	2602.68
691.76	2464.58
691.89	2558.21
692.03	2656.51
692.16	2527.78
692.30	2752.47
692.43	2590.97
692.57	2576.93
692.70	2413.09
692.84	2438.84
692.97	2436.50
693.11	2413.09
693.24	2321.81
693.38	2340.54
693.51	2373.30
693.65	2258.62
693.78	2120.53
693.92	2282.02
694.05	2232.87
694.19	2260.96
694.32	2366.28
694.45	2319.47
694.59	2265.64
694.72	2345.22
694.86	2445.86
694.99	2457.56
695.13	2335.85
695.26	2518.42
695.39	2408.41
695.53	2242.23
695.66	2286.70
695.80	2186.06
695.93	2204.78
696.07	2239.89
696.20	2122.87
696.33	2176.70
696.47	2235.21
696.60	2270.32
696.73	2237.55
696.87	2321.81
697.00	2216.49
697.14	2197.76
697.27	2033.93
697.40	2012.86
697.54	2097.12
697.67	2001.16
697.80	1977.75
697.94	2069.03
698.07	2047.97
698.21	1912.22
698.34	1994.14
698.47	1919.24
698.61	2001.16
698.74	1959.03
698.87	2047.97
699.01	2012.86
699.14	1970.73
699.27	1952.01
699.40	1928.60
699.54	1900.52
699.67	1952.01
699.80	1949.67
699.94	1849.02
700.07	1893.49
700.20	1776.47
700.34	1715.61
700.47	1774.13
700.60	1724.97
700.73	1806.89
700.87	1933.28
701.00	1818.60
701.13	1671.14
701.26	1675.82
701.40	1673.48
701.53	1694.55
701.66	1631.35
701.79	1621.99
701.93	1563.48
702.06	1706.25
702.19	1633.69
702.32	1619.65
702.46	1584.54
702.59	1537.73
702.72	1706.25
702.85	1643.06
702.99	1640.72
703.12	1643.06
703.25	1713.27
703.38	1710.93
703.51	1514.33
703.65	1465.18
703.78	1584.54
703.91	1535.39
704.04	1671.14
704.17	1673.48
704.31	1554.12
704.44	1495.60
704.57	1614.97
704.70	1474.54
704.83	1369.21
704.96	1530.71
705.10	1507.30
705.23	1528.37
>>>>>End Processed Spectral Data<<<<<
