SpectraSuite Data File
++++++++++++++++++++++++++++++++++++
Date: Mon Oct 07 14:53:55 GMT-05:00 2013
User: price-jones
Dark Spectrum Present: No
Reference Spectrum Present: No
Number of Sampled Component Spectra: 1
Spectrometers: USB2+H05261
Integration Time (usec): 100000 (USB2+H05261)
Spectra Averaged: 1 (USB2+H05261)
Boxcar Smoothing: 0 (USB2+H05261)
Correct for Electrical Dark: No (USB2+H05261)
Strobe/Lamp Enabled: No (USB2+H05261)
Correct for Detector Non-linearity: No (USB2+H05261)
Correct for Stray Light: No (USB2+H05261)
Number of Pixels in Processed Spectrum: 2048
>>>>>Begin Processed Spectral Data<<<<<
365.73	0.00
365.92	0.00
366.12	0.00
366.32	0.00
366.52	0.00
366.72	0.00
366.91	0.00
367.11	0.00
367.31	0.00
367.51	0.00
367.70	0.00
367.90	0.00
368.10	0.00
368.30	0.00
368.49	0.00
368.69	0.00
368.89	0.00
369.09	0.00
369.28	0.00
369.48	0.00
369.68	0.00
369.87	0.00
370.07	0.00
370.27	0.00
370.47	540.66
370.66	2911.63
370.86	3545.91
371.06	3758.90
371.25	3852.52
371.45	3541.23
371.65	3185.47
371.84	2881.20
372.04	3150.36
372.24	3412.50
372.44	3646.55
372.63	3463.99
372.83	3290.79
373.03	2970.14
373.22	2698.64
373.42	2780.56
373.62	3241.64
373.81	3508.46
374.01	3599.74
374.21	3269.73
374.40	2970.14
374.60	3126.96
374.79	3578.68
374.99	4025.72
375.19	4255.09
375.38	4400.21
375.58	4042.11
375.78	3941.46
375.97	4236.37
376.17	4339.35
376.37	4215.30
376.56	4313.61
376.76	4547.66
376.95	4744.27
377.15	5207.69
377.35	5418.34
377.54	5706.23
377.74	5689.84
377.93	5778.78
378.13	5837.30
378.33	5369.19
378.52	4929.17
378.72	4751.29
378.91	4786.40
379.11	4498.51
379.31	4451.70
379.50	4423.61
379.70	4830.87
379.89	5359.83
380.09	5526.00
380.28	5593.88
380.48	5792.83
380.68	5467.49
380.87	5441.75
381.07	4966.62
381.26	4535.96
381.46	4344.03
381.65	4203.60
381.85	4107.64
382.04	3927.42
382.24	3639.53
382.43	3398.46
382.63	3428.88
382.83	3428.88
383.02	3456.97
383.22	3536.55
383.41	3471.01
383.61	3740.18
383.80	4255.09
384.00	4624.90
384.19	5329.40
384.39	5621.97
384.58	5579.84
384.78	5565.79
384.97	5481.53
385.17	5177.26
385.36	4943.21
385.56	4727.88
385.75	4833.21
385.95	5413.66
386.14	5870.06
386.34	5926.24
386.53	5713.25
386.72	5240.46
386.92	5235.78
387.11	5598.56
387.31	5891.13
387.50	5884.11
387.70	5633.67
387.89	5502.60
388.09	5430.04
388.28	5476.85
388.48	5692.18
388.67	6036.24
388.86	6621.38
389.06	6937.35
389.25	7620.78
389.45	7506.10
389.64	7545.89
389.84	7382.05
390.03	7225.23
390.22	7204.17
390.42	7620.78
390.61	8116.98
390.81	8561.68
391.00	8894.04
391.19	8702.11
391.39	8339.33
391.58	7882.92
391.78	7407.80
391.97	7129.27
392.16	6752.45
392.36	6132.20
392.55	4978.32
392.75	3927.42
392.94	3279.09
393.13	3007.59
393.33	3616.13
393.52	4725.54
393.71	5949.64
393.91	6633.08
394.10	7274.38
394.29	7796.32
394.49	8472.74
394.68	9188.94
394.88	9217.03
395.07	9486.19
395.26	9425.34
395.46	9078.94
395.65	8559.34
395.84	7618.44
396.04	6389.66
396.23	5163.22
396.42	4315.95
396.62	4173.18
396.81	4755.97
397.00	6246.89
397.19	7630.15
397.39	9291.93
397.58	10520.71
397.77	11138.61
397.97	11470.97
398.16	11555.22
398.35	11913.33
398.55	12074.82
398.74	12695.07
398.93	13202.96
399.12	12484.42
399.32	12140.36
399.51	12564.00
399.70	13427.65
399.90	13341.05
400.09	13425.31
400.28	13174.88
400.47	13713.20
400.67	14193.01
400.86	14281.95
401.05	14097.05
401.24	14391.95
401.44	14548.77
401.63	14799.21
401.82	14682.18
402.01	14553.45
402.21	14984.11
402.40	14773.46
402.59	14391.95
402.78	14118.11
402.97	13172.54
403.17	14099.39
403.36	15002.83
403.55	15597.33
403.74	15744.78
403.93	15161.99
404.13	13617.24
404.32	13607.87
404.51	14155.56
404.70	15267.31
404.89	15101.14
405.09	15311.78
405.28	14881.13
405.47	14644.73
405.66	14651.75
405.85	14075.98
406.05	13781.07
406.24	14022.15
406.43	14422.38
406.62	14934.96
406.81	15138.58
407.00	14291.31
407.20	14583.88
407.39	14277.27
407.58	15166.67
407.77	15529.45
407.96	16229.27
408.15	16308.85
408.34	16393.11
408.54	17294.22
408.73	17277.83
408.92	16830.79
409.11	16636.53
409.30	15777.55
409.49	14876.44
409.68	14005.77
409.87	13441.70
410.07	13916.83
410.26	15367.96
410.45	16278.43
410.64	16725.47
410.83	17156.13
411.02	17659.34
411.21	18307.67
411.40	18087.66
411.59	17958.93
411.78	18331.08
411.98	17898.08
412.17	18071.28
412.36	17532.95
412.55	18183.62
412.74	17621.89
412.93	16915.05
413.12	16936.12
413.31	18822.59
413.50	19075.37
413.69	19356.23
413.88	18586.19
414.07	18178.94
414.26	18384.91
414.45	18752.37
414.64	18862.38
414.83	18930.25
415.02	18658.75
415.22	18558.11
415.41	19176.01
415.60	19573.90
415.79	20702.04
415.98	20973.54
416.17	20971.20
416.36	20390.75
416.55	19922.64
416.74	19587.94
416.93	18883.44
417.12	18941.96
417.31	19096.43
417.50	19391.34
417.69	19922.64
417.88	19754.12
418.07	19564.54
418.26	19744.76
418.45	19447.51
418.64	20397.77
418.83	20985.24
419.02	20755.87
419.21	20477.35
419.39	19817.32
419.58	18712.58
419.77	19199.41
419.96	19721.35
420.15	20613.10
420.34	21223.98
420.53	22066.57
420.72	22459.78
420.91	22389.56
421.10	21811.45
421.29	22005.72
421.48	20968.86
421.67	22417.65
421.86	21242.70
422.05	20130.95
422.24	18045.53
422.43	17642.96
422.61	19655.82
422.80	21621.87
422.99	20994.61
423.18	20535.86
423.37	20177.76
423.56	20219.89
423.75	20350.96
423.94	20957.16
424.13	19765.82
424.32	20067.75
424.50	20201.16
424.69	19936.68
424.88	20013.92
425.07	19716.67
425.26	19812.63
425.45	19496.66
425.64	19087.07
425.83	19136.22
426.01	20287.76
426.20	20812.04
426.39	20809.70
426.58	19199.41
426.77	17792.75
426.96	16886.97
427.15	17729.56
427.33	19178.35
427.52	19995.20
427.71	20063.07
427.90	19569.22
428.09	19688.59
428.28	19119.84
428.46	18349.80
428.65	18010.42
428.84	18771.10
429.03	18972.38
429.22	17575.08
429.40	17078.89
429.59	15819.68
429.78	13495.53
429.97	13661.71
430.16	13982.36
430.34	14181.31
430.53	13678.09
430.72	14312.38
430.91	15688.61
431.10	18326.39
431.28	21729.53
431.47	23545.79
431.66	23922.62
431.85	21909.75
432.03	20091.16
432.22	19220.48
432.41	19999.88
432.60	22300.62
432.79	23105.77
432.97	23545.79
433.16	23278.97
433.35	20910.35
433.54	18998.13
433.72	17874.67
433.91	17905.10
434.10	20470.33
434.28	22071.25
434.47	23098.75
434.66	22750.01
434.85	21994.01
435.03	22068.91
435.22	22490.21
435.41	24222.20
435.59	24198.80
435.78	24170.71
435.97	24814.36
436.16	24954.79
436.34	24372.00
436.53	24006.87
436.72	24070.07
436.90	22623.62
437.09	22785.12
437.28	22405.95
437.46	23089.38
437.65	23229.82
437.84	21642.93
438.02	19939.02
438.21	19545.81
438.40	20762.89
438.58	22291.26
438.77	22963.00
438.96	23257.90
439.14	24596.69
439.33	24741.80
439.52	25181.82
439.70	24833.08
439.89	23728.35
440.08	23510.68
440.26	22913.84
440.45	24346.25
440.63	25874.62
440.82	27297.67
441.01	26874.03
441.19	26625.93
441.38	26801.47
441.57	27892.16
441.75	28374.31
441.94	28474.96
442.12	28329.84
442.31	28879.87
442.50	28364.95
442.68	28187.07
442.87	27978.76
443.05	27447.46
443.24	27964.72
443.43	28507.72
443.61	29347.98
443.80	29446.28
443.98	27700.24
444.17	27838.33
444.35	29308.19
444.54	30008.01
444.73	29825.45
444.91	28077.07
445.10	26794.45
445.28	26295.92
445.47	25589.08
445.65	25556.31
445.84	26735.94
446.02	27740.03
446.21	27807.90
446.39	28041.96
446.58	28044.30
446.77	28533.47
446.95	29055.41
447.14	29930.77
447.32	30087.59
447.51	29654.59
447.69	28505.38
447.88	28100.47
448.06	28407.08
448.25	29420.53
448.43	29144.35
448.62	28402.40
448.80	28669.22
448.99	28837.74
449.17	29125.63
449.36	29158.39
449.54	30192.91
449.73	30572.08
449.91	30909.11
450.10	31789.16
450.28	32357.91
450.46	31674.47
450.65	31866.39
450.83	31669.79
451.02	30916.14
451.20	30927.84
451.39	30927.84
451.57	30785.07
451.76	30871.67
451.94	30665.70
452.13	29975.24
452.31	28830.72
452.49	27330.44
452.68	27871.10
452.86	27466.19
453.05	28341.55
453.23	28828.38
453.42	29837.15
453.60	30644.63
453.78	30476.12
453.97	30307.60
454.15	30352.07
454.34	29670.97
454.52	29661.61
454.70	29165.42
454.89	29575.01
455.07	30003.33
455.26	29900.34
455.44	31101.04
455.62	31639.36
455.81	31938.95
455.99	31690.85
456.17	31365.52
456.36	31311.69
456.54	31983.42
456.73	32135.56
456.91	33024.96
457.09	32608.34
457.28	33270.72
457.46	32201.09
457.64	32020.87
457.83	30733.57
458.01	30331.00
458.19	30979.33
458.38	31248.49
458.56	31850.01
458.74	32376.63
458.93	31681.49
459.11	31716.60
459.29	31550.42
459.48	31730.64
459.66	31630.00
459.84	31496.59
460.03	31917.89
460.21	31922.57
460.39	32903.25
460.57	32898.57
460.76	33193.48
460.94	33373.70
461.12	32390.67
461.31	32699.62
461.49	32903.25
461.67	32568.55
461.85	34148.42
462.04	33642.86
462.22	34387.15
462.40	33869.89
462.59	33347.95
462.77	33422.85
462.95	33766.91
463.13	33163.05
463.32	32659.84
463.50	32591.96
463.68	32613.02
463.86	32954.74
464.05	32158.96
464.23	31637.02
464.41	31676.81
464.59	31096.36
464.78	32699.62
464.96	32060.66
465.14	31723.62
465.32	32938.36
465.50	33951.81
465.69	34110.97
465.87	33305.82
466.05	32610.68
466.23	30888.05
466.41	29860.55
466.60	31042.53
466.78	31164.23
466.96	31775.11
467.14	32385.99
467.32	32652.81
467.51	32907.93
467.69	31386.58
467.87	31976.40
468.05	32252.58
468.23	32240.88
468.41	32009.17
468.60	32610.68
468.78	32769.84
468.96	32828.35
469.14	33254.33
469.32	33296.46
469.50	31791.50
469.69	31873.42
469.87	31255.51
470.05	31082.31
470.23	31330.41
470.41	31510.63
470.59	32254.92
470.77	31929.59
470.95	32858.78
471.14	33280.08
471.32	33081.13
471.50	35150.17
471.68	35269.53
471.86	35445.07
472.04	35218.04
472.22	35374.86
472.40	33783.29
472.58	33563.28
472.77	32903.25
472.95	33692.01
473.13	34881.00
473.31	33745.84
473.49	34490.13
473.67	34696.10
473.85	34904.41
474.03	36058.29
474.21	35730.62
474.39	36079.36
474.57	36786.20
474.75	36467.89
474.93	35969.35
475.12	35253.15
475.30	35395.92
475.48	35236.77
475.66	36154.26
475.84	35681.47
476.02	35297.62
476.20	34712.49
476.38	35660.40
476.56	36266.60
476.74	37188.77
476.92	37146.64
477.10	37823.06
477.28	38810.76
477.46	38677.35
477.64	39112.69
477.82	39243.76
478.00	39166.52
478.18	38457.34
478.36	38171.80
478.54	38223.29
478.72	38731.18
478.90	39676.76
479.08	41118.53
479.26	41439.18
479.44	41340.88
479.62	41326.84
479.80	40718.30
479.98	41177.04
480.16	42012.62
480.34	40739.36
480.52	41207.47
480.70	41490.68
480.88	41570.25
481.06	42653.92
481.24	42717.12
481.41	43653.33
481.59	44247.83
481.77	43906.11
481.95	43342.04
482.13	43374.81
482.31	43281.19
482.49	43735.25
482.67	43938.88
482.85	44034.84
483.03	44339.11
483.21	44954.67
483.39	45579.59
483.57	44566.14
483.74	44156.55
483.92	44147.18
484.10	44212.72
484.28	45343.20
484.46	45610.02
484.64	46024.29
484.82	44636.36
485.00	44516.99
485.18	44250.17
485.35	42801.38
485.53	39550.37
485.71	35957.65
485.89	35590.19
486.07	37123.24
486.25	40301.68
486.43	42665.63
486.61	43643.97
486.78	43814.83
486.96	43655.67
487.14	45390.01
487.32	46663.26
487.50	47491.81
487.68	48200.99
487.85	48793.15
488.03	48659.74
488.21	48364.83
488.39	47639.26
488.57	47243.71
488.75	46696.03
488.92	47868.64
489.10	50064.06
489.28	51489.45
489.46	52182.24
489.64	52083.94
489.81	52275.87
489.99	51885.00
490.17	51735.20
490.35	52402.25
490.53	51524.55
490.70	51494.13
490.88	50965.17
491.06	52357.78
491.24	52353.10
491.41	51262.41
491.59	49258.91
491.77	48285.25
491.95	49961.08
492.13	51089.21
492.30	52282.89
492.48	53282.30
492.66	53560.82
492.84	53914.24
493.01	53165.27
493.19	52842.27
493.37	52495.88
493.54	52051.17
493.72	52807.17
493.90	53776.15
494.08	54506.40
494.25	55072.81
494.43	55124.30
494.61	55393.46
494.79	55494.10
494.96	55236.64
495.14	54784.92
495.32	53738.70
495.49	53408.68
495.67	54192.76
495.85	55320.90
496.02	56039.45
496.20	55945.83
496.38	55264.73
496.55	55435.59
496.73	55569.00
496.91	55735.18
497.09	56603.52
497.26	56659.69
497.44	56348.40
497.62	55543.25
497.79	54656.19
497.97	53546.78
498.14	53570.18
498.32	54588.31
498.50	55681.34
498.67	56175.20
498.85	56264.14
499.03	56259.46
499.20	56559.05
499.38	56655.01
499.56	56303.93
499.73	56023.06
499.91	55498.78
500.08	55098.55
500.26	54316.81
500.44	54789.60
500.61	55379.42
500.79	55444.95
500.97	54887.90
501.14	54665.55
501.32	54607.04
501.49	54571.93
501.67	54948.76
501.84	55517.51
502.02	55604.11
502.20	56219.67
502.37	56016.04
502.55	56088.60
502.72	56540.32
502.90	57008.43
503.07	56889.06
503.25	56512.23
503.43	55519.85
503.60	55098.55
503.78	54265.32
503.95	54588.31
504.13	56299.25
504.30	56872.68
504.48	56849.27
504.65	56308.61
504.83	56420.95
505.01	57181.63
505.18	57422.70
505.36	58003.16
505.53	57991.45
505.71	58267.64
505.88	58078.05
506.06	57694.21
506.23	57352.49
506.41	56973.32
506.58	56985.02
506.76	57008.43
506.93	57308.02
507.11	56821.19
507.28	56963.96
507.46	56762.67
507.63	56133.07
507.81	55800.71
507.98	56086.26
508.16	56535.64
508.33	57230.78
508.50	57649.74
508.68	57914.22
508.85	58436.16
509.03	58539.14
509.20	58045.29
509.38	57403.98
509.55	56587.13
509.73	56935.87
509.90	57471.85
510.08	57633.35
510.25	57638.03
510.42	57373.55
510.60	57202.69
510.77	57361.85
510.95	58108.48
511.12	58258.27
511.30	58452.54
511.47	58616.38
511.64	58585.95
511.82	58410.41
511.99	57628.67
512.17	56917.15
512.34	56647.99
512.51	56966.30
512.69	56994.39
512.86	57155.88
513.04	57794.85
513.21	57506.96
513.38	57265.89
513.56	56755.65
513.73	56032.42
513.90	56329.67
514.08	56236.05
514.25	56647.99
514.43	57041.20
514.60	56996.73
514.77	57045.88
514.95	57354.83
515.12	57263.55
515.29	57219.08
515.47	57865.06
515.64	58120.18
515.81	57612.29
515.99	57162.90
516.16	55826.46
516.33	53411.02
516.51	51770.31
516.68	50911.33
516.85	50316.84
517.03	50738.13
517.20	53670.82
517.37	56128.39
517.54	57190.99
517.72	56952.26
517.89	54471.29
518.06	51753.93
518.24	51913.08
518.41	54651.51
518.58	55866.25
518.75	56179.88
518.93	56100.30
519.10	55875.61
519.27	56502.87
519.45	56671.39
519.62	57462.49
519.79	57733.99
519.96	57703.57
520.14	57031.83
520.31	56259.46
520.48	56100.30
520.65	56779.06
520.83	57432.07
521.00	57801.87
521.17	57602.92
521.34	57219.08
521.52	57483.56
521.69	58005.50
521.86	58674.89
522.03	57902.51
522.20	56877.36
522.38	56086.26
522.55	55866.25
522.72	56559.05
522.89	56786.08
523.07	56940.55
523.24	56891.40
523.41	57970.39
523.58	58351.90
523.75	58775.53
523.92	58599.99
524.10	58485.31
524.27	58473.60
524.44	58237.21
524.61	58223.17
524.78	57961.03
524.96	57932.94
525.13	58003.16
525.30	57968.05
525.47	58581.27
525.64	58492.33
525.81	57841.66
525.98	56264.14
526.16	54904.29
526.33	54223.19
526.50	54010.20
526.67	53324.43
526.84	53996.16
527.01	55103.23
527.18	55861.57
527.36	56926.51
527.53	57586.54
527.70	58101.46
527.87	57275.25
528.04	56832.89
528.21	57448.45
528.38	58211.46
528.55	58712.34
528.72	58951.07
528.89	59040.01
529.07	58747.45
529.24	58262.96
529.41	57523.35
529.58	56842.25
529.75	57052.90
529.92	57619.31
530.09	58113.16
530.26	58363.60
530.43	58789.58
530.60	58681.91
530.77	58981.50
530.94	59231.94
531.11	58445.52
531.28	58174.02
531.46	58134.23
531.63	58145.93
531.80	58071.03
531.97	57616.97
532.14	57043.54
532.31	55753.90
532.48	55325.58
532.65	55110.25
532.82	56018.38
532.99	57230.78
533.16	57378.23
533.33	58131.89
533.50	57904.85
533.67	57237.80
533.84	56891.40
534.01	56889.06
534.18	57312.70
534.35	57425.04
534.52	57265.89
534.69	57619.31
534.86	57860.38
535.03	58103.80
535.20	58508.71
535.37	58925.33
535.54	58852.77
535.71	58534.46
535.88	58253.59
536.05	57570.16
536.22	57361.85
536.38	57141.84
536.55	56629.26
536.72	56072.21
536.89	55985.61
537.06	56612.88
537.23	57446.11
537.40	57696.55
537.57	57827.62
537.74	57586.54
537.91	57595.90
538.08	57315.04
538.25	57654.42
538.42	57649.74
538.59	57551.43
538.75	56989.70
538.92	56500.53
539.09	56449.04
539.26	56334.35
539.43	55938.80
539.60	56154.13
539.77	56191.58
539.94	56236.05
540.11	55487.08
540.28	54908.97
540.44	55178.13
540.61	55386.44
540.78	55597.09
540.95	56004.34
541.12	56339.04
541.29	56755.65
541.46	56956.94
541.62	57116.09
541.79	56884.38
541.96	56320.31
542.13	55987.95
542.30	56456.06
542.47	56617.56
542.63	56233.71
542.80	56018.38
542.97	56413.93
543.14	56196.26
543.31	56210.31
543.48	56561.39
543.64	57542.07
543.81	57911.88
543.98	57635.69
544.15	57013.11
544.32	56191.58
544.48	56158.81
544.65	57015.45
544.82	57546.75
544.99	57198.01
545.16	56404.57
545.32	56317.97
545.49	57099.71
545.66	57504.62
545.83	56947.57
546.00	56512.23
546.16	56282.86
546.33	56395.21
546.50	56395.21
546.67	56865.66
546.83	56540.32
547.00	56589.47
547.17	55896.67
547.34	55526.87
547.50	55194.51
547.67	55639.22
547.84	55725.81
548.00	56128.39
548.17	56573.09
548.34	56537.98
548.51	56289.88
548.67	56556.70
548.84	56334.35
549.01	56374.14
549.18	56528.62
549.34	56212.65
549.51	56203.28
549.68	56247.75
549.84	55889.65
550.01	55847.52
550.18	55810.07
550.34	55641.56
550.51	56023.06
550.68	56044.13
550.84	55540.91
551.01	55622.83
551.18	55718.79
551.34	55784.33
551.51	56100.30
551.68	56306.27
551.84	56172.86
552.01	56296.91
552.18	55852.20
552.34	55147.70
552.51	54887.90
552.68	54536.82
552.84	55224.94
553.01	55597.09
553.18	55440.27
553.34	55494.10
553.51	55489.42
553.67	56076.90
553.84	56074.55
554.01	55903.70
554.17	55819.44
554.34	55810.07
554.51	55884.97
554.67	56294.56
554.84	56261.80
555.00	55744.54
555.17	55484.74
555.33	55416.86
555.50	55409.84
555.67	55402.82
555.83	55229.62
556.00	55140.68
556.16	54859.82
556.33	54684.28
556.50	54103.82
556.66	54394.05
556.83	53996.16
556.99	54157.66
557.16	54398.73
557.32	54920.67
557.49	54740.45
557.65	54988.55
557.82	54813.01
557.98	54513.42
558.15	54176.38
558.32	53347.83
558.48	52533.32
558.65	52559.07
558.81	53153.57
558.98	53109.10
559.14	53567.84
559.31	53764.45
559.47	53661.46
559.64	53258.89
559.80	52910.15
559.97	52816.53
560.13	53228.46
560.30	54513.42
560.46	54841.09
560.63	55489.42
560.79	55166.43
560.96	54667.89
561.12	53457.84
561.29	52280.55
561.45	52701.84
561.61	53277.61
561.78	53722.32
561.94	53829.98
562.11	53338.47
562.27	53605.29
562.44	53382.94
562.60	54185.74
562.77	54162.34
562.93	54403.41
563.10	53947.01
563.26	53530.39
563.42	53521.03
563.59	53265.91
563.75	53183.99
563.92	53214.42
564.08	53160.59
564.24	53560.82
564.41	53364.21
564.57	53406.34
564.74	53279.96
564.90	52947.60
565.07	53020.16
565.23	52793.12
565.39	52086.28
565.56	51854.57
565.72	51634.56
565.88	51866.27
566.05	51704.77
566.21	52217.35
566.38	52402.25
566.54	52554.39
566.70	53006.11
566.87	53081.01
567.03	53183.99
567.19	53373.58
567.36	53097.39
567.52	52933.56
567.68	52753.33
567.85	52100.32
568.01	51351.35
568.17	50845.80
568.34	51143.05
568.50	50660.90
568.66	51313.90
568.83	51721.16
568.99	51791.37
569.15	51917.76
569.32	51845.21
569.48	51033.04
569.64	51302.20
569.81	51063.47
569.97	51056.45
570.13	51054.11
570.30	50424.50
570.46	50010.23
570.62	49069.33
570.78	49415.73
570.95	49457.86
571.11	50370.67
571.27	50464.29
571.43	51016.66
571.60	51203.90
571.76	51501.15
571.92	51800.74
572.09	51903.72
572.25	51573.70
572.41	51606.47
572.57	51449.66
572.74	51491.79
572.90	50852.82
573.06	51054.11
573.22	50843.46
573.38	51030.70
573.55	51213.26
573.71	51384.12
573.87	51164.11
574.03	51047.08
574.20	51093.89
574.36	50464.29
574.52	50309.82
574.68	50246.62
574.84	49745.75
575.01	49315.09
575.17	48994.43
575.33	49127.84
575.49	49581.91
575.65	50047.68
575.82	49572.55
575.98	49272.96
576.14	49387.64
576.30	49883.84
576.46	50251.30
576.62	50057.04
576.79	49907.24
576.95	49544.46
577.11	49233.17
577.27	49511.69
577.43	49712.98
577.59	49469.56
577.75	48732.29
577.92	47597.13
578.08	47831.19
578.24	48161.20
578.40	48423.34
578.56	48680.80
578.72	48540.37
578.88	48882.09
579.04	49003.80
579.21	49109.12
579.37	48856.34
579.53	49415.73
579.69	49006.14
579.85	49394.67
580.01	48917.20
580.17	48655.06
580.33	48533.35
580.49	48617.61
580.65	49158.27
580.82	49235.51
580.98	49272.96
581.14	48875.07
581.30	48779.10
581.46	48409.30
581.62	49237.85
581.78	49212.10
581.94	49310.41
582.10	49261.26
582.26	49062.31
582.42	49453.18
582.58	49148.91
582.74	49167.63
582.90	49404.03
583.06	49312.75
583.22	49202.74
583.38	48839.96
583.54	48495.90
583.70	48596.54
583.86	48671.44
584.02	48917.20
584.18	49118.48
584.34	48357.81
584.50	48334.40
584.66	48381.21
584.82	48390.58
584.98	48055.88
585.14	47435.64
585.30	46574.32
585.46	46209.20
585.62	46337.93
585.78	46396.44
585.94	46890.29
586.10	47023.70
586.26	46932.42
586.42	47587.77
586.58	48224.40
586.74	47503.51
586.90	47538.62
587.06	47461.38
587.22	47210.95
587.38	47119.66
587.54	46855.18
587.70	46710.07
587.86	45801.94
588.02	46256.01
588.18	45572.57
588.34	44348.47
588.49	42153.05
588.65	40250.19
588.81	39831.24
588.97	39957.63
589.13	40018.48
589.29	39716.55
589.45	40802.56
589.61	42010.28
589.77	43337.36
589.93	43594.82
590.08	44966.37
590.24	45102.12
590.40	45193.40
590.56	44938.29
590.72	45055.31
590.88	44491.24
591.04	44287.62
591.20	44535.71
591.35	43920.15
591.51	44388.26
591.67	44437.41
591.83	44713.59
591.99	44418.69
592.15	45050.63
592.31	44847.00
592.46	44535.71
592.62	44456.14
592.78	44037.18
592.94	44198.68
593.10	44477.20
593.26	44484.22
593.41	44978.07
593.57	44701.89
593.73	43859.30
593.89	43320.98
594.05	43449.70
594.20	43335.02
594.36	42445.62
594.52	42562.64
594.68	42579.03
594.84	43033.09
594.99	43452.05
595.15	43084.58
595.31	43227.35
595.47	43491.83
595.62	43679.08
595.78	44130.80
595.94	43971.64
596.10	43810.15
596.25	43941.22
596.41	43515.24
596.57	42843.51
596.73	43732.91
596.88	43594.82
597.04	43051.81
597.20	43323.32
597.36	42511.15
597.51	42850.53
597.67	42670.31
597.83	43203.95
597.99	43033.09
598.14	42192.84
598.30	42183.48
598.46	42649.24
598.61	42359.02
598.77	42300.50
598.93	42714.78
599.09	42946.49
599.24	42932.45
599.40	42623.50
599.56	42431.57
599.71	42541.58
599.87	42815.42
600.03	42071.13
600.18	41933.04
600.34	41851.12
600.50	41649.83
600.65	41404.08
600.81	42010.28
600.97	41701.32
601.12	41738.77
601.28	41820.69
601.44	41273.01
601.59	41265.99
601.75	40755.75
601.91	40715.96
602.06	40900.86
602.22	41104.49
602.37	40910.22
602.53	41106.83
602.69	41441.53
602.84	41551.53
603.00	42614.13
603.16	42373.06
603.31	42677.33
603.47	42068.79
603.62	42078.15
603.78	42281.78
603.94	41635.79
604.09	41663.88
604.25	41324.50
604.40	41565.57
604.56	41294.07
604.71	41504.72
604.87	41614.72
605.03	40840.01
605.18	41282.37
605.34	41102.15
605.49	40809.58
605.65	41373.65
605.80	40570.85
605.96	40563.82
606.12	40638.72
606.27	40121.46
606.43	40488.93
606.58	40755.75
606.74	40877.46
606.89	40994.48
607.05	40823.62
607.20	40877.46
607.36	40275.94
607.51	39971.67
607.67	39388.88
607.82	39409.94
607.98	39131.42
608.13	39770.38
608.29	39171.21
608.44	39171.21
608.60	39154.82
608.75	39311.64
608.91	39131.42
609.06	39599.52
609.22	39896.77
609.37	39592.50
609.53	39419.30
609.68	38930.13
609.84	37830.08
609.99	37766.88
610.15	38029.02
610.30	38181.16
610.46	38768.63
610.61	39461.43
610.76	38962.90
610.92	39868.69
611.07	39304.62
611.23	39606.55
611.38	39311.64
611.54	39047.16
611.69	38649.27
611.84	38007.96
612.00	37364.31
612.15	37551.56
612.31	37865.19
612.46	37659.22
612.62	38295.85
612.77	38082.86
612.92	38192.86
613.08	37450.91
613.23	36758.11
613.39	36535.76
613.54	36268.94
613.69	36385.97
613.85	36254.90
614.00	36666.83
614.15	36917.27
614.31	37092.81
614.46	37673.26
614.62	36804.92
614.77	37509.43
614.92	37284.73
615.08	36793.22
615.23	36676.19
615.38	36589.59
615.54	35669.76
615.69	35611.25
615.84	34417.58
616.00	34335.66
616.15	34553.33
616.30	34801.43
616.46	34993.35
616.61	34602.48
616.76	34754.61
616.92	34965.26
617.07	35627.63
617.22	35765.73
617.37	35924.88
617.53	35974.03
617.68	36252.56
617.83	36236.17
617.99	36039.57
618.14	36694.92
618.29	35929.56
618.45	35243.79
618.60	34986.33
618.75	34471.41
618.90	34644.61
619.06	34967.60
619.21	35384.22
619.36	35742.32
619.51	35236.77
619.67	34857.60
619.82	35037.82
619.97	35388.90
620.12	35330.39
620.28	35005.05
620.43	35332.73
620.58	35475.50
620.73	35054.20
620.89	34721.85
621.04	34820.15
621.19	34094.58
621.34	34220.97
621.49	34024.37
621.65	33928.41
621.80	34047.77
621.95	33858.19
622.10	33876.91
622.25	33916.70
622.41	33951.81
622.56	33537.54
622.71	33095.18
622.86	33024.96
623.01	33378.38
623.16	33553.92
623.32	32943.04
623.47	33448.60
623.62	33085.81
623.77	32732.39
623.92	32491.32
624.07	31885.12
624.23	31962.36
624.38	32063.00
624.53	31931.93
624.68	32278.33
624.83	31793.84
624.98	31854.69
625.13	31278.92
625.29	31585.53
625.44	31459.14
625.59	31646.38
625.74	32058.32
625.89	31634.68
626.04	31936.61
626.19	31744.69
626.34	31927.25
626.49	31978.74
626.65	31524.68
626.80	31583.19
626.95	31702.56
627.10	31578.51
627.25	30719.53
627.40	30094.61
627.55	29380.74
627.70	29441.60
627.85	29324.57
628.00	29612.46
628.15	30429.30
628.30	30382.49
628.45	30103.97
628.60	30478.46
628.76	30160.14
628.91	29869.92
629.06	30115.67
629.21	29921.41
629.36	29970.56
629.51	29235.63
629.66	29404.15
629.81	29212.23
629.96	28823.70
630.11	29415.85
630.26	29844.17
630.41	29942.47
630.56	29500.11
630.71	29668.63
630.86	29640.54
631.01	29156.05
631.16	29076.48
631.31	28811.99
631.46	28697.31
631.61	29022.64
631.76	29074.13
631.91	29165.42
632.06	29254.36
632.21	29509.47
632.36	29647.57
632.51	29397.13
632.66	29465.00
632.81	29036.69
632.96	29542.24
633.10	29137.33
633.25	28758.16
633.40	28477.30
633.55	28783.91
633.70	28439.85
633.85	28720.71
634.00	28758.16
634.15	29366.70
634.30	28645.82
634.45	28655.18
634.60	29268.40
634.75	28788.59
634.90	28472.62
635.05	28835.40
635.19	28804.97
635.34	28697.31
635.49	28411.76
635.64	28489.00
635.79	28144.94
635.94	28130.90
636.09	28386.02
636.24	28425.81
636.39	28395.38
636.53	28629.43
636.68	28327.50
636.83	28486.66
636.98	28123.88
637.13	28465.60
637.28	28500.70
637.43	28638.80
637.57	28369.63
637.72	28074.73
637.87	28030.26
638.02	28215.16
638.17	27929.61
638.32	28208.14
638.46	28168.35
638.61	28034.94
638.76	27672.15
638.91	27424.06
639.06	27229.79
639.20	27880.46
639.35	27175.96
639.50	27143.19
639.65	26824.88
639.80	26717.22
639.94	27328.10
640.09	27269.58
640.24	27037.87
640.39	27058.93
640.54	26562.74
640.68	26536.99
640.83	26618.91
640.98	26136.76
641.13	26270.17
641.27	26689.13
641.42	26445.71
641.57	26405.92
641.72	26281.88
641.86	25872.28
642.01	25867.60
642.16	26569.76
642.31	26909.14
642.45	26621.25
642.60	26632.96
642.75	26359.11
642.90	26129.74
643.04	25785.68
643.19	26015.05
643.34	26199.96
643.48	25757.60
643.63	25743.55
643.78	25855.90
643.93	26075.91
644.07	26176.55
644.22	26436.35
644.37	26157.83
644.51	26197.62
644.66	25797.38
644.81	25514.18
644.95	25556.31
645.10	25598.44
645.25	25289.49
645.39	24931.39
645.54	25055.43
645.69	24868.19
645.83	24514.77
645.98	24261.99
646.13	24463.28
646.27	24697.33
646.42	24627.12
646.57	24519.45
646.71	24861.17
646.86	24905.64
647.00	24493.71
647.15	24030.28
647.30	23920.28
647.44	23599.62
647.59	24046.66
647.74	23857.08
647.88	23616.01
648.03	23667.50
648.17	23983.47
648.32	23999.85
648.47	24395.40
648.61	24126.24
648.76	23903.89
648.90	23461.53
649.05	22637.66
649.20	22160.19
649.34	22204.66
649.49	22139.13
649.63	22771.07
649.78	22721.92
649.92	23271.95
650.07	23847.72
650.21	23866.44
650.36	24147.31
650.51	23728.35
650.65	24088.79
650.80	24088.79
650.94	23637.07
651.09	23410.04
651.23	22895.12
651.38	22384.88
651.52	22623.62
651.67	22864.69
651.81	23037.89
651.96	22920.87
652.10	23096.41
652.25	23009.81
652.39	23426.42
652.54	23573.88
652.68	23300.03
652.83	23278.97
652.97	23192.37
653.12	23304.71
653.26	23105.77
653.41	23337.48
653.55	23000.44
653.70	23131.51
653.84	22820.22
653.99	22604.89
654.13	22061.89
654.27	22405.95
654.42	21895.71
654.56	21656.98
654.71	21862.94
654.85	21680.38
655.00	21476.76
655.14	21322.28
655.29	20814.38
655.43	20547.56
655.57	19763.48
655.72	18478.53
655.86	17427.63
656.01	16180.12
656.15	16545.25
656.30	17685.09
656.44	18192.98
656.58	18986.43
656.73	19943.70
656.87	20126.27
657.01	20587.35
657.16	20936.09
657.30	21151.42
657.45	21322.28
657.59	21493.14
657.73	21511.86
657.88	21172.49
658.02	21479.10
658.16	21242.70
658.31	21453.35
658.45	21607.83
658.60	21378.45
658.74	21067.16
658.88	20760.55
659.03	21090.57
659.17	20847.15
659.31	20732.47
659.46	21179.51
659.60	21242.70
659.74	21532.93
659.89	21179.51
660.03	21214.62
660.17	21467.39
660.32	21198.23
660.46	21219.30
660.60	21090.57
660.74	20891.62
660.89	20666.93
661.03	20662.25
661.17	20943.11
661.32	20816.72
661.46	21158.44
661.60	20556.93
661.74	20961.84
661.89	21238.02
662.03	21067.16
662.17	20737.15
662.31	20849.49
662.46	20765.23
662.60	20652.89
662.74	20369.68
662.88	20053.71
663.03	20051.37
663.17	19709.65
663.31	19726.04
663.45	19843.06
663.60	20212.87
663.74	20187.12
663.88	19812.63
664.02	19711.99
664.17	19971.79
664.31	19922.64
664.45	19887.53
664.59	20049.03
664.73	19939.02
664.88	19803.27
665.02	19573.90
665.16	19461.55
665.30	19737.74
665.44	19723.69
665.59	19529.43
665.73	19351.55
665.87	19044.94
666.01	18988.77
666.15	18796.84
666.29	18845.99
666.44	19058.98
666.58	19201.76
666.72	19218.14
666.86	19314.10
667.00	19293.04
667.14	19105.79
667.28	18984.09
667.43	18867.06
667.57	18831.95
667.71	18590.88
667.85	18956.00
667.99	18625.98
668.13	18457.46
668.27	18817.91
668.41	18558.11
668.56	18537.04
668.70	18370.86
668.84	18405.97
668.98	18382.57
669.12	18373.21
669.26	17994.04
669.40	18258.52
669.54	18104.04
669.68	18031.49
669.82	17963.61
669.96	18097.02
670.10	18080.64
670.25	17701.47
670.39	17661.68
670.53	17685.09
670.67	17703.81
670.81	17429.97
670.95	17785.73
671.09	17469.76
671.23	17280.18
671.37	16996.97
671.51	17214.64
671.65	17224.00
671.79	16989.95
671.93	17137.40
672.07	17390.18
672.21	17474.44
672.35	17303.58
672.49	16943.14
672.63	17212.30
672.77	17123.36
672.91	17076.55
673.05	16891.65
673.19	17277.83
673.33	16837.81
673.47	16877.60
673.61	16987.61
673.75	16681.00
673.89	16671.64
674.03	17027.40
674.17	16812.07
674.31	16730.15
674.45	16713.77
674.59	16517.16
674.73	16453.97
674.87	16196.51
675.01	16137.99
675.15	16086.50
675.29	15864.15
675.43	16130.97
675.56	16320.56
675.70	16341.62
675.84	16154.38
675.98	15555.20
676.12	16112.25
676.26	16161.40
676.40	15599.67
676.54	15407.75
676.68	15660.52
676.82	15632.44
676.96	15353.91
677.10	15829.04
677.23	15543.50
677.37	15466.26
677.51	15836.06
677.65	15510.73
677.79	15246.25
677.93	15304.76
678.07	15108.16
678.21	14782.82
678.34	14651.75
678.48	14595.58
678.62	14614.30
678.76	14672.82
678.90	14860.06
679.04	14789.85
679.18	14621.33
679.31	14525.36
679.45	14611.96
679.59	14499.62
679.73	14417.70
679.87	14277.27
680.00	14193.01
680.14	14115.77
680.28	13973.00
680.42	13720.22
680.56	13954.27
680.70	13628.94
680.83	13954.27
680.97	13689.79
681.11	13736.60
681.25	14022.15
681.39	13486.17
681.52	13640.64
681.66	13682.77
681.80	13631.28
681.94	13441.70
682.07	13551.70
682.21	13591.49
682.35	13392.55
682.49	13282.54
682.62	13441.70
682.76	13118.70
682.90	13081.25
683.04	13188.92
683.17	13034.44
683.31	12886.99
683.45	12905.71
683.59	12896.35
683.72	12463.35
683.86	12414.20
684.00	12304.20
684.13	12210.57
684.27	12290.15
684.41	12681.02
684.55	12187.17
684.68	12355.69
684.82	12231.64
684.96	12266.75
685.09	12159.08
685.23	11969.50
685.37	11775.24
685.50	11997.59
685.64	11613.74
685.78	11796.30
685.91	11662.89
686.05	11648.85
686.19	11440.54
686.32	10501.98
686.46	9643.01
686.60	8479.76
686.73	7948.46
686.87	7433.54
687.01	7410.14
687.14	7421.84
687.28	7412.48
687.42	8004.63
687.55	8271.45
687.69	9100.00
687.82	9238.09
687.96	9558.75
688.10	9568.11
688.23	9507.26
688.37	9350.44
688.50	9071.92
688.64	8924.46
688.78	9013.40
688.91	8772.33
689.05	8985.32
689.18	8791.05
689.32	8809.78
689.46	8849.57
689.59	8952.55
689.73	9231.07
689.86	9109.36
690.00	9029.79
690.13	9011.06
690.27	9006.38
690.41	9137.45
690.54	8957.23
690.68	8952.55
690.81	9291.93
690.95	9158.52
691.08	9163.20
691.22	9259.16
691.35	8990.00
691.49	9158.52
691.62	9298.95
691.76	9156.18
691.89	9081.28
692.03	9034.47
692.16	9083.62
692.30	9153.84
692.43	8959.57
692.57	8898.72
692.70	8702.11
692.84	8613.17
692.97	8552.32
693.11	8629.56
693.24	8624.87
693.38	8578.06
693.51	8561.68
693.65	8418.91
693.78	8217.62
693.92	8182.51
694.05	8404.86
694.19	8498.49
694.32	8376.78
694.45	8283.16
694.59	8226.98
694.72	8257.41
694.86	8116.98
694.99	8245.71
695.13	8086.55
695.26	7964.84
695.39	7899.31
695.53	7957.82
695.66	8018.68
695.80	7667.60
695.93	7742.49
696.07	8021.02
696.20	8166.13
696.33	8201.24
696.47	8252.73
696.60	8177.83
696.73	8308.90
696.87	8039.74
697.00	8320.60
697.14	7932.08
697.27	7889.95
697.40	7843.14
697.54	7599.72
697.67	7637.17
697.80	7503.76
697.94	7588.02
698.07	7475.67
698.21	7494.40
698.34	7438.22
698.47	7269.70
698.61	7124.59
698.74	7206.51
698.87	7213.53
699.01	7297.79
699.14	7117.57
699.27	7012.24
699.40	7297.79
699.54	7068.42
699.67	7077.78
699.80	6916.28
699.94	6874.15
700.07	6773.51
700.20	6541.80
700.34	6466.90
700.47	6506.69
700.60	6604.99
700.73	6600.31
700.87	6450.52
701.00	6675.21
701.13	6478.60
701.26	6413.07
701.40	6438.81
701.53	6188.38
701.66	6485.62
701.79	6389.66
701.93	6516.05
702.06	6410.73
702.19	6244.55
702.32	6256.25
702.46	6190.72
702.59	5998.79
702.72	6169.65
702.85	6183.70
702.99	6164.97
703.12	6356.90
703.25	6207.10
703.38	6186.04
703.51	6054.97
703.65	5984.75
703.78	5977.73
703.91	6040.92
704.04	6033.90
704.17	5994.11
704.31	6171.99
704.44	6017.52
704.57	6108.80
704.70	6143.91
704.83	5947.30
704.96	5944.96
705.10	5841.98
705.23	5982.41
>>>>>End Processed Spectral Data<<<<<
